MIRICO/SHELL project - Processed LDS file generated on
Sun Jul 09 20:02:35 2017
Time stamp for record start
05/11/2017  09:41:53.0000
Nb of points in the record
         879
Beam position index
       1.0000000
Beam angle (degrees)
      -18.455000
Open Path length (m)
       34.890000
****************** Temporal data record ************************
Elapsedtime_sec Temp_K Press_Pa Humidity_ppmv WindX_m/s WindY_m/s WindZ_m/s Speedofsound_m/s CH4vmr_ppmv CH4vmrerror_ppmv  
      0.00000000       288.64307       98746.570       11498.650      -1.1397500       1.2747500   -0.0025000000       341.36300       2.2164507     0.010764440
       5.0000131       288.64956       98740.877       11472.255     -0.14550000       2.1372500     0.031250000       341.52200       2.1837051     0.015767132
       9.9999860       288.71061       98744.180       11485.792     0.040250000       2.8290000     -0.11925000       341.86700       2.2038769     0.012825404
       14.999999       288.70844       98747.202       11451.816     -0.13325000       3.6410000     -0.53700000       340.71400       2.1852444     0.014766673
       20.000012       288.64734       98740.511       11366.518     -0.65600000       3.3847500     -0.31800000       341.12100       2.1978762     0.011360024
       24.999985       288.64365       98745.715       11327.776     0.070000000       3.0925000   -0.0025000000       341.33000       2.2117049     0.014266445
       30.999993       288.64379       98771.955       11280.673      0.12800000       3.5257500    -0.099000010       341.14200       2.1916457     0.015750139
       36.000006       288.65271       98775.605       11272.779      0.32050000       2.5257500     -0.51925000       340.85000       2.1653578     0.018013719
       40.999979       288.70332       98774.342       11300.466    -0.049500000       2.7812500     -0.17275000       341.26200       2.1957648     0.016187279
       45.999992       288.71479       98767.103       11315.483      0.59450000       3.1200000     -0.44400000       340.74000       2.1765116     0.016382663
       51.000005       288.68236       98741.354       11328.747       1.4290000       2.4782500      0.45700000       341.02800       2.1553107     0.018372799
       56.000018       288.71969       98742.420       11374.267     0.086000000       2.6107500    -0.020250000       340.93900       2.1511616     0.017217302
       60.999991       288.80001       98754.808       11436.527      0.18500000       2.1330000    -0.020500000       341.40600       2.1848590     0.014835838
       66.000004       288.82142       98755.890       11498.917     -0.33125000       3.0450000     -0.61200000       341.05100       2.1592815     0.016438097
       71.000017       288.87688       98769.590       11608.199     -0.14975000       1.6085000     -0.68350010       341.40600       2.1528397     0.018086782
       75.999990       288.84164       98765.460       11637.436    -0.036750000      0.79600010       1.1175000       341.95800       2.1831073     0.011939343
       81.000003       288.71129       98735.351       11631.444      0.91625010       3.0555000     -0.35250000       340.77700       2.1921477     0.014134259
       86.000016       288.64119       98737.273       11617.077    -0.086250010       2.2887500     -0.29025000       340.79100       2.1707730     0.016214413
       90.999989       288.55623       98754.493       11560.609     -0.40625000       1.5357500    -0.072000000       340.96300       2.1453675     0.016910616
       96.000002       288.49551       98758.417       11519.498      0.26925000       2.6830000      0.37575000       341.60500       2.1286856     0.020137153
       101.00002       288.45199       98775.247       11481.468      0.46275000       2.2497500     -0.25850000       340.65900       2.1459804     0.019863407
       105.99999       288.42124       98771.348       11427.345      0.37275000       2.7380000     -0.24325000       341.36700       2.1107474     0.021450991
       111.00000       288.40677       98741.455       11359.673     -0.48075000       1.8757500   -0.0070000000       341.80700       2.1636415     0.016628881
       116.00001       288.37671       98742.680       11290.839      -1.0692500       2.8660000     -0.39025000       341.64100       2.1249449     0.020056054
       121.99998       288.35073       98753.610       11188.542     -0.32225000       1.4432500    -0.050250000       341.86300       2.1252692     0.021865440
       127.00000       288.31475       98780.144       11134.753     -0.77650000       1.6967500      0.17600000       341.37200       2.1033451     0.021690221
       132.00001       288.29305       98786.702       11107.473     -0.93875000       1.1617500      0.72100000       341.09700       2.1298609     0.018182225
       136.99998       288.28489       98762.312       11125.862     -0.41700000       1.9112500     -0.43325000       340.84400       2.1251028     0.018013338
       141.99999       288.29358       98754.211       11145.241     -0.60000000       1.8225000     -0.27525000       341.19600       2.1269632     0.016491513
       147.00001       288.31455       98748.583       11175.482     -0.71725000       2.3182500      0.26375000       341.02900       2.1081539     0.018124983
       151.99998       288.34279       98734.961       11220.921       1.2565000      0.79825000     0.039750000       341.85400       2.1310365     0.017355033
       156.99999       288.38451       98741.146       11266.649       1.5000000       1.5847500      0.17675000       341.70800       2.1546628     0.011650181
       162.00001       288.44957       98767.771       11315.098      0.55450000       1.4385000     -0.37500000       341.53400       2.1183125     0.018818922
       166.99998       288.48646       98774.145       11361.843      0.52225000       1.6842500     -0.19275000       341.01100       2.1630480     0.019976727
       171.99999       288.54567       98773.967       11461.009      0.26225000       1.3812500     0.072500010       341.01600       2.1348531     0.018510453
       177.00001       288.67567       98749.576       11707.058      0.10725000       1.4675000     -0.39200000       341.78800       2.1141060     0.018320290
       181.99998       288.71840       98742.031       11811.790      0.80625000       1.4192500     0.012500000       341.15700       2.0977949     0.018203280
       186.99999       288.71002       98740.875       11873.998     -0.27225000       1.0212500    -0.025000000       341.88700       2.1122944     0.017579932
       192.00000       288.71264       98742.251       11907.623     -0.63125000       1.9767500    -0.089000000       342.24900       2.0833294     0.018654051
       197.00002       288.69068       98749.779       11878.683      0.23925000       2.6037500      0.18625000       342.12300       2.0550520     0.019288200
       201.99999       288.58128       98774.090       11704.268     -0.45525000       2.8792500     -0.18725000       341.66300       2.0808746     0.017267200
       207.00000       288.58567       98774.297       11655.568     -0.27625000       2.6087500      0.13475000       341.50200       2.0873007     0.014637467
       213.00001       288.65381       98766.401       11636.592      0.11025000       2.0710000      0.14975000       341.95900       2.1034110     0.015218497
       217.99998       288.69024       98741.971       11593.519      0.92050000       2.2387500      0.37725000       341.35800       2.0959353     0.017186596
       223.00000       288.70946       98735.529       11548.314       1.3750000       2.0732500      0.31975000       341.30200       2.1034810     0.017373746
       228.00001       288.69994       98739.497       11483.396      0.71450000       1.6482500      0.20025000       341.75600       2.0731151     0.016759910
       232.99998       288.69982       98743.903       11432.651      0.20025000       2.5082500     0.037750000       341.55200       2.1113250     0.015491843
       238.00000       288.72960       98766.987       11416.982      0.73950000       2.5515000     -0.56200000       340.75300       2.1111993     0.011830174
       243.00001       288.70684       98774.259       11357.181      0.59925000       1.4140000   -0.0060000000       341.65500       2.0722666     0.017265927
       247.99998       288.63201       98775.789       11249.573      0.28500000       1.9295000    -0.013750000       341.50000       2.0982576     0.016385660
       253.00000       288.59199       98772.215       11188.913     0.024750000       1.4337500    -0.094250000       341.63800       2.1139270     0.016384996
       258.00001       288.50506       98751.774       11088.988      0.16100000       1.5915000     -0.13975000       341.74500       2.0810490     0.016673703
       262.99998       288.47842       98741.914       11063.916     -0.64125000       2.7687500     -0.12775000       341.52700       2.0552513     0.019080520
       267.99999       288.56219       98728.880       11160.347     -0.73475000       2.3917500     -0.32350000       341.43600       2.0553729     0.017607571
       273.00001       288.55923       98726.745       11182.585     0.084250000       2.9582500     -0.51700000       341.01400       2.1143771     0.016835010
       277.99998       288.50770       98737.558       11191.421      0.24975000       2.6387500     -0.65775000       341.22000       2.0485807     0.017307652
       282.99999       288.49748       98745.678       11214.682     -0.55125000       1.9575000      0.68375000       341.58400       2.0698715     0.011942496
       288.00001       288.43812       98766.904       11183.209      0.62000000       1.5280000     0.092000010       341.43200       2.1060486     0.010721386
       292.99998       288.43205       98774.226       11203.380    -0.040500000       1.0590000      0.30100000       341.17600       2.0915018     0.011740837
       297.99999       288.52355       98775.534       11302.805      0.66100000       1.0087500      0.24825000       341.90900       2.0916199     0.013873888
       304.00000       288.56884       98770.391       11364.574      0.26150000       1.7682500     -0.25675000       340.60800       2.0745749     0.014980755
       309.00001       288.58227       98750.871       11411.353    -0.084000010       1.3675000      0.72200010       341.51200       2.1026785     0.013661772
       313.99999       288.61240       98740.142       11445.681      0.18750000       1.4410000    0.0057500000       341.09200       2.0730430     0.010747354
       319.00000       288.62481       98724.005       11443.672     -0.20000000       1.6490000     -0.15550000       340.80000       2.0884281     0.016815189
       324.00001       288.65804       98721.254       11461.903      0.47250000       1.5110000     -0.34500000       341.02900       2.0602653     0.012239207
       328.99999       288.74618       98727.760       11506.886      0.64600000       1.1882500     -0.15175000       341.59800       2.0684638     0.017580369
       334.00000       288.76849       98736.292       11510.369       1.2392500     0.063500000      0.53400000       341.79600       2.1295298     0.015510993
       339.00001       288.73174       98760.146       11477.534      0.41600000       1.1462500      0.28725000       341.93000       2.1038256     0.016033075
       343.99998       288.75615       98771.107       11480.080      0.24875000       1.1990000    -0.053000000       341.43200       2.1249103     0.012662693
       349.00000       288.76973       98781.531       11461.061      0.85625000      0.69100000    -0.037000000       341.86200       2.0919315     0.015803578
       354.00001       288.80732       98783.756       11477.138       1.0590000      0.49975000      0.43275000       342.01800       2.0843835     0.016721338
       358.99998       288.92850       98773.795       11560.012       1.0315000      0.67825000      0.23625000       341.62600       2.0922310     0.017081242
       364.00000       288.98027       98768.393       11591.647       1.2442500      0.97025010    -0.055750000       341.82500       2.0628136     0.020799846
       369.00001       288.98202       98760.080       11600.210      0.93475000      0.80200000     -0.11725000       340.78600       2.0973411     0.016194412
       373.99998       289.01172       98752.098       11622.798      0.76625000      0.86925010     -0.37500000       340.69800       2.0564823     0.017417551
       379.00000       289.05050       98743.309       11659.148      0.47375000      0.55975000     -0.24900000       340.80500       2.0741734     0.018921509
       384.00001       289.05667       98737.624       11645.876   -0.0015000000      0.52850000      0.19425000       340.74400       2.1147494     0.014969974
       390.00002       289.06788       98728.353       11614.945     -0.22950000      0.81000010    -0.045000000       341.10300       2.0848391     0.018445641
       394.99999       289.04546       98728.869       11569.419      0.85600010       1.6077500      0.19850000       341.19500       2.0566298     0.018925431
       400.00000       288.94707       98737.776       11441.276      0.61025010      0.82650010     -0.46325000       341.14700       2.0837199     0.014747337
       405.00002       288.92922       98743.411       11401.407      0.26575000       1.4217500     -0.58425000       341.10300       2.0921245     0.016501273
       409.99999       288.95381       98752.111       11404.641      0.41200000       1.4167500      0.24200000       341.38900       2.0945836     0.013379469
       415.00000       288.94391       98760.051       11399.626     0.098250000       1.2985000     0.044250000       341.44600       2.0851423     0.014440861
       420.00002       288.98136       98768.284       11444.753     -0.33800000       1.6442500    0.0065000000       341.58600       2.0507399     0.018106470
       424.99999       288.94167       98773.624       11436.407     -0.60725000       1.1892500     -0.45075000       341.04900       2.1037906     0.011083700
       430.00000       288.81711       98780.141       11396.426     -0.67500000       1.6682500      0.18350000       341.58000       2.0330569     0.016530589
       435.00001       288.76325       98782.942       11374.583     -0.80350010       1.6875000      0.37525000       341.27500       2.0551665     0.017202143
       439.99999       288.70095       98780.277       11337.529     -0.47200000       1.5022500     -0.28925000       341.42100       2.0839510     0.017588179
       445.00000       288.67336       98780.304       11315.283     0.048000000       1.2577500     -0.19725000       341.54200       2.0976168     0.015348721
       450.00001       288.70026       98780.385       11305.322      0.45900000       1.5525000     0.031750000       341.97000       2.0819562     0.017822870
       454.99999       288.70026       98780.429       11298.552    -0.016500000       1.5780000      0.22625000       342.27900       2.0290221     0.017704633
       460.00000       288.68845       98782.503       11276.942      0.50375000       1.9882500      0.27100000       341.32000       2.0834728     0.016841597
       465.00001       288.70424       98779.303       11299.183       1.3905000       1.0292500      0.19650000       342.25000       2.0946507     0.016378357
       469.99999       288.72928       98773.195       11352.190       1.4145000       1.0632500      0.47875000       341.34100       2.0900113     0.015107530
       475.00000       288.76583       98767.518       11403.110       1.5717500       2.3167500     -0.43925000       340.90000       2.0825381     0.016797562
       481.00001       288.84010       98755.057       11491.722       1.0085000       1.5187500    -0.054000000       341.61400       2.1113270     0.016652686
       485.99998       288.89069       98750.738       11570.301       1.5720000       1.0487500      0.57250010       341.90700       2.0914627     0.018222949
       490.99999       288.94081       98751.632       11645.523       1.1070000       2.8862500      0.10475000       341.29100       2.0513991     0.023114936
       496.00001       288.99082       98746.749       11742.000      -1.3427500       2.8865000     -0.18475000       341.45900       2.0600254     0.019411098
       501.00002       289.03964       98741.173       11881.545      0.98875000       2.4905000     -0.66725000       341.21500       2.0750600     0.019327364
       505.99999       289.08899       98737.215       11954.104     -0.40375000       2.3782500      0.50450000       341.73200       2.0951057     0.016769481
       511.00000       289.14850       98729.883       12034.139    -0.083750000       2.7007500     -0.80150000       341.57300       2.1290790     0.015574527
       516.00002       289.17978       98727.758       12031.633     -0.83625010       2.8005000      0.25600000       341.34500       2.0836910     0.016439774
       520.99999       289.20277       98730.257       11954.520      0.47925000       2.5130000     -0.61775000       341.13400       2.1070353     0.017203238
       526.00000       289.21426       98730.244       11901.275       1.0490000       3.5305000     -0.19000000       341.11100       2.0839752     0.016409782
       531.00002       289.23503       98730.109       11816.661      0.51850000       2.5700000      0.26800000       341.55200       2.1142117     0.016128296
       535.99999       289.16008       98730.050       11724.772       1.3005000       3.5525000     -0.19575000       341.10500       2.0916107     0.016697454
       541.00000       289.02412       98730.218       11629.755      0.89775000       2.9812500     -0.66025000       340.89800       2.1062282     0.016493329
       546.00002       288.92617       98730.171       11530.468     0.029500000       1.5472500      0.34125000       342.08200       2.1120397     0.014967066
       550.99999       288.73386       98730.291       11375.491     0.026500000       3.3867500     -0.27950000       341.54600       2.0834976     0.015932673
       556.00000       288.68754       98730.304       11327.112     -0.22900000       3.1785000      0.20250000       340.97100       2.0825631     0.017372906
       561.00001       288.76089       98730.077       11350.118     -0.52450000       2.2482500      0.58350000       341.45600       2.0256204     0.022029501
       565.99999       288.73193       98730.018       11302.895      0.19825000       1.7732500    -0.032000000       342.05800       2.1401814     0.015766479
       572.00000       288.70646       98730.077       11267.958      0.35675000       2.6982500     -0.43750000       341.55600       2.0977682     0.017981291
       577.00001       288.63003       98730.157       11187.134     -0.24575000       1.4100000    0.0022500000       342.08400       2.1267653     0.015340042
       581.99998       288.58684       98730.098       11146.696     -0.43025000       3.1082500      0.85325000       341.26300       2.1064911     0.015513200
       586.99999       288.59986       98730.245       11182.398     0.017000000       1.8180000      0.41600000       341.62600       2.1186912     0.015388317
       592.00001       288.59972       98730.210       11200.338      0.61400000       1.7497500     -0.33450000       341.43100       2.1228299     0.015570033
       596.99998       288.59953       98730.160       11218.241     -0.31975000      0.99700000      0.43600000       342.07700       2.1033103     0.015198910
       601.99999       288.59435       98727.053       11230.406      0.93750010       1.4897500      0.14450000       342.18500       2.1201787     0.011463735
       607.00001       288.61621       98737.869       11271.302      0.27275000       2.2015000     -0.17325000       341.26400       2.0973139     0.014750045
       611.99998       288.65622       98758.228       11329.544       1.2400000      0.86575000      0.39775000       342.25100       2.0905758     0.016939041
       616.99999       288.65458       98758.911       11356.932     0.093500000       2.0870000     -0.11950000       341.59800       2.1129517     0.016126805
       622.00001       288.65586       98758.646       11385.703     -0.25075000       2.0162500     -0.40250000       341.37300       2.1082676     0.017086154
       626.99998       288.61472       98730.191       11386.307      0.31600000      0.71575000      0.25525000       341.92800       2.1192254     0.017150250
       631.99999       288.59388       98720.456       11390.486    -0.061250000       2.7550000    -0.080000010       341.16400       2.1161376     0.018373854
       637.00000       288.59986       98729.342       11416.014       1.5045000       2.5045000     0.041250000       341.34100       2.1000670     0.015625825
       642.00002       288.59973       98734.070       11423.753       1.0077500       2.1360000      0.11450000       341.61400       2.1142899     0.016715471
       646.99999       288.59953       98741.241       11419.981      0.28325000       1.2945000      0.25300000       342.20500       2.1127929     0.015341624
       652.00000       288.60752       98757.273       11408.139   -0.0025000000       1.9970000     -0.18725000       340.91900       2.0995688     0.014231145
       657.00002       288.58638       98761.963       11368.980     0.031250000       1.7980000     0.041250000       341.15700       2.1504077     0.011710271
       662.99998       288.54040       98760.549       11293.153       1.0617500       1.7827500     -0.23900000       341.22800       2.0769180     0.018609989
       668.00000       288.59253       98767.104       11300.629      0.68325000       1.3240000      0.10900000       341.62100       2.1411199     0.013454043
       673.00001       288.60270       98771.102       11290.110      0.21275000       1.3452500     -0.27600000       341.50600       2.1339589     0.013463320
       677.99998       288.61838       98778.387       11295.902     0.087250000       3.3777500     -0.33900000       341.28800       2.1227523     0.013978605
       683.00000       288.65808       98782.082       11325.298     -0.17125000       2.8227500    -0.061750000       341.38200       2.2036366     0.013462301
       688.00001       288.61734       98783.186       11312.786    -0.049000000       1.9487500      0.18825000       341.85000       2.1131542     0.011960113
       692.99998       288.68437       98780.885       11367.581      0.12675000       1.9292500     -0.26000000       341.49900       2.1271461     0.013453912
       698.00000       288.95821       98774.907       11542.044    -0.092750010       1.7607500     0.059500000       341.70500       2.1503720     0.014444797
       703.00001       289.04196       98769.786       11638.601       1.1237500       1.7642500     -0.10425000       341.84200       2.1266240     0.014699884
       707.99998       289.05764       98761.583       11733.854      0.36775000      0.31950000      0.24475000       342.03500       2.1592916     0.016602690
       713.00000       289.07270       98753.593       11799.893       1.7292500       2.5262500    -0.052500000       342.28500       2.1639867     0.014385552
       718.00001       288.94247       98744.515       11821.036       1.2557500       1.7922500     -0.11775000       341.25200       2.1169395     0.016140287
       722.99998       288.87586       98738.749       11817.749       2.1117500       2.1170000     -0.20450000       340.88600       2.3207320     0.019585157
       727.99999       288.83754       98732.294       11767.599       2.2832500       3.2230000      0.20425000       341.50400       2.2816168     0.014808003
       733.00001       288.83984       98728.562       11749.737       1.9920000       2.5087500     -0.22150000       341.57300       2.2915242     0.016492994
       737.99998       288.90570       98727.516       11729.409       1.9315000       2.7745000    -0.096750010       341.04200       2.2399010     0.015265860
       742.99999       288.90441       98729.855       11692.015       2.3460000       2.4330000     -0.42350000       340.95500       2.6183792     0.015136969
       748.00001       288.86954       98735.670       11643.852       2.4245000       2.1992500     -0.11800000       341.22000       3.2798578     0.016324047
       754.00001       288.90916       98742.002       11635.381       1.6242500       1.7597500    -0.057250000       341.46600       2.2115420     0.018445995
       758.99999       288.93900       98750.404       11629.318      0.16900000       1.9285000      0.45675000       342.29700       2.1809098     0.014300224
       764.00000       288.95301       98758.361       11625.242       1.3707500       2.1680000     0.011000000       341.49700       2.1300805     0.015783453
       769.00001       289.06049       98767.439       11685.300      0.23375000       2.0155000      0.24075000       342.11100       2.1640199     0.016932623
       773.99999       289.07554       98773.010       11688.352      0.56300000      0.85875000      0.84675000       342.88900       2.1949371     0.016920960
       779.00000       288.95451       98782.142       11620.343       1.3655000       2.2575000      0.19250000       341.73700       2.1518180     0.015871090
       784.00001       288.93239       98782.585       11609.627      0.40475000       3.0925000     -0.97125010       341.28800       2.1344415     0.011520185
       788.99999       288.96871       98773.975       11636.175      0.82975010       3.6952500     -0.81700000       341.25200       2.1697300     0.015820259
       794.00000       288.94457       98768.560       11616.055      0.52100000       3.9527500      0.75850000       341.37900       2.3932989     0.015699569
       799.00001       288.91768       98759.877       11587.519       1.4462500       1.3257500      0.23075000       342.05000       2.2241924     0.015346113
       803.99998       288.89384       98751.861       11569.389       1.1615000       2.3197500     -0.46825000       340.80400       2.7674426     0.015429964
       809.00000       288.80941       98743.112       11505.150       2.3517500       1.5507500      0.46950000       341.91900       2.5820502     0.015795312
       814.00001       288.77732       98737.510       11485.131       1.2012500       1.8015000      0.39400000       342.22700       3.2525923     0.015568016
       818.99998       288.81308       98727.528       11528.688      0.72175000       2.3475000     0.046000000       341.57400       3.5024614     0.015591556
       824.00000       288.79958       98728.402       11525.146       1.8642500       3.2222500      0.13875000       341.33900       2.8458616     0.017034459
       829.00001       288.76297       98738.888       11506.347       2.4092500       2.4362500     -0.88775000       341.68400       2.6237847     0.015121225
       833.99998       288.74287       98747.750       11488.211       1.4330000       2.6085000     -0.19525000       340.87600       3.2291249     0.013077888
       839.00000       288.69278       98768.751       11437.368      0.87375000       1.0462500      0.19450000       341.77300       2.6119639     0.014998248
       845.00000       288.69265       98775.373       11421.070       1.5257500       1.6820000      0.21450000       341.41300       2.1422540     0.014390047
       850.00002       288.73148       98775.041       11424.534     -0.44100000       1.4940000   -0.0042500000       341.72700       2.1563166     0.014401563
       854.99999       288.76763       98769.019       11436.592       1.1762500       1.8147500      0.29050000       341.62400       2.1671325     0.014509054
       860.00000       288.85276       98747.727       11468.264       1.3752500       2.9517500     -0.73375000       340.90700       2.2077985     0.016557142
       865.00002       288.87007       98738.991       11500.267       1.4305000       3.3055000    -0.049250000       340.92000       2.1666328     0.015138742
       869.99999       288.86931       98724.746       11557.619       1.2730000       2.4167500     0.076250000       341.55200       2.1715208     0.014738193
       875.00000       288.84603       98728.935       11573.736       1.2372500       3.1782500     -0.18825000       340.92300       2.1858718     0.010816730
       880.00001       288.74820       98751.185       11573.270      0.52875000       2.4077500      0.18750000       341.29900       2.1999162     0.015318277
       884.99999       288.73077       98761.157       11579.487     -0.36975000       2.8597500     -0.43275000       341.64200       2.1664933     0.015651235
       890.00000       288.72093       98783.344       11537.531       1.4445000       1.7925000    -0.053250000       342.07900       2.1394042     0.015775389
       895.00001       288.75952       98785.377       11567.322     -0.14675000       2.3187500     -0.91725000       341.77100       2.1660137     0.015381620
       899.99999       288.89503       98771.068       11670.849     -0.15550000       4.3180000     -0.58100000       341.80900       2.2393319     0.012527057
       905.00000       288.93205       98760.268       11699.475       1.8322500       4.2467500     -0.96225010       341.43100       2.1992174     0.017178941
       910.00001       288.95631       98734.593       11730.664     -0.28475000       4.0997500      0.12175000       341.96700       2.1562614     0.017257024
       914.99999       288.96392       98729.305       11741.490    -0.040250000       3.0640000      0.46625000       341.72100       2.1888254     0.017045825
       920.00000       288.88935       98729.103       11684.296       2.2095000       3.7975000    -0.036750000       341.17700       2.1656940     0.019065404
       925.00001       288.89213       98735.871       11680.709       1.5570000       2.1662500      0.30950000       341.44600       2.1799125     0.016602291
       929.99998       288.95247       98764.662       11718.495       1.5850000       2.3177500     -0.87775000       341.40100       2.1652943     0.017497112
       935.99999       288.95515       98772.228       11713.487      0.26150000       2.2985000      0.25200000       341.74200       2.1933297     0.017225185
       941.00001       288.97434       98775.513       11711.174       1.1942500       2.9625000     -0.17500000       341.57700       2.1446428     0.017250820
       945.99998       288.92855       98767.505       11673.210      0.33450000       2.5445000     0.013750000       342.04400       2.1835686     0.016762336
       950.99999       288.80456       98738.581       11593.668       1.1710000       2.1842500      0.35100000       341.84900       2.1670159     0.017077676
       956.00000       288.75352       98733.965       11545.683      0.95200000       2.6762500      0.27025000       341.97000       2.2335517     0.018189842
       961.00002       288.69444       98729.751       11487.582      0.17450000       1.2677500      0.50550000       342.24200       2.1825080     0.017358916
       965.99999       288.67259       98737.081       11448.949      0.20900000       2.5087500      0.13375000       341.70900       2.2182981     0.016641580
       971.00000       288.70067       98766.572       11419.592       1.3417500       2.3317500     -0.24600000       341.26000       2.1870962     0.015563913
       976.00002       288.70097       98772.187       11415.801       1.4687500       3.0527500    -0.055000000       341.49700       2.1695066     0.016061510
       980.99999       288.70911       98774.581       11425.802      0.72100000       2.1170000    -0.068250000       341.23900       2.2266297     0.016757702
       986.00000       288.69045       98768.346       11441.643      0.78200010       2.9985000     -0.76200000       340.80200       2.5323230     0.018582799
       991.00002       288.65390       98744.083       11494.998      0.99525000       1.8582500      0.10875000       341.44100       2.3990558     0.016176680
       995.99999       288.63404       98739.665       11503.697      0.86450000       1.8145000     -0.18000000       341.80900       2.3875007     0.016858476
       1001.0000       288.57880       98735.845       11486.271       1.8705000       1.6592500     0.025000000       341.52900       2.2071336     0.016555449
       1006.0000       288.60431       98741.928       11496.245       1.2272500       2.5240000     -0.35975000       341.06000       2.1921391     0.015663631
       1011.0000       288.67114       98769.044       11489.539      0.29250000       2.2742500     -0.32425000       341.67000       2.1756632     0.017475183
       1016.0000       288.74933       98767.807       11525.696     0.018000000       1.5642500      0.15225000       341.23500       2.2108184     0.015870065
       1022.0000       288.89972       98757.135       11605.233     -0.44975000       2.2275000      0.35275000       341.58400       2.2080761     0.016824378
       1027.0000       289.00156       98733.453       11696.299      0.28100000       2.2710000     -0.62975000       340.87400       2.1991463     0.016601611
       1032.0000       289.10236       98725.252       11777.380      0.54275000       3.2272500    -0.011000000       340.97800       2.2146864     0.016494012
       1037.0000       289.18562       98740.731       11858.969      0.67600010       2.5510000    -0.012000000       341.35700       2.1935977     0.017632637
       1042.0000       289.29335       98745.789       11945.867      0.13450000       1.4942500      0.29625000       341.77500       2.2128102     0.019238562
       1047.0000       289.41332       98749.611       12033.557       1.1597500       1.4917500      0.55075000       341.61000       2.1998296     0.018081002
       1052.0000       289.56634       98758.635       12128.839      0.11325000       1.4852500     -0.22775000       341.65800       2.2173341     0.017176846
       1057.0000       289.62240       98754.901       12177.928     0.027500000      0.87925000       1.5452500       342.03700       2.1905879     0.017772940
       1062.0000       289.65586       98737.994       12216.018    -0.037750000       1.2327500      0.50550000       342.02300       2.1692888     0.020978475
       1067.0000       289.73546       98742.431       12302.946      0.59800000       1.8170000     -0.12825000       341.15600       2.2181912     0.018911865
       1072.0000       289.71993       98744.181       12277.639      0.64625000       1.7525000     -0.29850000       341.41400       2.1966919     0.018509519
       1077.0000       289.66450       98760.479       12171.280       1.0210000       2.1752500     -0.43725000       341.62200       2.2003457     0.017805297
       1082.0000       289.61811       98764.112       12079.455     -0.53750000       2.3772500     -0.33875000       341.75400       2.2127373     0.017709945
       1087.0000       289.40028       98746.744       11803.396     -0.20925000       1.9895000      0.44600000       341.98600       2.1760607     0.018211774
       1092.0000       289.31341       98743.381       11685.734      0.26400000       2.1385000    -0.052250000       341.68800       2.1983358     0.019099431
       1097.0000       289.30040       98743.698       11651.948     0.054250000       2.9022500     -0.23525000       341.78500       2.1827936     0.018201265
       1102.0000       289.37885       98743.867       11724.275      0.65650000       2.9490000    -0.092250000       341.32100       2.2091361     0.016230209
       1107.0000       289.45375       98745.249       11743.556       1.1935000       2.1502500      0.28625000       341.85100       2.1811012     0.017394023
       1113.0000       289.63292       98758.086       11850.988     -0.14400000       2.3317500      0.17300000       342.23400       2.1910674     0.017108149
       1118.0000       289.60569       98737.327       11770.676     -0.15200000       2.5602500     -0.43300000       341.68100       2.2045648     0.012044879
       1123.0000       289.56128       98736.920       11726.576     -0.30425000       2.4852500     -0.30025000       342.12200       2.2051534     0.017016261
       1128.0000       289.37463       98757.649       11667.183     -0.10950000       2.4655000     -0.20100000       341.72100       2.1690996     0.017861373
       1133.0000       289.26802       98757.078       11618.039     0.042000000      0.80700000      0.77600000       342.53700       2.1980038     0.017040539
       1138.0000       289.17100       98751.080       11564.146      0.36175000       1.1200000    -0.091000010       342.56200       2.1472759     0.017608402
       1143.0000       289.12521       98751.772       11545.763      0.61450000      0.85225000     -0.34650000       342.60300       2.1671422     0.017510976
       1148.0000       289.08811       98735.134       11511.736      0.14825000       2.3247500      0.17450000       342.28100       2.1505506     0.018643167
       1153.0000       289.13504       98731.013       11547.429       1.4507500       2.4607500     -0.49925000       341.28700       2.1594130     0.018942351
       1158.0000       289.35781       98756.491       11712.287      0.44150000       2.7932500      0.24325000       342.60600       2.1971673     0.017306840
       1163.0000       289.43533       98759.713       11780.677       2.1305000       3.3180000     -0.47850000       341.75600       2.1589992     0.018023314
       1168.0000       289.47993       98737.220       11839.755      0.74025010       2.4557500     -0.20200000       342.04800       2.1964673     0.017271344
       1173.0000       289.52549       98737.948       11883.811      0.98475000       2.1825000    -0.070250000       341.69200       2.1792048     0.017914467
       1178.0000       289.43909       98751.729       11824.354       1.9265000       1.0217500      0.14025000       342.94400       2.2349191     0.016669364
       1183.0000       289.43267       98750.624       11830.791       1.1340000       1.3432500      0.19825000       342.48700       2.1401374     0.018703964
       1188.0000       289.47886       98754.776       11892.911       2.1867500       2.0737500     -0.56800000       340.85300       2.4119914     0.018274011
       1193.0000       289.55133       98758.182       11932.615       1.6000000       1.5932500      0.10800000       342.06800       3.2186367     0.019533831
       1198.0000       289.67735       98742.180       11968.779       1.2417500       1.5872500      0.46300000       342.34800       2.5288238     0.017142162
       1204.0000       289.78600       98736.418       12034.130       1.1550000       2.2950000      0.69300000       341.71800       2.2621708     0.017025288
       1209.0000       290.00174       98751.771       12169.237       1.0760000       1.1820000     -0.45050000       341.44000       2.3837639     0.016293371
       1214.0000       289.99013       98752.342       12147.875      0.62575000       1.7365000      0.14050000       341.32100       2.7959776     0.018761967
       1219.0000       289.79244       98738.936       12045.025       1.2907500       1.3560000      0.11650000       341.79000       3.1039887     0.016530467
       1224.0000       289.66213       98739.090       11956.223      0.86300000       1.9637500     0.040000000       340.82000       2.4382511     0.016779481
       1229.0000       289.36846       98746.534       11720.950      0.57525000      0.95750000      0.20075000       341.44900       3.1491755     0.017195503
       1234.0000       289.21806       98745.154       11596.882      0.94250010       1.4662500    -0.045500000       342.28900       3.4555564     0.021938282
       1239.0000       289.16025       98743.450       11553.901       1.7232500       1.9185000    -0.076250000       342.26500       3.3979177     0.013340166
       1244.0000       289.12170       98746.512       11492.512       1.3950000       1.7270000     -0.20650000       341.11300       4.0979815     0.019363140
       1249.0000       289.11819       98744.677       11424.700       1.0945000       1.2912500     -0.18600000       341.09400       3.2047475     0.016134737
       1254.0000       289.14940       98744.479       11395.333      0.54500000      0.75425000     -0.20500000       342.01300       2.7134584     0.016553310
       1259.0000       289.22038       98753.851       11360.355      0.61575000       1.0300000     -0.41900000       341.76100       2.1821985     0.017032150
       1264.0000       289.33120       98758.080       11400.742      0.86975000       1.7152500     -0.17000000       341.83400       2.1462168     0.014407255
       1269.0000       289.52883       98754.611       11521.365      0.20825000      0.88225010    -0.013750000       342.43100       2.1642493     0.015176259
       1274.0000       289.65426       98754.997       11618.698      0.19400000       1.1290000    -0.074250010       341.94300       2.1892937     0.013518583
       1279.0000       289.84463       98763.836       11809.059      0.38775000      0.75200000      0.26025000       342.78200       2.1341641     0.015603596
       1284.0000       289.90197       98761.342       11893.682     -0.58675000       1.0010000      0.43675000       342.67500       2.1023140     0.017847060
       1289.0000       289.80629       98745.106       11881.325      0.25750000       1.3010000     -0.19300000       342.25600       2.1950472    0.0097951105
       1295.0000       289.79474       98743.348       11946.280     -0.17425000       1.8717500      0.25825000       342.54200       2.1549521     0.013734534
       1300.0000       289.74373       98746.581       11987.047      0.93700000       2.1440000     -0.20900000       342.37400       2.1005274     0.015582492
       1305.0000       289.73588       98743.607       12026.446      0.20300000       1.6692500      0.34225000       343.02700       2.1316021     0.016906241
       1310.0000       289.81055       98744.204       12144.108      0.42050000       2.9220000      0.15750000       341.87700       2.0880274     0.016037131
       1315.0000       289.80806       98747.227       12141.088      0.33075000       3.3747500      0.30000000       341.96100       2.2255530     0.017247095
       1320.0000       289.78226       98747.535       12057.450      0.33250000       2.3315000      0.20500000       342.60400       2.1156897     0.016942801
       1325.0000       289.72919       98742.892       11979.650     -0.12000000       2.6265000      0.36775000       342.89800       2.1243237     0.015918707
       1330.0000       289.62779       98738.824       11844.215      0.30175000       1.8557500     -0.52300000       343.90400       2.1161292     0.015204027
       1335.0000       289.55736       98741.547       11737.638      0.83475010       3.4662500     -0.41450000       341.13600       2.1435877     0.010189187
       1340.0000       289.45772       98742.005       11616.302      0.64725010       3.3067500    -0.091750000       342.76000       2.1475256     0.013695445
       1345.0000       289.40980       98738.040       11533.657      0.65475000       2.7877500    -0.051750000       342.15200       2.1436816     0.014197694
       1350.0000       289.36727       98738.849       11447.291       2.0060000       2.3845000     -0.27850000       341.18200       2.1487660     0.015202020
       1355.0000       289.40244       98742.878       11417.751      0.27725000       1.4730000      0.64375000       342.44800       2.1505791     0.012444822
       1360.0000       289.49186       98741.995       11429.741      0.78100000       1.1517500      0.41150000       342.86800       2.1338295     0.015320077
       1365.0000       289.59935       98738.040       11462.738      0.97675010       2.1740000     -0.62300000       341.92400       2.1445083     0.013337336
       1370.0000       289.82109       98738.961       11550.696      0.59375000       2.5600000     -0.72800000       341.56000       2.1092912     0.014514184
       1375.0000       289.92257       98742.994       11614.405      0.80400000       1.3180000      0.56625000       343.38700       2.1346374     0.013807401
       1380.0000       289.95247       98741.962       11665.672    -0.042250000       2.4557500      0.21125000       342.06700       2.1303127     0.014439746
       1386.0000       290.08256       98737.091       11804.982      0.69575010       1.9415000     0.051750000       342.69500       2.1444448     0.012816978
       1391.0000       290.18694       98739.158       11956.340    -0.014500000       2.1605000     -0.37300000       342.25900       2.1209333     0.014317577
       1396.0000       290.26696       98743.121       12089.123    0.0012500000       3.3167500     -0.38975000       341.55100       2.0700852     0.024898692
       1401.0000       290.41210       98741.309       12306.936   0.00050000000       1.8177500      0.33750000       342.60400       2.1430752     0.012225395
       1406.0000       290.45683       98737.411       12372.047      0.82925000       2.6502500     0.062500000       341.78500       2.1468710    0.0095242079
       1411.0000       290.40013       98739.711       12354.264     -0.36900000       2.2777500     -0.11550000       342.12300       2.1277898     0.011007478
       1416.0000       290.40007       98743.652       12332.075      0.78475000       2.3197500      0.29400000       342.62500       2.1278810     0.013646072
       1421.0000       290.39989       98738.491       12227.915       1.7455000       2.1070000      0.40800000       341.87100       2.0891492     0.010063925
       1426.0000       290.39982       98740.098       12177.822       1.1272500       1.1740000      0.32025000       342.21000       2.0993370     0.013628408
       1431.0000       290.40966       98756.695       12118.093      0.23200000       2.1642500      0.96375010       342.37300       2.1281331     0.012064751
       1436.0000       290.39129       98759.184       12106.188     -0.46375000       1.9452500     -0.23950000       342.32000       2.1097326     0.019523638
       1441.0000       290.38964       98749.794       12152.726    0.0015000000       3.4320000    -0.029750000       341.46600       2.1429407     0.013604991
       1446.0000       290.29520       98748.557       12098.984     -0.26025000       2.4317500     -0.46300000       342.40500       2.0936231     0.017053918
       1451.0000       290.13159       98752.074       12042.949     -0.47950000       3.8655000     -0.11850000       340.74000       2.1424737     0.014901167
       1456.0000       290.00385       98748.368       11944.363      -1.5365000       3.3500000     -0.29600000       340.74100       2.0952074     0.017927858
       1461.0000       289.78893       98738.523       11737.048      -1.3167500       2.6897500     0.091500010       341.00300       2.1166713     0.015829375
       1466.0000       289.72305       98740.186       11643.320       1.2987500       3.1550000      0.46800000       341.56700       2.0927446     0.017403636
       1471.0000       289.75866       98747.248       11587.637     -0.38275000       3.3085000     -0.71625010       341.56900       2.0950487     0.014122683
       1477.0000       289.72428       98734.645       11526.379     -0.74700000       3.5167500     -0.29325000       341.22700       2.0954326     0.014000318
       1482.0000       289.70548       98738.109       11499.396      0.64475010       3.2677500      0.14400000       341.65400       2.1275843    0.0092042855
       1487.0000       289.59967       98751.920       11469.875      0.17975000       2.5907500      0.23425000       342.09700       2.0082189     0.019268411
       1492.0000       289.57503       98751.123       11475.513     -0.65225010       3.0782500     0.071500000       341.64100       2.0799666     0.014353185
       1497.0000       289.59955       98749.118       11510.508      -1.1212500       2.7655000     0.060000000       342.62300       2.0475678     0.016738455
       1502.0000       289.69878       98757.311       11593.329     -0.99300000       2.2657500     -0.26175000       341.96600       2.0838388    0.0096757837
       1507.0000       289.73940       98758.674       11636.968     -0.60800000       2.0765000      0.20975000       342.73700       2.1807658     0.010350415
       1512.0000       289.81127       98742.913       11689.724      0.91425000       2.0637500      0.11550000       343.14100       2.0597469     0.016775365
       1517.0000       289.77022       98755.765       11700.960       1.4452500       1.7177500      0.29550000       343.29600       2.1203372     0.011471833
       1522.0000       289.78744       98758.495       11761.728       1.0960000       1.2325000      0.25500000       342.08600       2.1113272     0.014336210
       1527.0000       289.90580       98741.244       11940.484      0.95775000       2.0787500     -0.38900000       342.50200       2.1235634     0.012675126
       1532.0000       289.91901       98737.834       12012.818      0.47450000       1.2372500      0.60600000       343.73200       2.0851990     0.014249572
       1537.0000       289.88014       98748.389       12048.273      0.96625010       1.6990000      0.51275000       342.60000       2.2103205     0.016742751
       1542.0000       289.86297       98746.708       12072.723       1.3970000       1.5765000     0.012500000       341.93600       2.0912961     0.012545908
       1547.0000       289.82122       98742.569       12056.502       1.0730000       1.3110000     -0.15475000       342.45200       2.0603121     0.010152704
       1552.0000       289.67478       98739.873       11933.792    -0.057000000       2.3332500     0.088500000       343.43000       2.1281457     0.012221511
       1557.0000       289.67029       98742.946       11918.738      0.41125000       2.6380000     0.082750010       342.68000       2.0744624    0.0086010797
       1562.0000       289.75568       98738.507       11951.725     -0.71375000       3.3047500    -0.010250000       341.88900       2.0653315     0.015138759
       1568.0000       289.76983       98755.739       11917.545     -0.28800000       2.8015000     -0.32125000       341.25100       2.0901170     0.011587191
       1573.0000       289.75759       98759.124       11892.748     -0.41250000       1.8577500     -0.44250000       341.27700       2.0223388     0.017809549
       1578.0000       289.67593       98740.209       11816.127     -0.44825000       2.1302500     -0.42950000       341.74800       2.0489477     0.015187578
       1583.0000       289.63777       98737.741       11795.182      0.41200000       2.1615000     -0.25250000       341.65700       2.0821900     0.013714712
       1588.0000       289.58001       98746.665       11830.407       1.2960000       2.2197500     -0.31200000       341.93300       2.0222533     0.016742220
       1593.0000       289.58407       98745.510       11840.312      0.77150010       2.1005000     -0.26450000       341.73800       2.0950393     0.013839031
       1598.0000       289.66836       98746.973       11874.102       2.2405000       2.5377500     -0.22975000       341.99400       2.0347776     0.019352411
       1603.0000       289.70849       98746.595       11885.778      0.38350000       1.4482500      0.42475000       343.17800       2.1786925     0.014414330
       1608.0000       289.78145       98729.071       11858.096       1.2445000       1.8985000      0.14800000       343.38800       2.1297661     0.012446943
       1613.0000       289.81946       98726.776       11854.275      0.85525010       3.8745000      0.18275000       341.56400       2.0946478     0.016125555
       1618.0000       289.81397       98746.130       11872.065      0.13725000       3.4057500      0.70300000       342.03900       2.0749236     0.012574108
       1623.0000       289.80261       98747.551       11867.390      0.14750000       2.5037500      0.33700000       342.09000       2.1160166     0.013399709
       1628.0000       289.76587       98739.569       11847.881      0.33175000       3.9582500     -0.78925000       341.68800       2.0980705     0.013786858
       1633.0000       289.74581       98740.576       11846.298      0.54875000       2.6325000      0.80600010       341.54300       2.1048014     0.013263548
       1638.0000       289.71003       98732.708       11840.685     -0.22150000       4.2580000    -0.038500000       340.96300       2.0986348     0.012760587
       1643.0000       289.69141       98732.348       11836.039      0.28975000       4.2485000     -0.43000000       341.16100       2.0792781     0.010465257
       1648.0000       289.69963       98756.045       11856.322      0.12000000       2.2472500    0.0085000000       342.72500       2.1115524     0.012079633
       1654.0000       289.69931       98758.716       11860.535      0.82225010       2.3340000      0.22100000       341.56000       2.0866030     0.012828089
       1659.0000       289.69980       98742.944       11839.316     0.052750000       1.9820000     0.021750000       341.07200       2.0729717     0.013723359
       1664.0000       289.69968       98737.874       11835.342      0.86925010       3.2417500    -0.048750000       342.11000       2.1232031    0.0089144355
       1669.0000       289.71338       98722.181       11860.321     -0.78150000       2.3460000      0.78000000       342.57100       2.1286049     0.013800127
       1674.0000       289.69986       98721.777       11840.109       2.0267500       3.2642500      0.10875000       342.53500       2.1146862    0.0082257996
       1679.0000       289.59537       98742.357       11767.856      0.80425010       3.8667500      0.17450000       342.13300       2.0881186    0.0088422842
       1684.0000       289.64489       98748.583       11762.330       1.3392500       3.1832500    -0.051000000       341.78700       2.1373747     0.010230616
       1689.0000       289.77037       98754.829       11737.100       1.1462500       3.1087500     0.027750000       341.29300       2.0831766    0.0094566634
       1694.0000       289.88231       98757.712       11773.331       1.4105000       2.7842500     -0.65350000       341.44300       2.0444601    0.0090091598
       1699.0000       290.15481       98749.458       11923.698       1.2830000       2.7280000     -0.32525000       341.51400       2.0797331     0.010237212
       1704.0000       290.27720       98749.164       12001.679       1.1365000       2.0467500      0.78025000       342.67200       2.0987133     0.011804606
       1709.0000       290.29028       98755.248       12053.198      0.23750000       3.3785000    -0.047000000       342.30900       2.0638604     0.012450518
       1714.0000       290.32226       98755.813       12130.439     -0.21025000       2.1562500     -0.18175000       342.59900       2.0760851     0.012638495
       1719.0000       290.29993       98760.041       12208.275     -0.38850000       3.2562500     -0.25800000       341.60700       2.1164599     0.014910734
       1724.0000       290.29993       98755.660       12265.739      0.94600000       2.1835000      0.51250000       342.48400       2.1105017     0.013675362
       1729.0000       290.28668       98735.683       12363.309      0.72150000       2.6595000     -0.30075000       341.18500       2.0785937     0.014207903
       1734.0000       290.30052       98732.225       12392.421     0.021250000       1.9990000     -0.35900000       342.68000       2.0806138     0.013648536
       1739.0000       290.40205       98731.979       12376.341      0.50650000       3.0410000     -0.24175000       341.80600       2.0956249     0.013619580
       1745.0000       290.33579       98735.551       12313.758      0.19125000       2.4610000      0.64150010       342.75300       2.0955757     0.013866865
       1750.0000       290.20878       98759.067       12209.710       1.2547500       2.5195000     0.084750000       342.30600       2.0519639    0.0098792422
       1755.0000       290.09028       98758.896       12110.121      0.83375010       2.7487500     -0.24025000       342.45100       2.0675107     0.012940300
       1760.0000       289.81885       98742.177       11969.212       1.2955000       2.7832500     -0.12075000       343.02600       2.0479531     0.013638030
       1765.0000       289.71077       98737.171       11855.397       1.0527500       1.8835000      0.56600000       342.75100       2.1140239     0.017659412
       1770.0000       289.68969       98721.243       11723.134       1.6985000       2.0235000     -0.97025010       342.43800       2.0819345    0.0094913060
       1775.0000       289.67912       98722.819       11651.568       1.3982500       1.6147500      0.59450000       344.27600       2.1004765     0.012441558
       1780.0000       289.73121       98742.731       11597.908       2.0747500       2.5290000     -0.21775000       341.33500       2.0944478     0.013481798
       1785.0000       289.76786       98750.152       11579.586      0.22925000       2.6082500      0.38675000       341.58500       2.3583420     0.013721943
       1790.0000       289.84226       98763.471       11622.879       1.6077500       3.1782500     -0.14100000       342.41900       4.3637286     0.014672526
       1795.0000       289.87610       98762.759       11648.876       1.1887500       1.7357500      0.39050000       341.84200       2.4973134     0.013179704
       1800.0000       289.86635       98744.300       11676.103       1.7115000       2.1610000    -0.090500000       341.91200       2.1539651     0.013579603
       1805.0000       289.92858       98743.204       11732.855       2.4252500       1.6047500    -0.047000000       341.77300       2.1228215     0.012758342
       1810.0000       290.02562       98747.422       11816.984      0.46475000       2.3772500     -0.48275000       342.88100       2.2473664     0.014271377
       1815.0000       290.08505       98742.785       11888.983       1.3210000       1.3882500     -0.27650000       342.24800       2.1170900     0.013811408
       1820.0000       290.19724       98739.977       11979.996       1.1097500       3.2480000     -0.21150000       342.12300       2.1126729     0.013721765
       1825.0000       290.23814       98740.901       12062.825       1.4725000       2.1077500     -0.79450010       341.95100       2.1389562     0.014591402
       1830.0000       290.21108       98733.247       12158.558      0.52875000       2.3972500     0.032000000       342.66700       2.1320986     0.015081494
       1836.0000       290.19009       98734.344       12204.123      0.62600000       2.2522500    -0.086750000       341.46700       2.1001151     0.014360345
       1841.0000       290.17079       98753.031       12240.951      0.74400000       1.4852500     -0.15850000       341.59900       2.1169664     0.014853887
       1846.0000       290.11340       98752.746       12209.139       1.2192500       1.7445000    -0.036250000       342.38200       3.1408831     0.015718922
       1851.0000       290.00506       98738.556       12096.190       1.7625000       2.5890000      0.32925000       342.48800       2.1779256     0.016335019
       1856.0000       289.95432       98740.182       12026.617      0.41300000       1.6175000      0.24175000       341.75600       2.1151846     0.017860589
       1861.0000       289.86619       98743.259       11910.653       1.5582500       2.7547500     -0.48900000       342.19200       2.1084810     0.015515305
       1866.0000       289.90128       98747.135       11889.922       1.5142500       2.2807500     -0.29725000       341.39700       2.1111909     0.016910902
       1871.0000       290.03809       98762.033       11931.540    -0.047000000       1.8080000      0.15425000       342.89000       2.0560846     0.015709868
       1876.0000       290.09822       98763.573       11913.478     0.072500010       2.5572500     -0.32400000       342.45900       2.0388948     0.015504224
       1881.0000       290.20965       98758.240       11921.724     -0.10525000       2.2605000     -0.33575000       340.95300       2.0961245     0.015928448
       1886.0000       290.24347       98750.622       11900.977      0.22600000       1.5052500     -0.71150000       341.93500       2.0808141     0.015726315
       1891.0000       290.18248       98733.593       11805.672     0.070000000       1.0002500      0.15300000       341.69200       2.0437189     0.017589851
       1896.0000       290.21989       98732.184       11812.288     -0.70650010       1.7662500     -0.15075000       342.24100       2.0978010     0.015743151
       1901.0000       290.28294       98732.163       11879.424     -0.68825000       1.9957500     0.075250010       341.36200       2.1022835     0.016840365
       1906.0000       290.34118       98736.554       11913.476      0.49700000      0.97550000      0.42325000       343.94600       2.1526329     0.017298161
       1911.0000       290.43137       98755.542       11951.076       1.5510000       1.5005000    -0.017250000       341.83600       2.1242468     0.011942086
       1916.0000       290.51142       98760.871       12038.549       1.0657500       2.3902500     -0.60375010       341.63600       2.1008394     0.019665309
       1921.0000       290.59452       98761.457       12153.184      0.21825000       2.7232500     -0.17350000       341.29200       2.1083303     0.017120788
       1927.0000       290.66990       98761.666       12287.956      0.42450000       1.6772500    -0.078750010       342.02600       2.1300960     0.017775833
       1932.0000       290.71313       98757.067       12370.780    -0.064000000       2.0077500    -0.027750000       341.46300       2.2280139     0.015702877
       1937.0000       290.67036       98741.294       12352.188      0.90150000       3.0580000    -0.023500000       341.43900       2.0901201     0.016942424
       1942.0000       290.68800       98734.129       12377.857      0.81975000       2.7630000     -0.30500000       341.76200       2.0956836     0.016890535
       1947.0000       290.73034       98729.409       12417.709      0.26225000       1.9087500     0.018500000       342.95400       2.1088374     0.015803316
       1952.0000       290.79279       98721.465       12480.166      0.42825000       1.7510000      0.30400000       343.51400       2.1113428     0.016178735
       1957.0000       290.85514       98727.471       12505.824      0.54725000      0.65650000       1.1200000       344.22000       2.1026453     0.015804908
       1962.0000       290.96190       98744.833       12544.126      0.49825000       1.8020000      0.12275000       343.34600       2.1111429     0.016002652
       1967.0000       291.02971       98766.459       12530.246      0.22475000       1.7475000     0.097000000       344.14100       2.1012054     0.017162529
       1972.0000       291.02534       98774.418       12475.885      0.33075000     0.045250000      0.60200010       344.12300       2.1103183     0.017712510
       1977.0000       290.93893       98771.309       12358.296       1.1450000       1.2665000      0.32150000       344.06100       2.1442124     0.018838255
       1982.0000       290.86174       98767.774       12261.634     -0.53800000      0.92725000      0.42400000       342.39200       2.1298634     0.017137889
       1987.0000       290.67020       98750.448       12104.567     -0.81825010       2.1657500   -0.0052500000       343.18900       2.1233836     0.017357300
       1992.0000       290.57575       98739.329       12008.748     -0.17875000       4.0242500     -0.63075000       342.05000       2.1032200     0.017591635
       1997.0000       290.53051       98730.668       11948.336       1.3012500       2.2192500      0.36625000       342.15500       2.0972586     0.016777075
       2002.0000       290.54391       98724.401       11924.404      0.41375000       2.4907500     -0.12525000       342.17500       2.1100856     0.017657092
       2007.0000       290.52566       98720.767       11919.022      0.47550000       1.7380000     -0.27800000       342.83000       2.0680923     0.018298170
       2012.0000       290.56177       98717.828       11963.300      0.26025000       2.0182500     0.092000010       341.71600       2.0484101     0.019129630
       2018.0000       290.44660       98729.155       11919.830       1.5875000       3.1490000     0.042250000       342.16500       2.1297037     0.019109260
       2023.0000       290.42942       98736.257       11936.014       1.4277500       3.2680000      0.19300000       342.88900       2.1287325     0.016678473
       2028.0000       290.46369       98750.846       11954.326      0.12800000       3.2742500      0.17600000       341.89400       2.1053203     0.018769182
       2033.0000       290.49607       98758.421       12004.217      0.98475000       3.7910000     -0.41525000       342.77900       2.1095859     0.017701541
       2038.0000       290.61397       98759.210       12150.541       1.6392500       4.8082500     -0.37900000       342.61300       2.1242315     0.016287273
       2043.0000       290.67112       98761.039       12240.797      0.97500000       4.2772500     -0.73975000       342.39000       2.0939566     0.017524043
       2048.0000       290.70395       98761.772       12325.959       1.0055000       2.6740000     -0.29000000       342.69100       2.1371566     0.016254166
       2053.0000       290.71145       98760.680       12381.797      0.30300000       3.0080000     0.084000010       341.78800       2.3888791     0.017977600
       2058.0000       290.70760       98759.739       12426.445       1.2035000       2.4380000     -0.13725000       341.88300       2.1358374     0.019257926
       2063.0000       290.65405       98755.553       12419.333      0.36150000       2.0567500      0.24925000       342.74600       2.1534092     0.016320009
       2068.0000       290.52104       98745.799       12341.700     0.050500000      0.38100000      0.16025000       343.96400       2.1092559     0.016164010
       2073.0000       290.43180       98738.865       12293.778     -0.10575000       1.8007500      0.28925000       344.74900       2.1269921     0.016417801
       2078.0000       290.28114       98727.437       12196.072     -0.38850000       1.5602500      0.33525000       343.46500       2.1150713     0.016831582
       2083.0000       290.21632       98722.795       12144.883     -0.75750010       3.7372500     -0.33525000       342.74300       2.1450035     0.014732201
       2088.0000       290.21353       98721.741       12160.720      -1.2730000       2.9600000     0.071000000       343.44900       2.0868474     0.018555207
       2093.0000       290.23742       98724.154       12134.644      -1.0270000       3.0672500      0.20825000       342.89100       2.0995750     0.017262695
       2098.0000       290.32945       98734.707       12070.246     0.048000000       1.9887500     -0.49400000       343.35100       2.0993429     0.017031192
       2103.0000       290.41124       98741.775       12057.589     -0.13225000       4.1430000      0.32025000       342.80300       2.1393640     0.015179602
       2109.0000       290.59305       98753.128       12063.278     -0.46775000       2.2775000     -0.90425000       343.03200       2.1261509     0.015920139
       2114.0000       290.63909       98758.437       12060.179      0.90750000       2.3040000     -0.65400000       341.99400       2.1426044     0.017179088
       2119.0000       290.61374       98759.815       12102.744      0.43725000       2.3757500      0.15500000       344.02200       2.1517634     0.015178650
       2124.0000       290.60621       98761.415       12116.746     -0.43275000       3.7072500     -0.54650000       341.69600       2.1347417     0.016351939
       2129.0000       290.50954       98760.376       12081.940      -1.4622500       2.1907500    -0.059000000       342.36800       2.1104087     0.018083206
       2134.0000       290.47725       98760.394       12086.193     -0.47525000       2.7925000   -0.0095000010       343.02800       2.1541512     0.015971200
       2139.0000       290.51226       98761.544       12124.621  -0.00075000000       3.8657500     -0.20775000       341.40300       2.1408729     0.015887741
       2144.0000       290.49815       98760.140       12138.154      0.63050000       2.2587500      0.45400000       343.26400       2.1577619     0.016477545
       2149.0000       290.46119       98758.998       12153.372       1.7222500       4.6570000     -0.32600000       341.96900       2.1723985     0.014198136
       2154.0000       290.44108       98754.277       12160.756       2.3115000       3.0560000    -0.020250000       341.15800       2.1389734     0.018748780
       2159.0000       290.39188       98744.484       12138.803       1.2702500       2.9107500     -0.40250000       342.20200       2.1265185     0.016625863
       2164.0000       290.38949       98737.568       12147.607      0.97325000       2.3477500      0.31450000       342.01800       2.1845732     0.017921890
       2169.0000       290.43811       98727.659       12179.802       1.3475000       3.8362500     -0.81450000       341.94500       2.2109589     0.016128780
       2174.0000       290.45802       98722.460       12195.986       1.4705000       3.3670000    -0.094500010       341.21400       2.1445248     0.015187004
       2179.0000       290.45458       98720.921       12204.525      0.62900000       2.8822500     -0.28650000       341.72900       2.1482467     0.017315360
       2184.0000       290.51241       98719.332       12238.574       1.3882500       4.0372500     -0.90025000       341.33700       2.1514468     0.015662806
       2189.0000       290.60063       98720.273       12276.692       1.3280000       2.9085000     -0.22375000       342.01100       2.3331207     0.015849010
       2195.0000       290.69079       98720.243       12327.621      0.75800000      0.71975000      0.72600000       343.03700       2.3013062     0.018926199
       2200.0000       290.84127       98720.137       12412.837      0.38775000       1.3022500      0.53850000       343.24000       2.1917728     0.015361184
       2205.0000       290.90341       98720.121       12453.783       1.4807500       2.4745000     -0.66650000       342.12600       2.7693268     0.015817838
       2210.0000       290.94427       98720.336       12467.493    -0.051750000       2.2295000     0.010250000       342.53300       2.3071694     0.018505719
       2215.0000       290.89332       98720.336       12485.580       1.4337500       3.2112500     -0.30775000       342.10700       2.2123785     0.015481011
       2220.0000       290.75875       98720.305       12517.903       1.5232500       2.4472500     -0.64050000       341.67800       2.2218499     0.016700019
       2225.0000       290.64538       98720.305       12483.504       1.1447500       2.3982500     0.024750000       342.95700       2.2927937     0.013545966
       2230.0000       290.43089       98719.290       12410.213       1.1630000       4.3310000     0.068000000       341.64700       2.1800341     0.014799364
       2235.0000       290.31892       98720.963       12339.958       1.5300000      0.91725000    0.0030000000       341.96200       2.5010567     0.014936116
       2240.0000       290.26891       98722.155       12217.040       2.1965000       2.6785000      0.23625000       342.10100       2.5946396     0.016204181
       2245.0000       290.20507       98727.330       12126.838      0.74200000       1.9675000     -0.12225000       342.31900       2.8198217     0.019081531
       2250.0000       290.18058       98740.883       12057.439      0.67975000       2.7380000     -0.12100000       342.13500       2.2876404     0.021238309
       2255.0000       290.11477       98742.942       11978.327       2.1662500       3.6777500     -0.10625000       342.48200       2.2156345     0.015546633
       2260.0000       290.01735       98739.655       11872.641       1.6375000       2.4905000      0.44175000       342.64000       2.2302066     0.018385737
       2265.0000       289.96415       98741.714       11821.425       1.3932500       4.3867500     -0.60625000       341.48800       2.1926476     0.022078134
       2270.0000       289.89006       98738.677       11783.261       1.6352500       3.7057500     -0.56250000       341.56100       2.2769913     0.012170537
       2275.0000       289.87919       98739.949       11782.089       2.2287500       2.5652500     -0.23225000       341.53500       2.1421172     0.015504854
       2280.0000       289.94188       98750.011       11843.261       1.6662500       3.5550000     -0.88275000       341.31200       2.1570390     0.012822713
       2286.0000       289.96590       98753.062       11868.988       1.0697500       3.0457500     -0.51050000       341.97400       2.1889522     0.014633296
       2291.0000       289.99436       98751.882       11893.682     0.039000000       1.5217500     0.033500000       341.89600       2.1263843     0.014080504
       2296.0000       290.02444       98748.109       11923.126    -0.063750010       3.8940000     -0.48225000       341.67600       2.1949098    0.0079105175
       2301.0000       290.05479       98739.288       11946.435     -0.45450000       3.8552500      0.26325000       341.93300       2.1290320     0.018932850
       2306.0000       290.05588       98738.997       11962.397    -0.031000000       3.6677500      0.27100000       342.05200       2.2026281    0.0088284582
       2311.0000       290.06742       98738.730       11988.923      0.93800000       3.1595000      0.15825000       342.42900       2.1666032     0.014023394
       2316.0000       290.03926       98740.537       12004.142     0.047000000       2.2945000     0.093750010       342.38600       2.1743116     0.012539587
       2321.0000       289.95132       98750.862       11999.662       1.1960000       2.0780000     -0.28525000       342.89900       2.1743067     0.011274674
       2326.0000       289.92000       98753.133       12002.065      0.16050000       1.9470000      0.31675000       342.17200       2.1745445     0.014428095
       2331.0000       289.89696       98750.353       12015.069     -0.25125000       2.3177500     -0.54250000       341.91500       2.1701609    0.0078267008
       2336.0000       289.88570       98750.366       12012.153     -0.84025000       3.0955000      0.11025000       342.13400       2.1443460     0.012659315
       2341.0000       289.85593       98751.972       11967.712      0.49850000       2.1045000     -0.22425000       342.09900       2.2114504     0.013224157
       2346.0000       289.94942       98748.226       12011.942     -0.56225000       3.1755000      0.36250000       342.69900       2.1264865     0.015641391
       2351.0000       290.16613       98742.114       12116.482       1.0782500       2.4075000     -0.80275010       341.47300       2.1308201     0.018238439
       2356.0000       290.19158       98736.309       12144.242      0.43125000       2.2282500     -0.30150000       341.65200       2.1662503     0.015450151
       2361.0000       290.25309       98725.152       12212.477      0.52900000       1.8845000     -0.14775000       341.78900       2.2151289    0.0099314475
       2366.0000       290.19004       98720.866       12194.519       1.5482500       3.0405000     -0.51700000       341.87100       2.1750265     0.012714392
       2371.0000       289.88919       98720.297       12069.113      0.60500000       2.9260000     -0.52350000       342.09800       2.1698849     0.014342629
       2377.0000       289.84598       98720.301       11997.142       1.4725000       1.3330000      0.49175000       343.24100       2.1571553     0.012867913
       2382.0000       289.83170       98720.325       11972.378     -0.47325000       3.0447500     -0.46025000       343.22800       2.1437540     0.015984099
       2387.0000       289.88539       98720.214       11986.381      -1.2647500       3.5205000      0.11600000       342.36100       2.1021131     0.016058280
       2392.0000       289.94375       98720.178       12005.132      0.36700000       2.9462500     -0.17525000       341.60600       2.1605701     0.014026636
       2397.0000       290.01446       98720.129       12040.730     -0.52650000       2.0935000      0.52475010       342.09800       2.1710257     0.012653002
       2402.0000       290.11787       98717.597       12125.887     -0.30300000       1.5220000     0.060500000       342.37700       2.1241217     0.015650842
       2407.0000       290.12371       98726.239       12118.872     -0.13750000       2.7765000     -0.62125000       341.16100       2.1623708     0.014756375
       2412.0000       290.11164       98742.725       12076.659      0.30250000       1.5192500      0.62275000       342.40100       2.1776116     0.012136379
       2417.0000       290.02965       98741.965       12053.328      0.21800000       1.8147500    -0.095000010       341.69300       2.1164384     0.013576972
       2422.0000       289.98678       98742.380       12040.285      0.11475000       1.8822500      0.12950000       342.88100       2.1570252     0.011085813
       2427.0000       289.98529       98721.649       12093.884     0.070000000       1.3677500     -0.35175000       342.30000       2.1952417    0.0091690793
       2432.0000       289.99421       98715.931       12111.822     -0.49225000       1.5560000    -0.040000000       342.32100       2.1906306    0.0097085032
       2437.0000       290.00036       98729.280       12071.403      0.46375000       1.7295000      0.19350000       343.13700       2.1520848     0.011792232
       2442.0000       290.03770       98735.230       12072.432      0.40025000       1.5200000      0.41525000       342.44700       2.1267536     0.011246167
       2447.0000       290.09967       98741.166       12087.574      0.43050000       1.1507500      0.24675000       343.26200       2.1506742     0.010100821
       2452.0000       290.21074       98752.091       12105.144     -0.55800000       1.1480000    0.0075000000       343.09000       2.1346039     0.013689198
       2457.0000       290.23829       98754.679       12137.959      0.27925000       2.4007500      0.28600000       342.30700       2.1017228     0.016847799
       2462.0000       290.26204       98749.652       12205.251     -0.31100000       2.3662500      0.75025000       342.85300       2.1486060     0.014004450
       2468.0000       290.22400       98753.833       12255.796      -2.1160000       1.8750000     -0.31950000       341.76900       2.1604227     0.012739983
       2473.0000       290.19382       98755.876       12283.911     -0.87150000       3.5565000     -0.15300000       341.27900       2.1006063     0.014201601
       2478.0000       290.20871       98759.284       12343.673      -1.2745000       3.0775000     -0.22550000       341.25700       2.1235734     0.011693654
       2483.0000       290.15534       98761.131       12329.900     -0.64175000       2.3630000      0.14325000       342.59100       2.1320950     0.012179977
       2488.0000       290.00987       98761.761       12238.606     -0.22900000       1.8087500      0.28175000       342.92600       2.1483980     0.012257936
       2493.0000       289.93127       98760.611       12181.068      -1.1222500       2.5547500     -0.29350000       341.46400       2.1297488     0.013437972
       2498.0000       289.84434       98756.858       12093.833     -0.67700000       2.7610000     -0.49400000       341.54800       2.1217023     0.011156860
       2503.0000       289.77643       98754.859       12012.405     -0.68350010       1.6597500    -0.018500000       342.33400       2.1596167     0.010865405
       2508.0000       289.76518       98751.293       11943.279     -0.83425000       1.7857500     0.056750000       341.94400       2.1257248     0.012286817
       2513.0000       289.74500       98749.439       11890.968     -0.65900000       2.6585000      0.14450000       342.77400       2.1118392     0.012463234
       2518.0000       289.68093       98754.616       11792.425     -0.92975000       2.8142500      0.39525000       342.32500       2.1014068     0.013877875
       2523.0000       289.68491       98751.258       11774.771     -0.28350000       1.9955000     -0.10575000       342.22800       2.1258573     0.011985463
       2528.0000       289.78197       98740.177       11859.551     -0.51850000       2.0720000   -0.0047500000       342.47300       2.1460073     0.013117167
       2533.0000       289.81051       98734.289       11892.735      -1.0370000       1.7982500     -0.24250000       341.68500       2.0845839     0.011571666
       2538.0000       289.84757       98723.268       11954.227      -1.3840000      0.80150000     0.019250000       342.10900       2.1210629     0.012221446
       2543.0000       289.86506       98717.669       11992.049     -0.84500000      0.98625000     -0.66225000       341.36600       2.1126434     0.013838817
       2548.0000       289.79673       98718.840       11958.278      -1.8662500      0.94600000   -0.0062500000       341.71500       2.1509302    0.0097782201
       2553.0000       289.78941       98719.981       11982.682      -1.1772500       1.6000000      0.22900000       342.25600       2.1038719    0.0096700542
       2559.0000       289.83836       98721.663       12067.043      -1.5805000       2.5100000     -0.98050000       341.73300       2.1105946     0.013697938
       2564.0000       289.85841       98726.423       12113.748     -0.37575000       1.1822500      0.30100000       342.73200       2.1438917     0.011134367
       2569.0000       289.86925       98736.295       12172.203     -0.72250000       1.5257500    -0.042250000       342.96800       2.1317413     0.011517631
       2574.0000       289.91260       98743.306       12223.711     -0.34525000       2.7307500      0.10375000       341.90400       2.1593763     0.011400473
       2579.0000       289.98815       98753.167       12273.719      -1.3565000       2.6820000     -0.55200000       342.09600       2.1582284    0.0085168836
       2584.0000       290.01443       98758.422       12289.429      -1.4225000       2.0840000     -0.50100000       342.63400       2.1755680    0.0089675499
       2589.0000       290.02588       98761.147       12276.346     -0.13975000       2.0072500     0.014000000       342.15500       2.1234155     0.010983134
       2594.0000       290.06632       98761.423       12292.123      0.25900000       2.2712500     0.051500000       341.78100       2.1144974    0.0080821734
       2599.0000       290.09514       98758.959       12291.936     -0.24850000       2.0870000      0.11500000       342.23900       2.1254024     0.011291794
       2604.0000       290.10529       98754.219       12294.667      -1.0005000       2.3972500      0.12550000       342.63900       2.0806486     0.011800749
       2609.0000       290.16562       98744.412       12359.409     -0.30350000       2.8937500    -0.028500000       342.58000       2.1189085     0.011548695
       2614.0000       290.16422       98737.479       12346.888     -0.22875000       4.0932500     -0.17625000       342.83600       2.1168160    0.0077640742
       2619.0000       290.04127       98727.486       12235.845      0.72225000       2.7865000     -0.65300010       341.64500       2.0860817    0.0086841325
       2624.0000       290.03240       98722.250       12213.499      0.97675010       1.7597500     -0.28675000       341.60300       2.0958445     0.011895662
       2629.0000       290.07960       98716.785       12194.178     -0.10175000      0.90975000      0.54375000       342.66300       2.1077373     0.011352653
       2634.0000       290.10371       98719.342       12200.852     -0.40125000       1.1130000     0.082500000       342.89500       2.0999837     0.010868978
       2639.0000       290.20159       98731.676       12297.391     -0.11500000       1.9077500      0.15575000       342.88700       2.1019114     0.011748974
       2644.0000       290.22056       98737.702       12326.014      0.73725000       1.7127500     -0.52075000       342.27500       2.0713929     0.012739653
       2650.0000       290.15703       98748.896       12313.943      -1.0887500       1.1620000      0.21525000       342.47700       2.1419527    0.0092249571
       2655.0000       290.13691       98754.666       12320.253       1.3722500       2.3515000      0.19050000       342.41100       2.0875784     0.012813842
       2660.0000       290.11189       98755.714       12321.920     -0.25250000       2.4302500     -0.20700000       342.55100       2.0740789     0.012318678
       2665.0000       290.08203       98756.119       12311.687     0.060250000       2.7780000     0.075250010       342.61600       2.0812593     0.013504754
       2670.0000       290.07059       98759.670       12316.638     -0.58875000       1.9090000      0.53725000       343.17400       2.0730000     0.014301088
       2675.0000       290.03400       98754.075       12287.256     -0.22275000       2.4372500     -0.83700000       341.41700       2.0964513     0.012766575
       2680.0000       289.95916       98740.130       12214.492     -0.70525000       2.4937500     0.054750000       341.43600       2.0829808     0.013510480
       2685.0000       289.92538       98729.536       12174.862     -0.24200000       2.3755000      0.35775000       341.72000       2.0669839     0.012706017
       2690.0000       289.91145       98709.597       12145.606     -0.72175000       2.6820000      0.15000000       342.04500       2.0663085     0.012334572
       2695.0000       289.88135       98704.664       12096.533      -1.0190000       2.3552500     -0.37075000       341.38100       2.0925873     0.012372418
       2700.0000       289.83570       98704.425       12027.077     -0.83525000       1.3040000     -0.41700000       342.32100       2.1123755     0.011320126
       2705.0000       289.84839       98712.202       12008.550     -0.67250000       2.2975000     -0.20875000       341.61500       2.0907026     0.011410284
       2710.0000       289.89628       98736.920       11999.310     -0.57775000       2.2630000     -0.22575000       341.69700       2.1000743     0.011125659
       2715.0000       289.90641       98747.631       11993.413     -0.39875000       1.6507500     -0.90200010       342.14700       2.0979007     0.011251115
       2720.0000       289.95742       98761.363       12031.620      0.13725000       1.7060000     -0.23850000       342.54000       2.0680738     0.010613190
       2725.0000       289.96466       98765.263       12052.348     0.027000000       1.6550000     -0.50175010       342.47000       2.1192141     0.010674942
       2730.0000       289.91195       98759.397       12050.810      0.19325000       1.2040000      0.10375000       342.81000       2.1073726     0.010729542
       2735.0000       289.88156       98752.469       12065.645      0.99325010      0.21500000      0.27200000       343.25800       2.1039195     0.011578430
       2741.0000       289.86251       98735.991       12117.814       1.1345000      0.30175000      0.22900000       342.22800       2.0863675     0.011384657
       2746.0000       289.82410       98728.875       12124.808       1.2070000       1.1705000      0.27075000       341.82200       2.1050522    0.0092368090
       2751.0000       289.73349       98716.677       12097.633       1.0415000       1.3210000    0.0037500000       341.55900       2.1120489     0.011571740
       2756.0000       289.73987       98718.895       12113.782      0.45000000       1.1115000      0.10775000       341.68700       2.0944621     0.011659891
       2761.0000       289.78719       98732.915       12139.305       1.0027500       1.1392500    -0.081000000       342.96300       2.0856885     0.012536553
       2766.0000       289.81640       98740.826       12150.054      0.56700000      0.92075000      0.10850000       341.93600       2.0975931    0.0089983918
       2771.0000       289.90516       98756.620       12182.896      0.11775000       1.0095000      0.12475000       342.38800       2.1020893     0.011666807
       2776.0000       289.92770       98760.142       12187.685     0.064750000      0.53250000     -0.24250000       342.27300       2.1024110     0.011784016
       2781.0000       289.88279       98758.503       12145.327    -0.043000000      0.14800000      0.37550000       342.74500       2.1028168     0.012148050
       2786.0000       289.92051       98751.985       12167.436     -0.16700000      0.44825000    -0.039250000       342.28800       2.1431909     0.012770349
       2791.0000       289.98385       98736.292       12217.664     -0.44550000       1.4465000    0.0025000000       342.26400       2.0837359     0.012353064
       2796.0000       290.04228       98729.282       12260.530     -0.66125010       1.5442500     -0.26275000       341.88400       2.1079376     0.013071219
       2801.0000       290.13319       98716.689       12326.507     -0.24375000       1.8845000     -0.14450000       342.13200       2.1064474     0.013007692
       2806.0000       290.21253       98718.848       12386.890     -0.95350000       1.1560000     0.086000000       342.28600       2.0736380     0.012843977
       2811.0000       290.29331       98732.801       12438.878     -0.59775000       1.6057500      0.28325000       342.14000       2.0784287     0.012114483
       2816.0000       290.34499       98740.735       12506.151     -0.50050000       1.2625000      0.41350000       342.72000       2.1332073    0.0090894927
       2821.0000       290.40572       98758.287       12597.617     -0.76425000       2.4200000      0.16050000       342.52800       2.1140924     0.013179023
       2826.0000       290.42881       98758.082       12660.479      0.45650000       2.1545000     -0.11225000       342.58800       2.0926497     0.012962054
       2832.0000       290.38730       98746.451       12722.175     -0.42800000       2.0882500      0.83900000       343.12600       2.0688368     0.010842779
       2837.0000       290.47545       98727.263       12825.317      0.59050010       1.2402500      0.54550000       342.82000       2.0771711     0.012521690
       2842.0000       290.50646       98721.616       12846.339     0.086500000       3.1947500      0.16925000       343.15200       2.0865518     0.012532978
       2847.0000       290.52519       98723.357       12825.851       1.0907500       2.1870000      0.11250000       342.85500       2.0789049     0.012209259
       2852.0000       290.56299       98733.923       12775.150      0.79225000       2.3282500      0.25550000       342.99100       2.1219279     0.012381067
       2857.0000       290.55967       98741.321       12721.086      0.58400010       1.6055000     -0.36400000       341.85600       2.1294005     0.015785475
       2862.0000       290.49930       98757.726       12600.320      0.47725000       2.1910000      0.23950000       342.34100       2.1062865     0.012622914
       2867.0000       290.48404       98760.098       12547.520     -0.67200010       2.1232500      0.47125000       342.83800       2.1051981     0.015347075
       2872.0000       290.45512       98757.602       12485.319    -0.079750000       2.1660000     0.091000010       342.70000       2.0612343     0.013221429
       2877.0000       290.38398       98741.166       12383.285     0.099000010       3.4572500     -0.44375000       342.15000       2.1171208     0.013310851
       2882.0000       290.34300       98733.986       12314.684     -0.55875000       2.2832500     -0.11275000       342.51200       2.0794720     0.013115471
       2887.0000       290.31524       98723.462       12258.564     -0.35275000       2.6652500      0.19125000       342.58300       2.0760701     0.013452457
       2892.0000       290.29408       98721.785       12224.737     -0.21975000       2.1247500     0.037000000       342.80200       2.0964714     0.013480843
       2897.0000       290.28521       98727.496       12212.139      0.59700000       2.1430000     0.040250000       342.77300       2.0960801     0.013392742
       2902.0000       290.30011       98746.338       12223.006     -0.69375000       2.7530000      0.24525000       342.90900       2.1129970     0.014051916
       2907.0000       290.30011       98751.117       12248.925      0.10275000       2.5500000     -0.58925000       342.74800       2.1311511     0.016401886
       2912.0000       290.29454       98758.635       12301.255      0.78325000       1.7345000      0.40125000       343.12100       2.0647165     0.014136669
       2918.0000       290.32023       98740.733       12362.846      0.78500000       1.6032500     -0.31300000       342.76600       2.0802570     0.013832959
       2923.0000       290.35137       98732.769       12397.091       1.0632500       2.5905000     -0.66075000       341.66400       2.0964852     0.014944022
       2928.0000       290.42468       98717.503       12391.495       2.5565000       1.9585000     -0.24525000       341.93600       2.0924160     0.013573746
       2933.0000       290.46304       98716.387       12426.758       1.3790000       2.1930000     -0.30325000       342.52100       2.1126704     0.014638767
       2938.0000       290.54923       98735.107       12518.598       2.2680000       2.1562500     -0.35750000       341.84700       2.0737907     0.013724253
       2943.0000       290.52214       98741.982       12538.088       2.2082500      0.72875010     -0.20125000       342.32700       2.0729949     0.014039441
       2948.0000       290.39254       98759.824       12566.958       1.7862500       1.5942500     -0.34700000       341.88600       3.2738787     0.015565832
       2953.0000       290.28992       98759.623       12540.539       1.4070000      0.13950000     0.077750000       342.29900       2.6164264     0.013988692
       2958.0000       290.04084       98726.822       12364.284       2.1315000      0.61200000      0.28250000       341.99800       2.1377651     0.013876483
       2963.0000       289.94718       98720.399       12300.770       1.4895000       2.0195000    -0.021000000       342.23300       2.2744075     0.013551218
       2968.0000       289.95913       98720.773       12283.492      0.98350010       2.1712500     -0.19400000       342.20000       2.1133729     0.013491474
       2973.0000       289.98441       98722.609       12266.329      0.15525000       1.3970000    -0.061250000       342.58700       2.0711638     0.012506518
       2978.0000       290.13401       98752.981       12309.795       1.4175000       2.6215000     -0.23600000       341.84100       2.0773769     0.013500603
       2983.0000       290.22201       98760.904       12341.130       1.1215000       2.3895000      0.17500000       342.72100       2.0716943     0.012897565
       2988.0000       290.34335       98750.899       12375.523     -0.42100000       2.2645000      0.99725000       342.72700       2.1074463     0.013358950
       2993.0000       290.37828       98745.665       12389.033       1.3362500       3.3592500     -0.57400000       342.00700       2.0866196     0.013837328
       2998.0000       290.32205       98725.584       12409.687       1.1085000       2.3892500      0.94825010       342.79700       2.0870757     0.012732924
       3003.0000       290.30094       98721.205       12415.374    -0.042500000      0.55200000      0.51650000       342.84900       2.0714797     0.013108895
       3009.0000       290.23515       98736.183       12390.139       2.0562500       2.2340000    -0.069250000       342.19000       2.0968351     0.013216407
       3014.0000       290.17482       98736.494       12357.531       1.4875000       2.2762500      0.28225000       342.19300       2.1292076     0.014083441
       3019.0000       290.11099       98736.140       12290.413      0.42450000       2.2932500     -0.18575000       342.13100       2.0531147     0.013837336
       3024.0000       290.08500       98736.355       12276.112      0.47475000       1.6940000      0.16575000       341.92600       2.1126032     0.014891234
       3029.0000       290.03391       98725.472       12266.881      0.64225000       2.6167500     -0.16900000       341.93700       2.0551144     0.013852131
       3034.0000       290.03589       98722.635       12274.446      0.41025000       2.6207500    -0.026250000       341.89800       2.0743470     0.013684843
       3039.0000       290.11988       98725.901       12327.935      0.85125010       1.6655000     -0.11975000       342.19900       2.1001277     0.014568814
       3044.0000       290.17027       98731.732       12376.870      0.61000000       2.2250000    0.0067500000       341.73600       2.0732574     0.013773229
       3049.0000       290.23411       98743.250       12439.664      0.78800000       1.0947500      0.18925000       342.13000       2.0832880     0.014534414
       3054.0000       290.27063       98747.924       12475.137      0.63575010       1.2035000      0.34800000       342.07900       2.1108009     0.014057713
       3059.0000       290.28206       98758.940       12501.662      0.93475000       1.1605000    -0.068000000       342.15800       2.1326462     0.014525161
       3064.0000       290.31185       98757.685       12543.088      0.59425000      0.81125000      0.19725000       342.83400       2.2609898     0.015634155
       3069.0000       290.35107       98735.591       12588.811      0.23525000       1.3572500     0.085750010       342.53100       2.0923053     0.014635611
       3074.0000       290.35731       98732.090       12597.618      0.39875000       1.5900000     0.083250000       342.28300       2.0871330     0.016088418
       3079.0000       290.35833       98732.846       12611.167       1.0862500       2.0212500     -0.42150000       342.19000       2.0615682     0.015970373
       3084.0000       290.35462       98733.974       12606.902      0.48275000       1.2760000      0.18550000       342.55700       2.1042543     0.016213948
       3089.0000       290.31831       98752.493       12545.607      0.32200000       1.1197500     0.015750000       342.74400       2.0832330     0.014702510
       3094.0000       290.28814       98753.279       12510.532    -0.018250000       2.4722500     0.023250000       342.68000       2.0892520     0.015454993
       3100.0000       290.25771       98734.231       12489.148      0.93025000       1.1762500      0.36075000       343.11900       2.0806824     0.014893061
       3105.0000       290.23772       98733.062       12463.968      0.99675010       1.7935000      0.34275000       342.62600       2.1139006     0.015534454
       3110.0000       290.18928       98731.882       12417.654       1.1570000       1.7747500      0.29250000       342.25100       2.7084124     0.015790647
       3115.0000       290.19171       98735.330       12404.650       1.5582500       1.6107500    -0.092250000       342.31000       2.0631453     0.014619314
       3120.0000       290.22964       98758.770       12413.792      0.91975000       1.6427500     -0.11875000       342.03500       2.0914542     0.014641040
       3125.0000       290.26623       98758.241       12412.656       1.1230000       1.6007500     -0.20675000       342.22500       2.0985421     0.014586035
       3130.0000       290.34132       98740.066       12427.008       1.4572500       1.3847500     -0.17975000       342.18600       2.0808796     0.014240236
       3135.0000       290.37532       98738.403       12428.232       1.0307500       1.2487500     -0.14775000       342.34600       2.2404327     0.014909419
       3140.0000       290.38847       98732.132       12388.239      0.69725000       1.3802500    -0.051500000       342.68800       2.3375214     0.014366623
       3145.0000       290.41858       98734.190       12424.199     0.013500000      0.81850000     0.090750000       342.38800       2.1758453     0.016057472
       3150.0000       290.44192       98758.935       12491.541       1.9090000       1.2482500     -0.28125000       342.15500       2.8544319     0.015319746
       3155.0000       290.46154       98758.559       12573.127       1.3417500       1.5950000     -0.25575000       341.99400       3.3020028     0.015887484
       3160.0000       290.49880       98739.882       12740.039       1.1637500       1.6222500      0.47575000       342.81700       3.5474674     0.016537614
       3165.0000       290.51247       98738.060       12818.253       1.7202500       1.3672500     -0.19850000       341.56900       2.5423725     0.014384101
       3170.0000       290.51156       98731.848       12905.842       1.5055000       1.4125000     -0.14150000       341.59900       2.5306822     0.015368004
       3175.0000       290.49507       98734.076       12890.435       1.1932500      0.99075010     -0.23750000       341.61800       2.5831626     0.015516191
       3180.0000       290.44720       98757.429       12755.188      0.94475010       1.0980000     -0.19025000       341.79000       2.6161409     0.011899034
       3185.0000       290.44359       98758.755       12710.468       1.2020000       1.0335000     0.084250000       341.61300       2.4401370     0.016383248
       3191.0000       290.45203       98746.511       12621.227       1.0697500       1.2152500     -0.10000000       341.69700       2.5545284     0.016001670
       3196.0000       290.44188       98741.635       12589.962       1.5242500       1.2715000     -0.40200000       341.70000       2.2917094     0.015792274
       3201.0000       290.46630       98726.652       12654.714      0.62600000       1.0030000     -0.47525000       341.74700       2.5623705     0.016350887
       3206.0000       290.43929       98728.824       12607.690      0.59575000       1.0655000     -0.22225000       342.03400       2.4644129     0.016575894
       3211.0000       290.33367       98749.590       12483.452     0.046250000      0.58425000      0.19575000       342.82800       2.1477936     0.015396601
       3216.0000       290.34077       98744.286       12455.525     0.099750000      0.83300010     0.027250000       342.97900       2.0623591     0.016034369
       3221.0000       290.42350       98730.632       12441.652     0.029750000       1.0860000     -0.22150000       342.18400       2.1056198     0.016474459
       3226.0000       290.37634       98727.596       12403.336      0.42150000       1.0932500      0.25125000       342.41400       2.1065603     0.015585038
       3231.0000       290.32817       98710.585       12416.749      0.68350010       1.7262500     -0.23125000       341.87700       2.0966336     0.015639465
       3236.0000       290.25219       98713.561       12375.748      0.21100000       1.9595000      0.10225000       342.19600       2.0588644     0.015916523
       3241.0000       290.03246       98743.215       12251.612       1.3452500       1.2792500     -0.35600000       342.70000       2.1038399     0.015621460
       3246.0000       289.98695       98744.954       12221.436     -0.27950000       1.8470000    0.0030000000       343.04800       2.0856014     0.015782160
       3251.0000       290.03414       98734.334       12230.180      0.83500000      0.80350010      0.21700000       342.87400       2.0940901     0.016553518
       3256.0000       290.06132       98736.181       12239.682     0.068500000       2.4600000     0.082500000       342.57200       2.1109490     0.016348507
       3261.0000       290.12920       98734.944       12261.700      0.86025010       1.5647500     -0.45850000       342.06800       2.1035873     0.018347581
       3266.0000       290.19847       98733.909       12326.980     -0.60675000       1.1210000     -0.27275000       342.50600       2.0858242     0.015898467
       3271.0000       290.30348       98742.657       12437.230     -0.61075000       1.3632500      0.77350000       342.95000       2.0986903     0.015636591
       3276.0000       290.33642       98740.207       12497.276     -0.51725000       2.7405000     -0.26425000       341.63800       2.1357031     0.017978305
       3282.0000       290.37426       98721.258       12603.654     -0.46400000       2.2217500     -0.86675010       342.12200       2.1024915     0.016010756
       3287.0000       290.25457       98739.835       12557.465      -1.6192500       2.9762500     -0.36600000       342.21000       2.0886808     0.015312960
       3292.0000       290.19381       98742.185       12532.007     -0.57350000       2.9952500     -0.39225000       342.29900       2.1227385     0.018127757
       3297.0000       290.14534       98740.841       12499.561       1.1132500       1.5730000    -0.056500000       342.98400       2.0785102     0.015423652
       3302.0000       290.08806       98741.052       12445.462      0.59175000       1.3987500      0.18925000       343.06900       2.0712029     0.015594105
       3307.0000       290.07120       98742.820       12416.092       1.0065000       2.1265000     -0.48800000       342.05600       2.0865623     0.015187433
       3312.0000       290.08896       98733.112       12393.644       1.0407500      0.96550010      0.52550000       342.49300       2.0893212     0.014763744
       3317.0000       290.16148       98750.232       12406.565     -0.14275000       1.6610000      0.28200000       342.83400       2.1472591     0.016804328
       3322.0000       290.20213       98754.063       12398.319      0.22650000       2.2307500    -0.010750000       342.56000       2.0687730     0.014643612
       3327.0000       290.31570       98735.380       12404.058      0.37750000       2.3825000     -0.10450000       342.46300       2.1270498     0.015934876
       3332.0000       290.33114       98733.049       12385.710      0.22500000       2.9160000     -0.14475000       341.72100       2.0801695     0.014997775
       3337.0000       290.22515       98742.890       12326.982     -0.66950010       2.0625000      0.27700000       342.35500       2.1016587     0.014454723
       3342.0000       290.15695       98741.084       12278.609    -0.061000000       2.3727500      0.25950000       342.38700       2.1125240     0.015360601
       3347.0000       290.07647       98738.042       12228.293    -0.064000000       1.8777500     0.016500000       342.11300       2.1209213     0.015976755
       3352.0000       289.93258       98741.032       12163.813      0.33025000       1.0872500      0.54225000       342.47600       2.0750896     0.015230417
       3357.0000       289.88654       98742.811       12133.885      0.67850010       1.0412500     -0.15175000       342.31900       2.0954165     0.015193008
       3362.0000       289.89459       98733.112       12114.225       1.2215000       1.8630000     -0.12350000       342.69200       2.0967992     0.015440177
       3367.0000       289.88517       98750.171       12126.182     0.038250000       1.5210000    -0.065500010       342.43600       2.1212724     0.016304913
       3373.0000       289.89698       98753.933       12139.876       1.2977500       1.4337500      0.32025000       343.32500       2.0319979     0.016083330
       3378.0000       289.87719       98735.835       12123.277      0.50750010       2.6947500    -0.055000000       342.34700       2.1033224     0.015247667
       3383.0000       289.94181       98733.238       12175.796      0.84025000       1.7550000      0.33975000       342.64500       2.1460429     0.017715933
       3388.0000       290.12325       98737.508       12283.432      0.27500000       1.3582500     -0.11950000       342.55900       2.1072531     0.016463536
       3393.0000       290.22184       98734.536       12376.747      0.89100000       1.3785000    -0.095000010       342.83400       2.1165421     0.015790485
       3398.0000       290.38778       98735.766       12581.103       1.1690000      0.77375000      0.22325000       342.85300       2.0708704     0.016301146
       3403.0000       290.44039       98736.567       12660.240     0.020750000       3.0175000     -0.43825000       342.48600       2.1021726     0.015440877
       3408.0000       290.33029       98726.614       12624.285     0.042250000       1.9075000   -0.0070000000       342.73800       2.0836435     0.015279303
       3413.0000       290.28977       98722.956       12627.300      0.38725000       2.5805000    -0.026750000       342.87000       2.0990814     0.014691703
       3418.0000       290.21894       98729.303       12583.349      0.46825000       1.3262500      0.11125000       342.92000       2.1150741     0.016892585
       3423.0000       290.18208       98731.141       12550.010      0.31700000       1.4170000      0.12725000       343.32100       2.0967460     0.015559014
       3428.0000       290.19994       98726.068       12551.055      0.34275000       2.5257500     -0.25350000       343.39500       2.1990092     0.026081448
       3433.0000       290.19982       98729.405       12531.332      0.29100000       1.6897500      0.36600000       343.37300       2.0885598     0.015391050
       3438.0000       290.17117       98749.141       12455.470      0.74700000       2.8715000      0.14625000       343.23000       2.1432896     0.015515231
       3443.0000       290.19407       98748.407       12433.812     0.082750010       4.0852500     -0.50975000       341.91300       2.0968295     0.014864128
       3448.0000       290.25415       98728.502       12438.084    -0.035750000       3.0190000     -0.47075000       342.97800       2.0874052     0.015417668
       3453.0000       290.30584       98728.985       12453.783     -0.12375000       2.3470000      0.40625000       342.37200       2.0950316     0.010060920
       3459.0000       290.40311       98731.506       12508.721     -0.41000000       2.4972500     -0.34600000       342.29800       2.1470867     0.015758574
       3464.0000       290.48336       98728.242       12566.952     -0.13325000       2.8090000      0.30650000       342.41700       2.0905003     0.015017536
       3469.0000       290.58419       98738.131       12682.691      0.25600000       2.5177500     0.058750000       342.84200       2.1364415     0.014574048
       3474.0000       290.62628       98743.881       12712.266      0.64750000       2.1460000      0.37650000       342.70100       2.1386010     0.015136604
       3479.0000       290.65329       98736.033       12707.482      0.63525000       2.6872500    -0.044250000       342.71700       2.0960639     0.013314600
       3484.0000       290.66544       98732.823       12707.323      0.83125000       2.6710000      -1.1250000       342.12600       2.2041135     0.014189676
       3489.0000       290.57996       98741.017       12606.265      0.82250010       1.2515000      0.34600000       342.88200       2.8958824     0.015381751
       3494.0000       290.59151       98741.904       12611.860      0.61200000       2.8140000      0.10975000       342.35500       2.3222074     0.015370819
       3499.0000       290.69034       98728.581       12718.120      0.67550000       2.1517500     -0.11675000       342.30700       2.1424131     0.014982800
       3504.0000       290.71685       98728.013       12760.145      0.73450010       2.0510000     -0.57025000       341.66300       2.1361840     0.014122273
       3509.0000       290.75234       98741.749       12831.659       1.0385000       1.9902500     0.020750000       342.46100       2.1200994     0.013840770
       3514.0000       290.76448       98741.543       12852.176     -0.66075000       2.1675000      0.43650000       341.93300       2.1489387     0.014495291
       3519.0000       290.71861       98733.931       12824.269      0.25150000       2.8005000     -0.54900000       342.60100       2.1268060     0.014293250
       3524.0000       290.68914       98735.243       12783.579      0.25000000       2.4565000     -0.25175000       342.62400       2.1628471     0.015292050
       3529.0000       290.68997       98739.619       12707.005    -0.038500000       1.7270000      0.24350000       342.35200       2.1312265     0.014223352
       3534.0000       290.64215       98733.809       12646.693      0.25850000       1.2282500      0.25150000       342.99700       2.1421502     0.015044097
       3539.0000       290.54216       98723.202       12572.134       1.7750000       1.6315000     -0.27325000       342.45800       2.1260575     0.014593091
       3544.0000       290.47164       98724.980       12496.545       1.4552500       1.5742500     0.062750000       342.14000       2.1463479     0.015591852
       3550.0000       290.35846       98727.490       12404.649       1.6157500       1.1722500      0.64675000       342.93900       2.1324994     0.014748306
       3555.0000       290.31056       98722.507       12348.851      0.63625000       3.2615000     -0.76450000       341.96300       2.1959348     0.015791543
       3560.0000       290.26732       98723.163       12254.308      0.55850010       2.8130000    -0.083500010       342.03800       2.2938551     0.015985951
       3565.0000       290.30204       98728.038       12259.084      0.11850000       2.6495000     -0.36625000       342.31700       2.3227633     0.015143060
       3570.0000       290.41254       98724.784       12342.171    0.0065000000       2.2272500     -0.39775000       342.03300       2.1360888     0.014867196
       3575.0000       290.48961       98723.126       12401.263    -0.038250000       2.4980000    -0.066750000       341.99300       2.1312565     0.015045588
       3580.0000       290.64943       98736.073       12515.152    -0.034250000       2.0185000     0.075750000       341.97300       2.1183278     0.014030253
       3585.0000       290.69436       98738.599       12592.652      0.55125000       2.5205000     0.040250000       342.23200       2.1194247     0.015948109
       3590.0000       290.66759       98722.296       12647.957    -0.011500000       2.5255000     -0.60175000       342.53500       2.1544411     0.016999307
       3595.0000       290.64508       98723.342       12705.224       1.1325000       2.7475000      -1.0497500       342.39400       2.1573288     0.022742339
       3600.0000       290.55812       98738.775       12772.111       1.4350000       2.2082500     -0.20075000       342.41200       2.1769658     0.014828441
       3605.0000       290.52468       98744.104       12810.887       2.3540000       1.1277500      0.34275000       343.06100       2.2680171     0.014778543
       3610.0000       290.51239       98750.223       12853.201       1.1072500       1.7002500      0.25250000       342.13700       2.3457743     0.015809808
       3615.0000       290.48276       98753.008       12835.417      0.69900010       1.7807500      0.20375000       342.58100       2.1814754     0.014522553
       3620.0000       290.45930       98753.780       12769.744      0.73475000       2.2757500     -0.66550000       341.74500       2.2312897     0.017118749
       3625.0000       290.43930       98748.854       12715.265      0.54175000      0.83575000     0.022000000       343.01100       2.2912048     0.015155273
       3630.0000       290.41235       98734.295       12612.903      0.77975000       1.0750000     0.021000000       342.88000       2.1134596     0.014500990
       3635.0000       290.38209       98733.164       12544.401      0.66825000       3.4437500     -0.10525000       341.91400       2.1903952     0.014700811
       3641.0000       290.35332       98735.904       12481.176       1.0975000       2.3430000      0.14475000       342.86500       2.4113353     0.013622691
       3646.0000       290.33351       98732.876       12438.389       1.1065000       1.7390000     -0.16400000       341.72000       2.5171213     0.014151792
       3651.0000       290.29684       98734.704       12392.513       1.3135000       1.4860000     -0.15250000       341.81500       2.4121232     0.014214236
       3656.0000       290.28568       98737.667       12374.448      0.73675000       1.8592500      0.85325000       342.45900       2.6096683     0.013339476
       3661.0000       290.30011       98737.553       12378.123      0.80675010       2.2097500     0.088000010       342.57200       2.3595242     0.016141424
       3666.0000       290.30011       98730.717       12390.207       1.7420000       1.2437500      -1.1192500       342.32100       3.2500622     0.014584234
       3671.0000       290.31775       98723.602       12437.141       1.4107500       1.4855000      0.17175000       342.59400       2.9573981     0.014539050
       3676.0000       290.28013       98726.428       12429.008      0.84300010       1.3905000     -0.11200000       342.82900       2.8993430     0.014037465
       3681.0000       290.21579       98724.789       12403.594      0.60400000       2.0002500     0.013250000       342.75500       2.7149157     0.014638773
       3686.0000       290.15722       98723.532       12390.918      0.87275000       2.3512500     -0.30375000       342.83100       3.2937850     0.014884290
       3691.0000       290.03816       98734.504       12338.946       1.3302500       2.3837500      0.29400000       342.78500       3.4912006     0.016824210
       3696.0000       290.01460       98741.586       12339.883       2.3255000       1.4505000      0.19100000       342.32700       3.5684892     0.014113813
       3701.0000       290.04299       98741.440       12384.500       2.0427500       2.0265000     0.063250010       342.90000       3.0490273     0.015271357
       3706.0000       290.05139       98738.585       12402.550       2.7417500       1.9270000     -0.31625000       341.72900       2.5605393     0.014368094
       3711.0000       290.08425       98739.679       12416.016       1.5315000       1.1342500      0.29525000       342.58200       3.0882985     0.014772077
       3716.0000       290.13327       98743.621       12452.661       2.5697500       1.8597500      0.17525000       342.33700       3.1877410     0.015038241
       3721.0000       290.18313       98741.164       12499.440       2.2887500      0.94050000      0.13425000       342.29800       2.9132582     0.014087956
       3726.0000       290.24203       98737.121       12537.928       2.1222500       1.1815000    -0.044000000       342.29600       2.9829746     0.014456596
       3732.0000       290.34538       98740.173       12586.789       2.0157500      0.93575010     -0.38475000       341.88200       3.1364620     0.015150366
       3737.0000       290.50533       98744.176       12728.222       2.4062500       2.3205000    -0.063500000       341.96700       2.5938522     0.013267372
       3742.0000       290.56826       98740.217       12799.140       1.1737500       1.7375000    -0.091500010       342.09400       2.3347391     0.013925446
       3747.0000       290.59426       98736.286       12855.314      0.65550010       1.5795000     0.069750000       342.25100       2.1957440     0.014329730
       3752.0000       290.62708       98741.041       12955.727      0.66325000       1.4420000     -0.37375000       341.96000       2.1471336     0.014160456
       3757.0000       290.59066       98742.820       12946.471       1.0225000       1.0452500      0.28725000       342.42000       2.1255143     0.015271293
       3762.0000       290.42607       98734.798       12825.347      0.74250000      0.75225000     -0.19150000       342.53900       2.1251485     0.014475595
       3767.0000       290.49067       98732.133       12844.398      0.85125010      0.80025010     0.046500000       342.61700       2.4140600     0.015578941
       3772.0000       290.50093       98735.092       12818.292       1.1557500       2.1495000     -0.24875000       342.41900       2.2053135     0.014388480
       3777.0000       290.51102       98738.345       12772.889       1.4635000       1.9962500      0.31125000       342.69300       2.2330504     0.015017375
       3782.0000       290.55083       98735.405       12752.836      0.64875000       1.5805000     -0.21525000       342.67200       2.3160273     0.014196342
       3787.0000       290.57508       98732.247       12701.898       1.8865000       1.5187500    -0.020000000       342.84700       2.4481889     0.014373782
       3792.0000       290.59360       98735.210       12668.274       1.2432500       2.0350000     -0.19750000       342.63000       2.6687469     0.014557540
       3797.0000       290.62435       98738.173       12654.656      0.69525000       2.5955000     -0.29900000       342.41600       2.2543481     0.014783719
       3802.0000       290.72605       98734.632       12696.191       1.2447500       2.6650000     -0.75900010       342.48700       2.1171697     0.014949180
       3807.0000       290.70045       98733.860       12673.949      0.68050000       2.0722500      0.40275000       343.56400       2.1468337     0.014207853
       3812.0000       290.60043       98742.120       12624.720      -1.0665000       1.9892500   -0.0035000000       342.53600       2.1483039     0.013986768
       3817.0000       290.54495       98730.324       12592.184      0.76550000       1.2070000      0.33175000       342.95600       2.1709480     0.014023332
       3823.0000       290.48448       98727.801       12568.563     -0.84550010       1.6407500     -0.18525000       342.75200       2.1457922     0.014625603
       3828.0000       290.45185       98739.909       12559.669    -0.021750000       1.5780000    -0.029000000       342.97200       2.1950156     0.016605803
       3833.0000       290.44332       98741.628       12573.439     -0.92775010       2.2367500    -0.013000000       342.44300       2.1528862     0.013941031
       3838.0000       290.42823       98738.688       12609.401      0.17200000       2.1120000      0.19325000       342.86500       2.1749347     0.013590501
       3843.0000       290.44117       98740.665       12640.703     -0.27600000       1.9155000     0.048750000       342.70300       2.1322334     0.014183760
       3848.0000       290.52405       98743.384       12704.730     -0.28175000       1.3692500      0.35025000       343.57500       2.1264617     0.013962618
       3853.0000       290.56309       98740.256       12742.931     -0.15950000       1.9620000      0.20050000       342.50800       2.1456737     0.013137044
       3858.0000       290.56268       98733.705       12737.105     -0.94525000       1.0595000      0.44450000       343.39600       2.1781054     0.013043743
       3863.0000       290.60415       98734.787       12773.369     -0.78675000       2.0437500      0.28575000       342.56800       2.1457210     0.012386427
       3868.0000       290.69703       98740.621       12859.979      -1.1637500       1.2577500      0.46325000       342.72000       2.1841688     0.013154690
       3873.0000       290.71413       98735.446       12887.436     -0.43300000       2.5730000     -0.31500000       341.73200       2.1739556     0.012984294
       3878.0000       290.71296       98721.773       12924.165     -0.66300000       1.7160000      0.16275000       342.50900       2.1561328     0.012771717
       3883.0000       290.71090       98724.103       12922.753      -1.1470000       2.0575000      0.10525000       341.89000       2.1677562     0.012709750
       3888.0000       290.61919       98733.827       12833.755     -0.81400000       1.4702500     -0.15700000       341.78400       2.1713846     0.014439761
       3893.0000       290.58160       98729.651       12781.149     -0.13800000       2.6967500     0.072500010       342.09200       2.1330391     0.013932573
       3898.0000       290.60029       98726.791       12721.429    -0.098250000       2.1292500     -0.30325000       342.35300       2.1388978     0.013578241
       3903.0000       290.60044       98731.791       12687.008     -0.59550010       1.8170000      0.26675000       343.01100       2.1560106     0.013216983
       3908.0000       290.61456       98727.574       12700.208     -0.76050000       2.6945000     0.043500000       342.63400       2.1804515     0.012071811
       3914.0000       290.60009       98722.422       12661.183     -0.64450000       2.2005000     -0.16975000       342.33300       2.1563527     0.012838859
       3919.0000       290.56225       98735.170       12612.718     -0.42200000       1.8772500   -0.0045000000       342.55000       2.1626888     0.012439743
       3924.0000       290.54246       98738.650       12573.536      0.20850000       2.1415000     -0.44425000       341.94200       2.1799734     0.012028866
       3929.0000       290.47872       98725.759       12462.947      0.60475000       1.9347500     -0.13175000       342.43000       2.1775422     0.012212462
       3934.0000       290.49080       98723.062       12453.901      0.24200000       2.2145000     -0.28250000       342.11100       2.1878341     0.012442993
       3939.0000       290.56347       98730.942       12514.668      0.57425000       1.7215000     -0.41525000       342.23800       2.1742205     0.013351497
       3944.0000       290.61752       98731.159       12568.182       1.0605000       1.8915000      0.12225000       341.96600       2.1982482     0.013755709
       3949.0000       290.72897       98721.211       12686.956      0.61450000       1.5880000     -0.31750000       342.55700       2.1992461     0.015055112
       3954.0000       290.78170       98724.654       12766.024       1.2270000       2.1905000     -0.17200000       342.16300       2.1946164     0.012940341
       3959.0000       290.78275       98743.997       12810.445      0.76025000       3.2900000     -0.30100000       342.38800       2.2069309     0.013204372
       3964.0000       290.81277       98742.177       12890.568      0.48400000       2.3035000      0.34200000       342.44000       2.1654921     0.014256347
       3969.0000       290.86416       98727.916       13028.960       1.2652500       2.9437500     -0.38050000       342.36100       2.3375970     0.013359756
       3974.0000       290.85695       98730.699       13072.325      0.29100000       3.0095000     -0.43150000       342.17400       2.6346393     0.015157292
       3979.0000       290.83453       98731.073       13094.268       1.0265000       2.5822500     -0.22475000       342.12500       2.6467758     0.018736642
       3984.0000       290.79681       98727.909       13086.941       2.5157500       1.7545000     -0.48375000       342.48800       2.3163474     0.016540710
       3989.0000       290.67316       98740.533       12979.259       1.5730000       3.4507500     -0.36475000       342.81500       2.4279805     0.014475809
       3994.0000       290.62029       98743.762       12920.666       1.0842500       2.2680000      0.40225000       343.14900       2.1566056     0.014849900
       4000.0000       290.58938       98724.716       12866.154      0.59225000       2.3352500   -0.0035000000       342.73000       2.1172687     0.015612132
       4005.0000       290.59153       98721.132       12830.972      0.84200010       1.8835000     -0.26625000       342.92300       2.1082045     0.016117343
       4010.0000       290.64196       98731.466       12806.141       1.3460000       3.2725000     -0.58775000       342.93600       2.1395910     0.014482504
       4015.0000       290.66175       98731.254       12770.810       2.4422500       2.0797500     -0.19625000       342.66800       2.1521745     0.014103332
       4020.0000       290.71173       98721.771       12754.369      0.59125000       1.6187500      0.36050000       343.21700       2.1335047     0.015037301
       4025.0000       290.70909       98726.422       12709.604       1.4757500       2.9985000     -0.52725010       342.69700       2.1154585     0.013414995
       4030.0000       290.65861       98743.774       12625.307      0.53725000       3.2317500      0.16900000       342.55500       2.1762224     0.013082033
       4035.0000       290.63893       98740.565       12587.178       1.8485000       4.1070000     -0.35650000       342.24400       2.1074860     0.016425427
       4040.0000       290.58930       98728.694       12541.847       1.5895000       3.4417500     -0.46250000       342.14200       2.1573159     0.014149212
       4045.0000       290.59165       98730.203       12544.493      0.55350000       3.1300000     -0.51025000       342.54200       2.1132032     0.015813909
       4050.0000       290.64230       98724.056       12597.788      0.53175000       2.2635000     -0.40600000       342.97800       2.1385476     0.014498193
       4055.0000       290.66221       98722.668       12635.749      0.20750000       3.0745000      -1.0745000       342.42700       2.1344640     0.014433718
       4060.0000       290.72187       98741.497       12706.585       2.2352500       1.5925000     -0.32725000       343.23500       2.1647083     0.014963979
       4065.0000       290.70362       98744.386       12743.706      0.57075000       1.4690000      0.29175000       342.91800       2.1582151     0.013381798
       4070.0000       290.58330       98728.202       12736.630       1.4962500      0.72900000      0.43475000       343.25700       2.1189802     0.015015429
       4075.0000       290.59241       98728.767       12799.603       1.5805000       1.3582500     0.027250000       342.71800       2.3853727     0.016177503
       4080.0000       290.62809       98744.187       12894.925       2.5872500       2.7905000     -0.36300000       342.29800       2.5551474     0.016021867
       4085.0000       290.66045       98740.064       12966.810       2.1802500       2.1287500      0.64500000       342.86200       2.7656951     0.016457647
       4091.0000       290.81826       98723.013       13129.454       1.2810000       2.4945000     -0.52750000       342.88900       2.6623846     0.014675503
       4096.0000       290.83371       98724.575       13140.091       1.9255000       2.2952500    -0.040000000       342.92400       2.8736614     0.019289266
       4101.0000       290.75411       98723.705       13052.044       2.8685000       3.1827500      -1.2000000       342.32000       2.5333455     0.013873727
       4106.0000       290.73431       98724.370       13021.742       1.5812500       1.9975000     -0.64475010       343.32900       2.1065281     0.014782147
       4111.0000       290.71555       98743.849       12959.690       1.2510000       2.0722500     -0.60475000       343.04200       2.1342392     0.013917336
       4116.0000       290.66630       98743.460       12899.576       1.3775000       2.5947500      0.50700000       342.68900       2.9236131     0.014457862
       4121.0000       290.60739       98722.186       12860.568       2.9962500       2.7782500    0.0090000010       342.95500       2.4876202     0.016912689
       4126.0000       290.56712       98723.457       12803.338       3.1572500       2.5517500      0.36825000       342.33900       2.5451106     0.021666116
       4131.0000       290.50152       98736.624       12709.830       3.1185000       3.4850000      0.20600000       342.62000       3.0903943     0.017390221
       4136.0000       290.46001       98735.874       12639.785       2.3965000       3.1042500      0.13825000       342.51000       3.9230747     0.017776807
       4141.0000       290.44510       98734.728       12574.294       2.0817500       2.4965000     -0.77875010       342.57200       3.9835565     0.014591979
       4146.0000       290.44386       98737.691       12547.547       2.6785000       1.7262500      0.70325010       343.42300       3.7863344     0.017508525
       4151.0000       290.45262       98735.275       12530.762       1.4997500       2.1292500      0.39500000       343.29000       3.1108029     0.014909003
       4156.0000       290.44296       98734.265       12525.247       3.5532500       3.9190000      0.37275000       341.90300       2.6658677     0.017261145
       4161.0000       290.45776       98743.063       12563.771       3.1447500       3.5202500     -0.52350000       341.73000       2.9416468     0.016713595
       4166.0000       290.44883       98740.472       12581.005       2.6362500       3.5407500      0.41875000       342.28200       2.5258947     0.013785803
       4171.0000       290.38881       98721.558       12576.779       2.1595000       3.2235000     0.082750010       342.82600       3.1383712     0.017432911
       4176.0000       290.39621       98724.739       12609.346       2.3242500       1.6485000     -0.33325000       342.79300       3.1658043     0.015465702
       4182.0000       290.45052       98742.422       12681.440       1.3775000       2.0922500     -0.57850000       342.96800       2.3950965     0.014506286
       4187.0000       290.48516       98740.856       12734.943       2.8267500       2.1202500     -0.10175000       342.99100       2.6162185     0.014063998
       4192.0000       290.50608       98742.223       12768.679       1.2492500       1.4332500      0.40750000       343.59200       2.4634228     0.015688901
       4197.0000       290.51466       98739.880       12787.787       2.9227500       2.2912500     -0.57500000       342.95600       2.5005701     0.015146333
       4202.0000       290.51315       98721.561       12801.830       2.5762500       1.9897500     -0.93850000       342.31800       2.5164968     0.015240512
       4207.0000       290.46998       98724.525       12756.308       3.3270000       3.2180000     -0.37350000       342.71000       2.4582149     0.014664867
       4212.0000       290.39420       98740.858       12663.621       2.2690000       3.4887500     -0.56975000       342.40400       2.6032345     0.016458585
       4217.0000       290.33042       98747.275       12609.174       2.2247500       2.3427500     -0.65275000       343.06100       4.3381795     0.019574232
       4222.0000       290.32489       98751.563       12588.135       1.4455000       3.5580000     -0.39450000       342.35900       3.6491370     0.018835744
       4227.0000       290.46095       98753.353       12679.380      0.83400010       2.4010000     0.022250000       342.50900       3.0277135     0.014504857
       4232.0000       290.51257       98751.597       12709.563       2.1415000       2.5090000     -0.13875000       342.13200       3.0126961     0.016047138
       4237.0000       290.51020       98745.798       12675.296       1.5545000       1.4152500      0.49600000       343.35200       2.8608536     0.020828811
       4242.0000       290.55001       98740.969       12692.614       2.1435000       2.0060000     -0.21700000       342.97700       2.8255601     0.015288473
       4247.0000       290.58983       98734.904       12722.822       1.2177500       1.3165000      0.17025000       343.41700       2.6358437     0.016709125
       4252.0000       290.58565       98722.377       12741.950       1.3015000       3.4227500     0.086000000       342.49400       2.1565761     0.016048064
       4257.0000       290.63895       98725.143       12784.862       2.3440000       2.9347500     -0.62975000       342.36300       2.4533732     0.014302189
       4262.0000       290.76687       98735.800       12883.714       3.0797500       3.1572500     -0.35375000       342.12300       2.7594180     0.013803358
       4267.0000       290.73953       98739.638       12870.273       2.4912500       1.8527500      0.14625000       342.33200       2.2924693     0.015183164
       4273.0000       290.75129       98742.133       12904.655       2.9772500       3.2772500     -0.52175000       342.18500       2.1468514     0.017312373
       4278.0000       290.75763       98729.283       12974.514       2.2937500       2.0027500     -0.54575000       342.64200       2.1094872     0.015499772
       4283.0000       290.74757       98727.742       12998.504       1.8280000       2.5537500     -0.41050000       342.75200       2.1900549     0.013622014
       4288.0000       290.75721       98741.377       13039.990       1.7110000       2.1892500      0.17225000       342.71100       2.0914678     0.018577792
       4293.0000       290.75570       98741.947       13044.664       1.2627500       2.6602500    -0.039000000       343.29300       2.1342452     0.014233762
       4298.0000       290.71080       98736.709       12986.850       1.7105000       3.4730000      0.33075000       342.54800       2.1610198     0.014219523
       4303.0000       290.69231       98735.633       12940.652      0.26250000       2.7300000    -0.083000000       343.11900       2.1151979     0.015198881
       4308.0000       290.69988       98723.927       12889.031      0.83575000       1.8165000      0.46375000       342.29000       2.4783951     0.014647407
       4313.0000       290.69974       98722.537       12834.096       1.6815000       2.3992500     -0.54250000       342.02200       3.0576620     0.015084951
       4318.0000       290.71425       98743.105       12762.880       1.8382500       1.7162500     -0.21600000       342.07100       3.2854225     0.014636605
       4323.0000       290.70298       98743.186       12703.401       1.6342500      0.81950000    0.0082500000       342.67100       2.7900349     0.017403614
       4328.0000       290.68015       98727.049       12633.740       2.4455000       2.6477500     -0.88000010       342.29300       2.6587059     0.014611128
       4333.0000       290.64905       98724.145       12590.848       1.4130000       1.1305000      0.66200010       343.12500       2.6727209     0.015061002
       4338.0000       290.56202       98712.105       12552.902      0.58125000       1.4305000      0.26275000       343.26500       2.1928281     0.014208948
       4343.0000       290.53464       98710.965       12546.051       1.7780000       1.2097500     -0.38200000       343.46700       2.1322422     0.014557094
       4348.0000       290.55795       98741.107       12603.515      0.57675000       1.3915000      0.12800000       343.13500       2.1441935     0.014655191
       4353.0000       290.54765       98745.219       12612.101       1.3855000       1.2170000      0.87750010       343.55600       2.1255135     0.013915436
       4358.0000       290.54140       98723.984       12587.954      0.66825000       1.4962500      0.28150000       342.89300       2.1418301     0.015854561
       4364.0000       290.55324       98723.561       12612.198       1.0985000       1.5805000     -0.23850000       342.82200       2.1471714     0.014330226
       4369.0000       290.54326       98724.390       12627.430       1.0885000       2.4437500     -0.66000000       341.82100       2.1677389     0.014684410
       4374.0000       290.54697       98723.496       12653.334       1.2175000       1.5430000     0.061750000       342.49700       2.1686061     0.015222915
       4379.0000       290.58195       98744.379       12729.354      0.79625000       1.5502500      0.21800000       342.63500       2.2484904     0.013868560
       4384.0000       290.61202       98744.198       12784.653    -0.037250000       2.0920000     0.022500000       342.33200       2.0819439     0.016742577
       4389.0000       290.63792       98713.631       12831.976      0.65550010       2.0120000      0.28600000       342.47900       2.1556000     0.015065796
       4394.0000       290.65795       98711.346       12860.973      0.73875000      0.15875000     0.075000000       343.24300       2.1386752     0.015918523
       4399.0000       290.72161       98723.693       12912.169       1.2297500       1.5452500     -0.69975000       343.32400       2.2034455     0.014417560
       4404.0000       290.71087       98726.096       12908.479    -0.033250000       1.9002500      0.38700000       342.93800       2.1116618     0.023699680
       4409.0000       290.62348       98741.512       12832.553       1.3402500      0.93650010     0.036500000       343.53300       2.1284857     0.016346752
       4414.0000       290.58378       98744.146       12797.594       2.0600000       2.0047500     -0.22400000       342.87600       2.1684406     0.014032773
       4419.0000       290.51024       98723.548       12747.822       1.2702500       1.4350000    -0.014750000       342.32900       2.0823681     0.019693773
       4424.0000       290.47791       98722.348       12715.292       1.5507500       1.5477500      0.10625000       343.59600       2.0933311     0.017643281
       4429.0000       290.51377       98734.487       12726.270      0.65000000       1.2975000      0.30250000       343.36400       2.4628986     0.015720353
       4434.0000       290.50000       98736.061       12694.707      0.47600000       1.0800000     0.066250000       343.40500       2.2609422     0.015881858
       4439.0000       290.46209       98742.240       12626.992       2.0567500       1.8512500    -0.089750010       343.22700       2.1634957     0.022062615
