MIRICO/SHELL project - Processed LDS file generated on
Mon Jul 10 09:21:12 2017
Time stamp for record start
05/11/2017  09:41:54.0000
Nb of points in the record
         879
Beam position index
       2.0000000
Beam angle (degrees)
      -8.6100000
Open Path length (m)
       64.850000
****************** Temporal data record ************************
Elapsedtime_sec Temp_K Press_Pa Humidity_ppmv WindX_m/s WindY_m/s WindZ_m/s Speedofsound_m/s CH4vmr_ppmv CH4vmrerror_ppmv  
      0.00000000       288.64338       98745.235       11492.839      -1.5830000       1.0982500     -0.20350000       341.45500       2.0954059     0.017427071
       5.0000131       288.65234       98740.033       11467.771      0.62050000       2.0227500     -0.32025000       341.69900       2.0730738     0.018809737
       9.9999860       288.71214       98744.785       11480.640      0.48950000       1.9962500     -0.25000000       342.05200       2.0711471     0.018633181
       14.999999       288.70505       98747.807       11442.563     -0.42400000       3.7542500     -0.48550000       341.09300       2.0861738     0.013817996
       20.000012       288.64561       98741.038       11357.934     -0.20800000       3.6997500     -0.67650000       341.10400       2.0895260     0.014747501
       24.999985       288.64441       98747.526       11321.277      0.10175000       2.7557500     -0.85575000       341.11800       2.1032989     0.014240555
       29.999998       288.64379       98771.955       11280.673      0.22900000       3.1007500     -0.16850000       341.05000       2.1099044     0.015195613
       35.000011       288.65271       98775.605       11272.779      0.19800000       2.5322500     -0.28775000       341.00300       2.1062843     0.013408370
       39.999984       288.70332       98774.342       11300.466    -0.064000000       3.0620000     -0.15275000       341.33500       2.0791010     0.014748945
       44.999997       288.71479       98767.103       11315.483      0.25000000       2.5232500     -0.45025000       341.05200       2.0852378     0.015186884
       50.000010       288.68236       98741.354       11328.747      0.61850010       1.6892500     0.032250000       341.42800       2.0973921     0.015890771
       55.000024       288.71969       98742.420       11374.267     -0.31825000       2.4920000     -0.32675000       340.84900       2.0755487     0.018950952
       59.999996       288.80001       98754.808       11436.527      -1.0720000       3.1675000     0.082750010       341.62700       2.0882369     0.018831252
       65.000010       288.82142       98755.890       11498.917     -0.48200000       3.2702500     -0.20575000       341.05700       2.0583479     0.018431959
       70.000023       288.87688       98769.590       11608.199     -0.10450000       2.5175000    -0.084750000       341.48900       2.1038266     0.019579060
       74.999996       288.84164       98765.460       11637.436    -0.072250000       2.3670000    -0.092250000       341.70600       2.1001312     0.019719697
       81.000003       288.69721       98734.923       11630.324       1.6252500       2.7387500      0.15400000       340.78300       2.0903904     0.020389763
       86.000016       288.61369       98751.344       11590.603     -0.11925000       2.9082500     0.024750000       340.84600       2.0754743     0.017629306
       90.999989       288.54310       98755.279       11552.706      -1.4400000       2.4917500      0.16575000       341.18000       2.0779636     0.021206092
       96.000002       288.48552       98771.265       11518.023      0.59025000       2.7300000     -0.27150000       340.73200       2.0871096     0.019774744
       101.00002       288.44485       98775.256       11471.392      0.40900000       2.2707500     -0.21075000       340.66500       2.0796219     0.019150324
       105.99999       288.41657       98769.385       11415.395   -0.0027500000       3.1670000     -0.34375000       341.48200       2.0779325     0.019138522
       111.00000       288.40077       98740.997       11346.385      0.29450000       1.2912500      0.65200000       341.80500       2.0976800     0.016662229
       116.00001       288.37068       98743.981       11276.356     -0.21875000       2.7710000     0.075000000       341.22400       2.0942236     0.016774293
       120.99999       288.35073       98753.610       11188.542     -0.33500000       1.2910000      0.30825000       341.78500       2.0759150     0.014009224
       126.00000       288.31475       98780.144       11134.753      0.41000000       2.2500000     -0.28600000       341.42400       2.0847733     0.017098494
       131.00001       288.29305       98786.702       11107.473     -0.47625000       1.7295000      0.20275000       341.13300       2.0739482     0.018724922
       135.99999       288.28489       98762.312       11125.862     -0.27025000       1.7455000      0.10575000       341.15700       2.0459317     0.016012084
       141.00000       288.29358       98754.211       11145.241     -0.93675010       2.2622500     -0.32600000       341.21000       2.0998082     0.015519446
       146.00001       288.31455       98748.583       11175.482      -1.0110000       1.7280000      0.32900000       341.19300       2.0541401     0.016625139
       150.99999       288.34279       98734.961       11220.921      0.96050010       1.1835000    -0.013750000       341.42800       2.0531671     0.016192251
       156.00000       288.38451       98741.146       11266.649      0.26675000       1.3937500     -0.14475000       342.21800       2.0608785     0.015659559
       161.00001       288.44957       98767.771       11315.098      0.78850000       1.6827500     -0.28575000       341.61600       2.0563455     0.017276275
       165.99998       288.48646       98774.145       11361.843      0.29425000       1.8922500      0.65825000       341.16100       2.0687423     0.020379198
       171.99999       288.55897       98773.030       11485.336      0.82900010       1.1430000     -0.31050000       341.26000       2.0713407     0.018655488
       177.00001       288.68717       98747.578       11732.252     -0.17350000       1.7157500     -0.44000000       341.78100       2.0453070     0.020490498
       182.00002       288.72251       98741.257       11826.328      0.46750000       1.3950000      0.16200000       341.34000       2.0577948     0.021273505
       186.99999       288.71251       98740.658       11885.727    -0.015500000       1.2397500     -0.11350000       341.94300       2.0610936     0.015208812
       192.00000       288.71021       98743.264       11906.837     -0.91575000       2.0977500      0.11400000       341.38900       2.0521296     0.019254257
       197.00002       288.60503       98768.494       11759.393     -0.14675000       2.6715000    -0.030000000       342.01300       2.0569272     0.016584214
       201.99999       288.57913       98774.735       11692.743    -0.017500000       2.7857500     0.062750000       341.90900       2.0399562     0.016106747
       207.00000       288.63382       98770.891       11678.271    -0.026250000       3.0787500      0.51050000       342.09100       2.0497966     0.016869174
       212.00002       288.65381       98766.401       11636.592    -0.034000000       1.9065000     -0.38625000       341.29300       2.0421205     0.010049458
       216.99999       288.69024       98741.971       11593.519       1.3580000       2.9780000     -0.37575000       341.20600       2.1041562    0.0097666047
       222.00000       288.70946       98735.529       11548.314       1.3172500       2.3997500      0.13325000       341.74400       2.0595737     0.012487350
       227.00002       288.69994       98739.497       11483.396      0.35600000       2.2495000     -0.15600000       341.95000       2.0596734    0.0093762625
       231.99999       288.69982       98743.903       11432.651      0.61600010       2.3610000     -0.31325000       341.09100       2.0419072     0.015758829
       237.00000       288.72960       98766.987       11416.982      0.68950000       2.4072500     -0.48250000       340.88800       2.0253167     0.015156742
       242.00002       288.70684       98774.259       11357.181      0.73700000       2.3225000     -0.43175000       341.58400       2.0501249     0.018224919
       246.99999       288.63201       98775.789       11249.573      0.22800000       1.6107500     0.091250000       341.66400       2.0626128     0.016012251
       252.00000       288.59199       98772.215       11188.913      0.23400000       1.9347500     0.031000000       341.79700       2.0593540     0.014540578
       257.00001       288.50506       98751.774       11088.988      0.33275000       2.8755000      0.36875000       342.11300       2.0379543     0.016692373
       263.00002       288.47765       98740.257       11064.879     -0.81075010       2.1017500      0.59950000       341.57300       2.0548987     0.014790843
       267.99999       288.56357       98727.863       11165.755     -0.50175010       2.3077500      0.30100000       341.55300       2.0558397     0.017716569
       273.00001       288.55568       98727.203       11185.587      0.18325000       2.6247500     -0.27400000       341.24700       2.0381612     0.014878730
       278.00002       288.50566       98738.986       11196.636    -0.082500000       2.8070000     -0.53250000       340.65500       2.0413656     0.015970250
       282.99999       288.49543       98747.595       11218.492    -0.060000000       2.4025000      0.20000000       341.18000       2.0753639     0.020170661
       288.00001       288.43385       98768.869       11184.772      0.15800000       2.0742500     -0.13700000       341.07400       2.0503648     0.012860552
       293.00002       288.43542       98774.938       11211.128      0.25200000       1.7050000      0.37975000       341.35800       2.0674694     0.014695788
       297.99999       288.53235       98775.303       11314.155      0.60125010       1.3852500     0.028500000       341.38600       2.0878753     0.013476040
       303.00001       288.56884       98770.391       11364.574      0.29750000       1.6145000     -0.38900000       340.66100       2.0849952     0.013864668
       308.00002       288.58227       98750.871       11411.353      0.35250000       2.1122500      0.10700000       340.94300       2.0497625     0.011980536
       312.99999       288.61240       98740.142       11445.681      0.32825000       1.3822500     -0.15450000       341.08600       2.0513271     0.012999286
       318.00001       288.62481       98724.005       11443.672     0.030000000       1.7855000     -0.22950000       340.79700       2.0588411     0.014254206
       323.00002       288.65804       98721.254       11461.903      0.13875000       1.5675000     -0.12825000       341.15000       2.0978283     0.014136667
       327.99999       288.74618       98727.760       11506.886      0.58075000       1.2395000     -0.11600000       341.83700       2.0757824     0.013910083
       333.00000       288.76849       98736.292       11510.369      0.71100000      0.24625000      0.77075000       342.34800       2.0739065     0.013721535
       338.00002       288.73174       98760.146       11477.534      0.47975000       1.1345000     -0.21900000       341.10300       2.0517308     0.017456962
       342.99999       288.75615       98771.107       11480.080      0.19125000       1.0747500     -0.11325000       341.20300       2.0974636     0.014900515
       348.00000       288.76973       98781.531       11461.061      0.37000000      0.69750010      0.18125000       341.82600       2.1217101     0.013976328
       354.00001       288.81779       98783.440       11483.218      0.51275000      0.67675000      0.24650000       341.92800       2.1247383     0.016319162
       358.99998       288.94082       98772.814       11567.429       1.0937500      0.43800000     0.023750000       341.01900       2.0673893     0.016244165
       364.00000       288.98768       98767.164       11596.336       1.1585000       1.0795000    -0.029250000       341.59900       2.0775293     0.013922694
       369.00001       288.98796       98758.484       11604.912      0.93550000      0.69700000     -0.18775000       341.01100       2.0670107     0.012284884
       374.00002       289.01765       98750.500       11627.039      0.73675000      0.93625000     -0.38725000       340.65700       2.0655323     0.020018731
       379.00000       289.05273       98742.079       11658.208      0.53075000      0.47400000     -0.20625000       340.86600       2.0811402     0.015965038
       384.00001       289.05642       98736.626       11640.652     0.096250010      0.52500000      0.23625000       341.01000       2.0999451     0.018041534
       389.00002       289.06788       98728.353       11614.945     -0.23350000      0.74925010    -0.087000000       341.10200       2.1183205     0.018660869
       394.00000       289.04546       98728.869       11569.419       1.0225000       1.7612500      0.14200000       340.74700       2.0711466     0.016494812
       399.00001       288.94707       98737.776       11441.276      0.55075000       1.1495000     -0.29575000       341.31200       2.0676225     0.014215946
       404.00002       288.92922       98743.411       11401.407      0.22050000       1.1520000     -0.32100000       341.11400       2.0841541     0.016751994
       408.99999       288.95381       98752.111       11404.641      0.53950000       1.5497500    0.0022500000       341.29800       2.1188572     0.015966454
       414.00001       288.94391       98760.051       11399.626    -0.078000000       1.2107500      0.17275000       341.37300       2.0833535     0.017044328
       419.00002       288.98136       98768.284       11444.753     -0.79350010       1.6112500    -0.056250000       341.42800       2.0653042     0.016629177
       423.99999       288.94167       98773.624       11436.407     -0.49275000       1.4522500     -0.43075000       341.22900       2.0943771     0.016717626
       429.00001       288.81711       98780.141       11396.426     -0.51800000       1.3522500      0.15050000       341.70000       2.1166594     0.018138245
       434.00002       288.76325       98782.942       11374.583     -0.95950010      0.97825000     -0.14150000       341.34800       2.0864209     0.019825744
       438.99999       288.70095       98780.277       11337.529     -0.37450000       1.2602500     -0.18825000       341.45900       2.0852499     0.014883240
       445.00000       288.67090       98780.313       11311.701     0.039250000       1.0240000     -0.14600000       341.49700       2.0751997     0.016505852
       450.00001       288.70026       98780.393       11303.608      0.59550010       1.3905000     -0.14625000       342.04800       2.1074128     0.016588374
       454.99999       288.70026       98780.440       11297.737     -0.35300000       1.9110000     -0.50575000       341.32000       2.1303090     0.018422668
       460.00000       288.69063       98782.061       11279.569      0.79625000       1.9295000     -0.16625000       341.42900       2.0926178     0.011640047
       465.00001       288.70886       98778.367       11306.366       1.0447500       1.0910000     0.010500000       341.89900       2.1560924     0.019985793
       469.99999       288.73555       98772.167       11361.371       1.1880000       1.7072500     -0.18475000       341.30900       2.1129296     0.015847534
       475.00000       288.77471       98766.222       11414.804       1.2917500       2.4365000     -0.39675000       340.91900       2.1104860     0.017296215
       480.00001       288.84010       98755.057       11491.722       1.0347500       1.7335000     -0.55975000       341.66000       2.1101199     0.017740950
       484.99998       288.89069       98750.738       11570.301      0.99475000      0.37900000      0.96125010       342.14300       2.1221213     0.015958337
       490.00000       288.94081       98751.632       11645.523      0.17700000       3.0777500      0.29975000       341.88300       2.0887295     0.014705189
       495.00001       288.99082       98746.749       11742.000     -0.82400010       1.1472500      0.19450000       341.46300       2.0964491     0.018688693
       500.00002       289.03964       98741.173       11881.545       1.2162500       2.7965000     0.056000000       341.35200       2.1207280     0.012623580
       505.00000       289.08899       98737.215       11954.104      0.11475000       2.6682500      0.67575000       341.55800       2.1154511     0.014522987
       510.00001       289.14850       98729.883       12034.139      -1.0282500       2.5165000    -0.085000000       341.59000       2.1031728     0.013250045
       515.00002       289.17978       98727.758       12031.633     -0.41375000       2.8795000     -0.18025000       341.68200       2.1025156     0.013324822
       520.00000       289.20277       98730.257       11954.520     0.010250000       2.1587500     0.091000010       340.97800       2.1186257     0.014437106
       525.00001       289.21426       98730.244       11901.275      0.41425000       3.8017500     -0.21050000       341.41200       2.1060680     0.013275462
       530.00002       289.23503       98730.109       11816.661    -0.021750000       2.7617500     -0.52825000       341.47000       2.1164085     0.018601841
       535.99999       289.09366       98730.245       11703.057       1.2232500       3.7817500     -0.43975000       341.00800       2.0729502     0.014248476
       541.00000       289.00551       98730.209       11610.574      0.57800000       2.9612500     -0.69450000       341.12300       2.1299647     0.017242312
       546.00002       288.81524       98730.271       11445.527      0.20200000      0.84875010      0.67375000       342.26900       2.1109522     0.014441138
       550.99999       288.71967       98730.295       11362.352     -0.26975000       3.9450000     -0.45625000       341.28700       2.0937576     0.018064833
       556.00000       288.68567       98730.305       11322.612     -0.10025000       3.3002500      0.12250000       341.11000       2.0826314     0.019166414
       561.00001       288.75610       98730.065       11341.222     -0.11475000       2.6577500      0.77675000       341.82900       2.1099517     0.018106569
       565.99999       288.72463       98730.006       11292.632      0.35675000       1.6792500      0.50575000       342.10900       2.1079900     0.018682517
       571.00000       288.70646       98730.077       11267.958     -0.44450000       2.5235000     -0.55275010       341.55700       2.0970248     0.015289963
       576.00001       288.63003       98730.157       11187.134     -0.33175000       3.1340000     -0.20975000       341.48100       2.1081319     0.020272730
       580.99999       288.58684       98730.098       11146.696     -0.21275000       2.7722500    -0.077750000       341.00600       2.0954486     0.018730010
       586.00000       288.59986       98730.245       11182.398      0.19000000       2.0480000      0.28300000       341.82000       2.0853560     0.021972636
       591.00001       288.59972       98730.210       11200.338      0.95275000       1.7577500     0.064750000       341.52500       2.0725939     0.020598150
       595.99999       288.59953       98730.160       11218.241      0.11950000      0.79950000      0.49575000       342.11500       2.0916941     0.019703365
       601.00000       288.59435       98727.053       11230.406       1.0985000       1.3882500     -0.17150000       341.88400       2.0800412     0.015833481
       606.00001       288.61621       98737.869       11271.302      0.32325000       1.9937500     0.032500000       341.67700       2.0566004     0.015688316
       610.99999       288.65622       98758.228       11329.544      0.36950000      0.95700000      0.45375000       342.43400       2.0896167     0.020588003
       616.00000       288.65458       98758.911       11356.932     0.033750000       1.6237500     0.098750000       341.63200       2.0876405     0.018722294
       622.00001       288.65464       98757.702       11390.172     -0.79475000       1.7657500     0.096250010       341.72800       2.0943829     0.019316834
       627.00002       288.60957       98727.456       11386.869      0.43550000      0.62800000      0.58500000       342.17100       2.1103734     0.016907032
       631.99999       288.59118       98719.691       11391.734    -0.072750000       3.3160000    -0.013500000       341.06400       2.0835544     0.019699051
       637.00000       288.59984       98730.092       11418.483       1.1667500       2.4697500    -0.029000000       341.37900       2.0736556     0.020472316
       642.00002       288.59969       98735.308       11423.919       1.0027500       1.9542500     -0.26550000       341.60000       2.0606260     0.020356925
       646.99999       288.61535       98750.840       11426.355    -0.089000000       1.7635000      0.16925000       341.60700       2.0667474     0.015165562
       652.00000       288.60430       98758.509       11401.761    -0.034750000       2.0592500     -0.19575000       340.92200       2.0792303     0.018005850
       657.00002       288.53788       98756.407       11315.227    -0.045250000       2.0665000     0.036750000       341.11600       2.0850571     0.015899333
       661.99999       288.54040       98760.549       11293.153      0.83175000       1.5305000     -0.28475000       341.20400       2.0854367     0.015249502
       667.00000       288.59253       98767.104       11300.629      0.44400000      0.86500010      0.12775000       341.75000       2.1090953     0.017592311
       672.00002       288.60270       98771.102       11290.110     -0.18725000       1.2502500      0.30950000       341.60600       2.1170461     0.014404903
       676.99999       288.61838       98778.387       11295.902     -0.16675000       3.1572500      0.43350000       341.73800       2.1510779     0.014080322
       682.00000       288.65808       98782.082       11325.298     -0.18575000       2.4425000     -0.23100000       341.17600       2.2391254     0.012910465
       687.00002       288.61734       98783.186       11312.786     -0.28300000       1.9650000      0.26050000       341.78200       2.1748076     0.016461706
       691.99999       288.68437       98780.885       11367.581     0.062250000       1.7440000     -0.49275000       341.45700       2.2258093     0.014411566
       697.00000       288.95821       98774.907       11542.044      0.21275000       1.3832500      0.32000000       341.73700       2.5560511     0.016459998
       702.00001       289.04196       98769.786       11638.601      0.84400000       1.5197500     -0.70725010       341.73200       2.7909301     0.012258560
       706.99999       289.05764       98761.583       11733.854      0.67175000      0.75825010      0.45725000       341.97600       2.4595460     0.016911794
       713.00000       289.06973       98752.004       11809.299      0.73250000       1.8487500     -0.28950000       342.20100       2.1873476     0.016704069
       718.00001       288.92718       98743.265       11822.191       1.5155000       1.6357500   -0.0057500000       341.42600       2.1773117     0.016571740
       723.00002       288.86550       98737.740       11814.393       2.1117500       2.1812500     -0.14725000       341.02900       2.5189864     0.018766009
       727.99999       288.83603       98731.352       11764.007       2.2595000       2.4140000      0.54300000       341.56200       2.4096674     0.019511683
       733.00001       288.84324       98728.109       11746.191       3.2840000       3.0472500     -0.31350000       341.05900       2.1706031     0.016385180
       738.00002       288.90641       98727.779       11721.975       2.0042500       2.4760000     -0.13225000       340.95300       2.2074953     0.017504988
       742.99999       288.90269       98730.630       11684.472       2.3995000       2.5972500     -0.14725000       341.05700       3.1650962     0.015663992
       748.00001       288.87489       98736.597       11641.284       2.2547500       2.6752500     -0.11525000       341.30400       3.2408601     0.014220467
       753.00002       288.90916       98742.002       11635.381       1.5832500       1.6975000      0.23550000       341.40000       2.6112084     0.015740725
       757.99999       288.93900       98750.404       11629.318     0.034000000       1.6610000     -0.19450000       342.29100       3.3849123     0.016178230
       763.00001       288.95301       98758.361       11625.242      0.78350000       2.3147500      0.74075000       341.64000       2.6540027     0.016398838
       768.00002       289.06049       98767.439       11685.300      0.32850000       1.6362500      0.36950000       342.42700       3.3667280     0.017755347
       772.99999       289.07554       98773.010       11688.352       1.0797500       1.2352500     0.021500000       342.39100       2.6271323     0.013085552
       778.00000       288.95451       98782.142       11620.343       1.4010000       2.3615000      0.15175000       341.31600       2.4065881     0.015842080
       783.00002       288.93239       98782.585       11609.627     -0.10550000       3.4082500     -0.19875000       341.83900       2.6480335     0.014170847
       787.99999       288.96871       98773.975       11636.175      0.63075000       2.8685000      0.43400000       341.86800       2.2992826     0.020007383
       793.00000       288.94457       98768.560       11616.055      0.72675000       3.2630000      0.14400000       341.37400       2.6315117     0.020122295
       798.00002       288.91768       98759.877       11587.519      0.99000010       2.5600000      -1.0100000       341.45000       2.4486513     0.017487889
       803.99998       288.88763       98750.265       11564.967      0.88925000       1.5207500     -0.27600000       341.10500       2.3363694     0.021180130
       809.00000       288.80103       98741.894       11499.327       1.0740000       1.8380000      0.32925000       341.89800       2.9794337     0.013969470
       814.00001       288.77385       98736.536       11483.852       1.4165000       2.3160000     -0.17475000       341.55300       2.9169989     0.017284772
       819.00002       288.81136       98727.211       11528.954      0.45625000       1.6562500      0.16575000       341.82600       3.0158979     0.024425948
       824.00000       288.79540       98729.315       11522.976       2.0317500       3.4247500     -0.71575000       341.61900       2.6939124     0.020480700
       829.00001       288.75898       98740.450       11503.324      0.85525010       3.3110000      0.44825000       341.44900       3.1591524     0.022473060
       834.00002       288.73881       98749.838       11483.679      0.69450000       2.3417500    -0.088500000       341.02700       2.5976955     0.022312098
       839.00000       288.69026       98770.484       11433.181      0.49475000       1.2745000     -0.31975000       341.69300       2.7580330     0.016304190
       844.00001       288.69265       98775.373       11421.070       1.3007500       1.9040000     0.098500010       341.52300       3.1903437     0.023059612
       849.00002       288.73148       98775.041       11424.534     -0.36050000       1.7520000     -0.35550000       341.54900       2.7017972     0.025159154
       853.99999       288.76763       98769.019       11436.592      0.35825000       1.8310000      0.22150000       341.96500       2.7670980     0.025290511
       859.00001       288.85276       98747.727       11468.264      0.90925000       2.9452500      0.41100000       341.54400       2.6579737     0.020152284
       864.00002       288.87007       98738.991       11500.267       2.0302500       2.9872500     0.011500000       340.99600       2.4939693     0.018119425
       868.99999       288.86931       98724.746       11557.619       1.2225000       1.5090000      0.32225000       342.02000       2.3480087     0.021404659
       874.00001       288.84603       98728.935       11573.736       1.5125000       3.1327500     -0.21675000       340.93000       2.5198121     0.019604518
       879.00002       288.74820       98751.185       11573.270       1.4772500       2.0090000     -0.64200000       341.36300       2.8330167     0.023884123
       883.99999       288.73077       98761.157       11579.487     -0.10875000       1.9285000      0.59000000       341.75700       2.9317631     0.014837631
       889.00001       288.72093       98783.344       11537.531       1.1402500       2.2952500     -0.46125000       341.44400       3.0766999     0.020244154
       895.00001       288.77174       98784.568       11577.100     -0.50775000       2.6545000     -0.78325000       341.57600       2.6401739     0.017036582
       899.99999       288.90440       98769.204       11677.839      0.71375000       3.6607500      0.12275000       341.72800       3.2966176     0.014894312
       905.00000       288.93650       98757.665       11703.299       1.5102500       3.3787500      0.22275000       341.84500       3.1333263     0.018299370
       910.00001       288.95980       98732.946       11734.580     -0.31075000       3.7947500     -0.39525000       340.86900       2.6385310     0.018083268
       914.99999       288.96248       98729.133       11741.027    -0.048250000       3.9052500      0.85925010       341.51300       3.0647079     0.019560660
       920.00000       288.88789       98729.843       11682.310       1.2030000       3.8330000      0.19100000       341.42500       3.1708768     0.020758775
       925.00001       288.89572       98738.144       11681.894      0.70450000       2.5422500     0.063750010       341.44100       2.3385747     0.019496789
       929.99998       288.95417       98766.550       11718.772       1.4085000       2.7587500     -0.14975000       341.54200       2.2180053     0.017416640
       935.00000       288.95515       98772.228       11713.487       1.2107500       2.3100000      0.25900000       341.53300       2.3933381     0.022226308
       940.00001       288.97434       98775.513       11711.174       1.0487500       2.8990000     -0.30400000       341.67100       2.5653169     0.024464915
       944.99998       288.92855       98767.505       11673.210       1.0035000       3.0385000    -0.022250000       341.69000       2.4256221     0.021006550
       950.00000       288.80456       98738.581       11593.668       2.7807500       1.7157500      0.33850000       342.01800       2.7595534     0.021747824
       955.00001       288.75352       98733.965       11545.683      0.98775010       1.9827500     0.050250000       342.00100       2.8253381     0.018707690
       960.00002       288.69444       98729.751       11487.582      0.67650000       1.3430000      0.25925000       342.27200       2.8543964     0.024125040
       965.00000       288.67259       98737.081       11448.949      0.80575000       2.1320000      0.43450000       341.31500       2.4128707     0.022812094
       970.00001       288.70067       98766.572       11419.592       1.2635000       1.6595000      0.17300000       341.55100       2.7831277     0.019063258
       975.00002       288.70097       98772.187       11415.801       1.9925000       1.9797500      0.44075000       342.13300       2.5955030     0.018985153
       980.00000       288.70911       98774.581       11425.802      0.74700000       2.3015000      0.12575000       341.38200       2.8858849     0.021784311
       986.00000       288.66974       98751.158       11477.854      0.89075010       2.6140000     -0.18975000       341.35700       2.8060238     0.019513846
       991.00002       288.64993       98742.806       11497.868      0.73000000       1.6980000     -0.35600000       341.52500       2.4209522     0.026275481
       995.99999       288.58494       98736.288       11481.369      0.86800000      0.79250000     -0.48900000       341.79400       2.8710330     0.021737566
       1001.0000       288.58095       98736.472       11487.923       1.1330000       1.1067500     -0.16825000       341.56100       2.9205746     0.027218309
       1006.0000       288.61384       98744.030       11498.750      0.27375000       2.3770000      0.21400000       341.34800       2.6663863     0.024765330
       1011.0000       288.68470       98769.499       11494.971      0.63775000       2.3565000      0.22500000       341.84700       2.7376726     0.023845951
       1016.0000       288.76809       98766.505       11535.636      0.69075010       1.4465000     -0.14150000       341.43700       2.5027246     0.025584090
       1021.0000       288.89972       98757.135       11605.233     -0.16425000       2.6687500     -0.64850000       341.52100       2.9231952     0.022785085
       1026.0000       289.00156       98733.453       11696.299     0.021750000       1.4685000     -0.34725000       341.08200       3.4301157     0.019878221
       1031.0000       289.10236       98725.252       11777.380      0.62750010       2.7775000     -0.20250000       340.94900       2.4048461     0.023954588
       1036.0000       289.18562       98740.731       11858.969      0.21675000       2.4550000     -0.33700000       341.00600       2.8684238     0.024648657
       1041.0000       289.29335       98745.789       11945.867      0.74225000       1.1360000      0.42450000       341.95600       2.5929123     0.022275564
       1046.0000       289.41332       98749.611       12033.557      0.33475000       1.8675000    -0.075750000       341.85000       2.9771250     0.023299078
       1051.0000       289.56634       98758.635       12128.839      0.29050000       1.9735000     0.050500000       341.87100       2.8226076     0.022301706
       1056.0000       289.62240       98754.901       12177.928     -0.16325000       1.2325000      0.44950000       342.23000       2.6603092     0.023290991
       1061.0000       289.65586       98737.994       12216.018      0.21975000      0.97975000      0.42125000       342.24700       2.6233442     0.017554578
       1066.0000       289.73546       98742.431       12302.946      0.30000000       1.6750000     -0.11525000       341.53900       3.1199215     0.021610266
       1071.0000       289.71993       98744.181       12277.639      0.83225010       1.4432500     0.015250000       341.22800       2.5782103     0.020755994
       1077.0000       289.65818       98761.797       12155.886      0.61525010       2.1057500     -0.51325010       341.94100       3.1482494     0.021957131
       1082.0000       289.60440       98763.952       12056.663      0.48875000       1.3755000      0.76625000       341.78400       3.3483631     0.021174136
       1087.0000       289.37699       98745.777       11773.077     0.095500010       1.1747500      0.74500010       342.64800       3.0403398     0.022525523
       1092.0000       289.30490       98743.150       11672.306       1.5652500       1.7702500      0.50400000       341.87400       3.0275516     0.020876836
       1097.0000       289.34674       98744.643       11724.390      0.16725000       2.7690000      0.21175000       341.11300       2.5901307     0.020622150
       1102.0000       289.39074       98743.934       11726.406       1.2080000       2.7605000     -0.28375000       341.28000       4.4128502     0.021716242
       1107.0000       289.58904       98756.633       11833.111      0.74175010       2.3507500     -0.55400000       341.77700       3.3632539     0.017386296
       1112.0000       289.63292       98758.086       11850.988    -0.099500010       1.9432500      0.15100000       342.28700       2.8235908     0.026841723
       1117.0000       289.60569       98737.327       11770.676     -0.34725000       3.0372500     -0.33550000       341.86600       3.1955365     0.028995265
       1122.0000       289.56128       98736.920       11726.576     0.086500000       2.7265000     -0.36125000       341.63500       2.7902839     0.023517833
       1127.0000       289.37463       98757.649       11667.183     0.034500000       2.2887500    -0.071750000       341.63000       2.6508509     0.022316827
       1132.0000       289.26802       98757.078       11618.039     -0.34800000       1.3822500      0.33575000       342.59600       2.6067489     0.026197155
       1137.0000       289.17100       98751.080       11564.146      0.34200000       1.3555000      0.46175000       342.70600       2.3363741     0.016131826
       1142.0000       289.12521       98751.772       11545.763      0.75925000       1.2052500     -0.40150000       342.49800       2.2500646     0.018620800
       1147.0000       289.08811       98735.134       11511.736      0.16400000       2.6587500      0.12950000       342.30000       3.0461266     0.021820190
       1152.0000       289.13504       98731.013       11547.429       1.0840000       3.0477500     -0.91525010       341.37600       2.6632669     0.022763529
       1157.0000       289.35781       98756.491       11712.287      0.40600000       2.4725000    -0.064750000       341.93200       2.5712566     0.022132669
       1163.0000       289.44614       98759.296       11791.537       1.3212500       3.1097500     -0.49525000       341.83600       2.1708529     0.020406930
       1168.0000       289.49199       98736.872       11851.058    -0.064750000       2.3400000     -0.70050000       342.04300       2.5844643     0.014144683
       1173.0000       289.53017       98738.834       11888.872       1.0352500       2.0957500     -0.15325000       341.89700       2.4125368     0.014777117
       1178.0000       289.43485       98751.607       11823.566       1.1270000       1.1335000      0.18725000       342.96300       3.2695012     0.022267972
       1183.0000       289.43582       98750.254       11835.195      0.92150000       1.5542500      0.54525000       343.03400       2.9891551     0.026152946
       1188.0000       289.49128       98755.870       11900.764       1.8367500       1.8047500     -0.28250000       341.27900       3.6144640     0.020173084
       1193.0000       289.56893       98758.243       11940.683       1.2377500       1.3667500      0.36250000       341.81500       2.8790314     0.027239712
       1198.0000       289.69545       98740.591       11978.992       1.4407500       1.8230000      0.34250000       342.27800       2.3501895     0.019281112
       1203.0000       289.78600       98736.418       12034.130       1.5615000       2.7450000    -0.078000000       341.06800       2.4385473     0.019917211
       1208.0000       290.00174       98751.771       12169.237       1.2745000       1.3672500     -0.30550000       342.23200       2.5562459     0.017028640
       1213.0000       289.99013       98752.342       12147.875      0.21675000       2.1802500     -0.17700000       341.48100       2.9758978     0.022619176
       1218.0000       289.79244       98738.936       12045.025      0.77375000       1.3435000      0.16275000       342.21400       2.8063892     0.016622340
       1223.0000       289.66213       98739.090       11956.223      0.80750010       2.0152500     0.048750000       341.11200       2.7995764     0.019568945
       1228.0000       289.36846       98746.534       11720.950      0.58550000       1.0560000      0.46775000       342.03700       3.3931220     0.021459412
       1233.0000       289.21806       98745.154       11596.882       1.8110000       1.3032500     -0.11900000       341.50500       2.9010814     0.023800667
       1238.0000       289.16025       98743.450       11553.901       1.6152500       1.4040000     0.091500010       343.33100       3.0076035     0.020990716
       1243.0000       289.12170       98746.512       11492.512       1.3097500       1.5072500     -0.10650000       341.14500       2.6848103     0.021217970
       1248.0000       289.11819       98744.677       11424.700      0.80325000       1.2270000     -0.12450000       341.50600       2.9294541     0.014805820
       1254.0000       289.16014       98744.738       11392.218      0.76950000      0.38325000     0.036000000       342.62600       2.3265998     0.025458256
       1259.0000       289.23959       98754.893       11364.569      0.54775010      0.96475010     -0.10400000       341.80900       2.2101078     0.020981357
       1264.0000       289.35779       98758.631       11414.645      0.98675010       1.6677500     -0.31300000       341.99400       2.5018296     0.023396138
       1269.0000       289.55489       98754.588       11539.420      0.29600000       1.2437500      0.23950000       343.15500       2.2055675     0.019428506
       1274.0000       289.67788       98755.224       11640.300     0.036000000      0.69875000      0.14100000       342.65600       2.2556730     0.023656208
       1279.0000       289.86213       98763.739       11829.648     -0.58375000       1.0830000     0.053250000       343.07700       2.1635551     0.026308889
       1284.0000       289.90440       98760.239       11905.071    -0.080250000       1.3005000    -0.096250010       342.86100       2.1997272     0.014756170
       1289.0000       289.80436       98744.436       11891.702     -0.13675000       1.6115000     -0.66150000       341.64700       2.2963903     0.012230793
       1294.0000       289.79474       98743.348       11946.280      0.53975000       1.6012500     -0.12100000       342.39900       2.4530273     0.018580162
       1299.0000       289.74373       98746.581       11987.047       1.9267500       1.7937500     -0.52300000       343.36100       2.7336516     0.020088059
       1304.0000       289.73588       98743.607       12026.446      0.39450000       1.5797500      0.27600000       342.65000       2.4495695     0.018977878
       1309.0000       289.81055       98744.204       12144.108      0.14200000       2.9405000    -0.024500000       341.79500       3.1419523     0.028110755
       1314.0000       289.80806       98747.227       12141.088      0.89550010       4.0982500      0.53825000       342.42200       2.6298836     0.020901264
       1319.0000       289.78226       98747.535       12057.450      0.49300000       2.3762500     -0.18025000       342.23200       2.4010507     0.012272290
       1324.0000       289.72919       98742.892       11979.650      0.63875000       2.6175000     -0.37250000       342.44000       2.2019165     0.022798271
       1329.0000       289.62779       98738.824       11844.215      0.54925000       3.2615000     0.021750000       343.03800       2.3467217     0.011540474
       1334.0000       289.55736       98741.547       11737.638       1.4665000       3.8967500     -0.21700000       341.58100       2.4991677     0.010665141
       1339.0000       289.45772       98742.005       11616.302      0.66850000       2.9280000     -0.11150000       343.26100       2.5264912     0.017095288
       1345.0000       289.40330       98737.240       11519.242     -0.46950000       2.6087500     -0.16525000       341.46100       2.4301837     0.019112403
       1350.0000       289.37036       98739.655       11438.492       1.7900000       2.4877500     -0.48450000       341.47700       2.7088980     0.020947347
       1355.0000       289.41538       98743.684       11416.167      0.84975000       1.9457500     -0.13025000       342.76200       3.5580381     0.027782045
       1360.0000       289.51041       98741.205       11433.989      0.79775010       2.1135000      0.50575000       342.99300       2.6221368     0.024306950
       1365.0000       289.62527       98737.247       11472.873      0.52150010       2.1732500      0.71150000       342.88200       2.7795198     0.024318662
       1370.0000       289.84432       98739.772       11563.025      0.68525000       3.0200000     -0.68975000       341.71200       3.6785592     0.020367324
       1375.0000       289.93846       98743.794       11627.775    -0.017250000       2.0982500      0.44825000       342.44900       2.5336757     0.024596673
       1380.0000       289.97289       98741.147       11685.857     -0.94750010       3.4662500      0.32675000       342.06600       2.3712794     0.019480879
       1385.0000       290.08256       98737.091       11804.982       1.3572500       1.8127500    -0.077500000       343.04900       2.6865888     0.023614421
       1390.0000       290.18694       98739.158       11956.340      0.88175000       1.3910000     -0.14600000       342.61400       2.6738881     0.017670700
       1395.0000       290.26696       98743.121       12089.123      0.31550000       3.1942500      0.11700000       341.48600       2.5339574     0.024162026
       1400.0000       290.41210       98741.309       12306.936      0.75225000       1.8290000     -0.74975000       341.95400       2.4072192     0.030896220
       1405.0000       290.45683       98737.411       12372.047      0.80125000       3.4032500     0.080250000       342.02200       3.2553506     0.026239991
       1410.0000       290.40013       98739.711       12354.264      0.53375000       1.2060000     -0.34575000       341.73700       2.4716009     0.024726912
       1415.0000       290.40007       98743.652       12332.075      0.37200000       2.4877500      0.13100000       342.16900       2.5277351     0.031986965
       1420.0000       290.39989       98738.491       12227.915       1.7670000      0.60700010     -0.20275000       342.12900       2.6038266     0.029073682
       1425.0000       290.39982       98740.098       12177.822      0.70125000       1.1795000     0.069000010       342.41100       2.4848036     0.025915124
       1430.0000       290.40966       98756.695       12118.093     -0.48675000       1.9195000      0.19075000       342.21900       3.1550449     0.030454584
       1436.0000       290.42975       98751.643       12173.521     -0.19500000       2.0700000      0.18125000       343.13200       2.5573694     0.026224148
       1441.0000       290.37469       98749.451       12144.438      0.33775000       3.6120000     -0.48350000       341.42500       2.4972718     0.023617678
       1446.0000       290.22490       98753.270       12094.184      0.44600000       1.9295000      0.16275000       342.63000       2.7768025     0.026738824
       1451.0000       290.10703       98751.530       12026.279     -0.94800010       4.0282500   -0.0042500000       341.10500       2.4101469     0.029627078
       1456.0000       289.97682       98747.331       11920.113      -1.7255000       3.0825000    -0.087500010       340.90300       3.5144611     0.023007979
       1461.0000       289.77076       98738.557       11715.749     -0.50075000       2.8322500   -0.0062500000       341.22500       2.8024402     0.027943941
       1466.0000       289.71736       98740.967       11628.372     -0.62625000       3.0150000     -0.53850000       342.79000       2.4319881     0.030325158
       1471.0000       289.75060       98746.706       11575.252     -0.59700000       2.4322500     -0.45975000       342.13600       3.0289540     0.034927514
       1476.0000       289.72428       98734.645       11526.379     -0.62275000       3.7260000     -0.19150000       341.39700       3.3995339     0.026797624
       1481.0000       289.70548       98738.109       11499.396     -0.67025010       2.3637500     -0.17150000       342.30900       2.3741620     0.024857379
       1486.0000       289.59967       98751.920       11469.875     -0.15075000       2.7395000      -1.4930000       340.98800       2.4551578     0.026713834
       1491.0000       289.57503       98751.123       11475.513    -0.019000000       2.6797500      0.26975000       341.49600       3.0887145     0.028350550
       1496.0000       289.59955       98749.118       11510.508     -0.78650000       3.5037500     -0.22625000       341.37100       3.2440118     0.023084516
       1501.0000       289.69878       98757.311       11593.329     -0.46025000       1.9832500      0.35425000       341.88800       2.6589193     0.028596792
       1506.0000       289.73940       98758.674       11636.968     0.027250000       1.6285000      0.20925000       342.74000       2.3504868     0.028870730
       1511.0000       289.81127       98742.913       11689.724      0.44900000       1.9427500     0.062750000       342.84300       2.2676620     0.026663204
       1516.0000       289.77022       98755.765       11700.960       1.6587500       1.6687500     -0.28450000       343.10700       2.3752774     0.027822338
       1521.0000       289.78744       98758.495       11761.728      0.17375000       1.8495000      0.10675000       342.64600       2.3649501     0.024848470
       1527.0000       289.91140       98740.170       11958.039       1.3805000       1.9975000     -0.10325000       342.95200       2.6021622     0.027460010
       1532.0000       289.91723       98737.741       12022.632       1.2030000       1.5662500      0.49375000       343.38100       2.2870418     0.027409691
       1537.0000       289.87867       98748.250       12056.418      0.35600000       1.6790000      0.19450000       343.15000       2.4257981     0.023504403
       1542.0000       289.85658       98746.077       12072.729       1.0587500       1.8380000     -0.57550000       342.44100       2.5242248     0.020363548
       1547.0000       289.71464       98738.254       11964.687      0.62450000       1.1422500     -0.24150000       342.75200       2.3230109     0.023449348
       1552.0000       289.66986       98740.395       11928.691      0.47575000       1.5287500      0.44375000       343.73000       2.1799451     0.028954335
       1557.0000       289.74779       98739.353       11962.897      0.93100010       2.1037500      0.57450000       342.23000       2.8195592     0.028392767
       1562.0000       289.75640       98738.672       11947.668     -0.35650000       2.9685000     -0.86175010       342.60700       3.5265515     0.024251396
       1567.0000       289.76983       98755.739       11917.545     -0.24750000       2.1217500      0.22625000       341.55600       2.7796485     0.029583592
       1572.0000       289.75759       98759.124       11892.748     -0.40500000       2.4230000   -0.0012500000       341.25200       2.7648587     0.026405659
       1577.0000       289.67593       98740.209       11816.127      0.14900000       2.0820000     -0.60000000       341.88500       2.5482051     0.029562058
       1582.0000       289.63777       98737.741       11795.182      0.37525000       2.1862500     -0.27475000       341.67100       2.5518998     0.030451210
       1587.0000       289.58001       98746.665       11830.407      0.97450010       2.1485000     -0.18550000       341.87800       3.0717008     0.029552384
       1592.0000       289.58407       98745.510       11840.312      0.71700000       1.7240000       1.1110000       342.22700       2.8321289     0.026558303
       1597.0000       289.66836       98746.973       11874.102      -65.536000      -65.536000      -65.536000       307.23200       2.8672168     0.034777416
       1602.0000       289.70849       98746.595       11885.778      0.79025010       2.8230000      0.25050000       343.11800       2.7887855     0.020621908
       1607.0000       289.78145       98729.071       11858.096      0.70175000       2.2400000      0.33475000       342.98000       2.9494593     0.028558831
       1612.0000       289.81946       98726.776       11854.275      0.18150000       4.3000000     -0.83125000       341.71400       2.8095502     0.029806314
       1618.0000       289.81268       98746.806       11871.639      0.48775000       2.5337500     0.067250010       341.94800       3.2664178     0.027793954
       1623.0000       289.79887       98747.247       11865.691     -0.12975000       2.2192500      0.12225000       342.04300       2.9348143     0.027748533
       1628.0000       289.76186       98739.770       11847.376     -0.34675000       3.3792500   -0.0085000000       341.38300       2.9453146     0.025702616
       1633.0000       289.74180       98740.778       11846.263     -0.16550000       2.2550000     -0.95375010       342.11700       2.7180810     0.030498815
       1638.0000       289.70530       98732.127       11839.236     -0.50475000       4.4575000     -0.38025000       340.71400       3.3653831     0.028960981
       1643.0000       289.68920       98733.039       11835.890      0.49200000       4.9432500     -0.81875000       341.54500       3.1123055     0.028960253
       1648.0000       289.69958       98757.368       11857.900       1.8072500       2.0037500     -0.84575000       341.87000       2.8015765     0.028038939
       1653.0000       289.69931       98758.716       11860.535       1.5762500       3.4085000    -0.050000000       341.41600       3.2889610     0.030885480
       1658.0000       289.69980       98742.944       11839.316      0.69800000       3.1040000     -0.13850000       341.64800       3.0981578     0.019943617
       1663.0000       289.69968       98737.874       11835.342      0.20925000       3.0752500     -0.40625000       342.06000       3.3412137     0.033503761
       1668.0000       289.71338       98722.181       11860.321     -0.16825000       2.8347500      0.36475000       342.10300       2.6621718     0.033121231
       1673.0000       289.69986       98721.777       11840.109       1.3390000       3.5515000      0.21875000       341.47400       2.5585299     0.026515850
       1678.0000       289.59537       98742.357       11767.856      0.73500000       3.1502500      0.51300000       342.04300       2.8369901     0.023574006
       1683.0000       289.64489       98748.583       11762.330       1.3537500       3.0050000    -0.044250000       341.29000       2.8251999     0.023716784
       1688.0000       289.77037       98754.829       11737.100       1.4560000       2.7747500      0.13350000       341.32900       2.3118192     0.034003599
       1693.0000       289.88231       98757.712       11773.331       1.4250000       3.3137500      0.21850000       341.66400       2.4338797     0.018844590
       1698.0000       290.15481       98749.458       11923.698      0.98650000       2.7120000     0.038250000       341.94200       2.6539668     0.022662134
       1703.0000       290.27720       98749.164       12001.679      0.53050010       2.2435000      0.17925000       343.57200       2.3531299     0.027884021
       1709.0000       290.29864       98755.459       12068.536     -0.95175000       3.2172500     -0.41575000       341.51900       2.4754170     0.023265267
       1714.0000       290.32570       98755.780       12146.042     -0.12425000       1.8685000      0.28450000       341.97200       2.4710783     0.020889485
       1719.0000       290.29993       98759.558       12220.117     -0.19225000       3.2192500     -0.40550000       340.84500       2.6003648     0.022769294
       1724.0000       290.29993       98754.194       12276.708      0.60975000       1.6250000      0.38275000       341.88100       2.5543556     0.023112333
       1729.0000       290.28843       98734.595       12372.264      0.51400000       2.6625000      0.13600000       342.05300       3.0450609     0.021955253
       1734.0000       290.30481       98732.129       12393.540      0.82375000       2.5185000     -0.57125000       342.36600       2.7000339     0.022256498
       1739.0000       290.39727       98732.072       12369.379     -0.18325000       2.7102500    -0.096000000       341.85600       3.7978479     0.026547791
       1744.0000       290.33579       98735.551       12313.758      0.45500000       2.3572500      0.56450000       342.82500       2.4002567     0.018612831
       1749.0000       290.20878       98759.067       12209.710      0.89200000       1.3487500     -0.63250010       342.44700       2.5844185     0.028462015
       1754.0000       290.09028       98758.896       12110.121      0.61725000       2.6315000    -0.047000000       343.25900       2.9745364     0.020636433
       1759.0000       289.81885       98742.177       11969.212       1.1147500       2.5245000    -0.016250000       343.60800       3.0925423     0.025394453
       1764.0000       289.71077       98737.171       11855.397       1.1272500       1.5065000    -0.096000000       342.33100       3.0428355     0.017729630
       1769.0000       289.68969       98721.243       11723.134       1.9857500       3.1647500     -0.11075000       341.85000       2.6186408     0.023253793
       1774.0000       289.67912       98722.819       11651.568       2.0930000       2.1995000      0.76575010       343.34200       2.4576040     0.020486363
       1779.0000       289.73121       98742.731       11597.908       1.9412500       2.4685000      0.27425000       342.05500       2.4700657     0.019229575
       1784.0000       289.76786       98750.152       11579.586       1.0927500       3.0032500      0.34500000       342.24600       3.5542199     0.020539459
       1789.0000       289.84226       98763.471       11622.879       2.1450000       2.8200000     -0.21425000       342.06500       3.5384444     0.021728267
       1795.0000       289.88131       98761.709       11655.123       1.2755000       1.6230000      0.60200010       341.51700       2.4640303     0.019608621
       1800.0000       289.87682       98743.786       11685.988       1.1420000       1.7490000      0.19725000       341.33000       2.5068789     0.021833349
       1805.0000       289.94398       98743.426       11746.413       1.3672500       1.6647500     -0.72650000       341.98700       2.3279686     0.017230818
       1810.0000       290.03751       98746.592       11830.954       2.0287500       3.0985000   -0.0057500000       341.72200       2.5465703     0.021877868
       1815.0000       290.09693       98741.710       11904.030       1.2707500       2.3600000     -0.19475000       342.33800       2.5970819     0.018836430
       1820.0000       290.20844       98740.168       11996.774       1.0352500       2.6485000     -0.45275000       341.89800       2.1627930     0.022912582
       1825.0000       290.24180       98741.075       12079.057       1.1520000       1.8517500     -0.57125000       341.97200       2.1268209     0.017769362
       1830.0000       290.20884       98732.928       12168.718       1.0345000       2.5910000      0.11450000       343.11300       2.1012582     0.016750240
       1835.0000       290.19009       98734.344       12204.123      0.88725010       2.2570000     -0.30125000       341.65700       3.8632656     0.020133495
       1840.0000       290.17079       98753.031       12240.951      0.90950010       1.2552500      0.21100000       341.64400       2.6768226     0.018665712
       1845.0000       290.11340       98752.746       12209.139       1.0490000       1.6975000     -0.90525010       341.43800       2.5274459     0.017124656
       1850.0000       290.00506       98738.556       12096.190      0.70775000       2.0387500     -0.21600000       342.62600       2.1883918     0.020481760
       1855.0000       289.95432       98740.182       12026.617      0.40825000       1.2055000      0.73825000       343.08800       2.5017642     0.022238402
       1860.0000       289.86619       98743.259       11910.653      0.74025010       3.3300000     -0.30925000       342.27100       2.7691122     0.018506435
       1865.0000       289.90128       98747.135       11889.922       1.6212500       2.1847500     0.066250000       341.74000       2.2484213     0.024550134
       1870.0000       290.03809       98762.033       11931.540     -0.35875000       1.4457500     -0.10175000       342.35100       4.0916672     0.020728740
       1875.0000       290.09822       98763.573       11913.478      0.30275000       2.6085000     -0.51600000       341.03800       2.8605637     0.014763048
       1880.0000       290.20965       98758.240       11921.724    -0.011500000       2.2265000     -0.40000000       340.93200       3.0460515     0.016788975
       1886.0000       290.17029       98738.270       11827.607      0.12700000       1.8210000     -0.24025000       341.39300       2.3967308     0.018921965
       1891.0000       290.18799       98732.917       11803.968      0.17450000       1.0090000      0.25750000       342.85300       2.8658020     0.015154098
       1896.0000       290.24521       98732.189       11856.737     -0.49175000       1.8207500    -0.016000000       342.10300       2.3195792     0.012802833
       1901.0000       290.29361       98732.648       11885.727     -0.42125000       1.9997500     0.088750000       341.72400       2.2622441     0.012882391
       1906.0000       290.35430       98738.022       11921.048      0.28025000      0.91775010      0.43875000       343.99100       2.1313547     0.018140866
       1911.0000       290.44734       98756.907       11966.594      0.81875000       1.8820000      0.31550000       342.17600       2.2332490     0.015328149
       1916.0000       290.52750       98761.489       12059.024      0.84750000       2.5267500     -0.42550000       341.23100       2.7945641     0.014642979
       1921.0000       290.60585       98761.517       12168.670      0.55250000       2.5367500    -0.081500000       341.39200       2.1262073     0.013491334
       1926.0000       290.66990       98761.666       12287.956      0.30975000       2.0430000      0.16775000       341.73500       2.5608111     0.015730559
       1931.0000       290.71313       98757.067       12370.780      0.16750000       1.7622500    -0.020750000       341.97200       2.8287891     0.014693507
       1936.0000       290.67036       98741.294       12352.188      0.23500000       2.9782500     -0.52700000       341.64700       3.1267943     0.016592936
       1941.0000       290.68800       98734.129       12377.857       1.1445000       2.4937500     -0.49600000       342.01600       3.1519405     0.015257875
       1946.0000       290.73034       98729.409       12417.709      0.12550000       1.7822500     -0.35675000       342.95900       2.5481206     0.017145693
       1951.0000       290.79279       98721.465       12480.166      0.69300000       2.0315000     -0.15700000       342.91300       2.5113339     0.017000975
       1956.0000       290.85514       98727.471       12505.824    0.0062500000       2.0742500      0.27900000       344.65500       2.0052643     0.022777835
       1961.0000       290.96190       98744.833       12544.126      0.17600000       1.9445000     -0.64475010       344.40500       2.4035213     0.014385950
       1966.0000       291.02971       98766.459       12530.246     0.069000010       1.8462500     -0.18025000       343.40100       2.5251512     0.018076682
       1971.0000       291.02534       98774.418       12475.885   -0.0055000000      0.46175000      0.78050010       344.61400       2.5759643     0.015982981
       1977.0000       290.92546       98770.996       12339.583      0.37650000       1.1815000     0.017250000       343.70800       2.2510211     0.020236772
       1982.0000       290.84334       98766.475       12241.381     -0.72150000       2.3437500      0.75650010       344.44200       2.3310265     0.015900151
       1987.0000       290.64738       98748.027       12082.537     0.098000000       2.4445000      0.65875010       343.22400       2.3698693     0.013556737
       1992.0000       290.56277       98737.400       11993.853     -0.32400000       3.4010000    -0.025500000       342.44300       2.0499127     0.015760021
       1997.0000       290.56776       98729.109       11948.548      0.73700000       2.2250000      0.59300010       343.44500       2.6023901     0.021524383
       2002.0000       290.53924       98723.474       11921.126      0.49325000       2.0062500      -1.1620000       342.27600       2.1797398     0.023436000
       2007.0000       290.56977       98717.057       11962.981      0.81800000       1.9215000     -0.31025000       342.88200       2.2440559     0.017723967
       2012.0000       290.55728       98718.524       11962.442      0.11775000       3.1817500     -0.62250000       341.66400       2.5202686     0.018902544
       2017.0000       290.44660       98729.155       11919.830       1.2762500       2.2210000     -0.53700000       342.17900       2.2053080     0.024365184
       2022.0000       290.42942       98736.257       11936.014      0.97750000       2.6017500    -0.026000000       342.82200       2.4801232     0.016516456
       2027.0000       290.46369       98750.846       11954.326       1.0137500       3.3085000     -0.14950000       341.79800       2.6229252     0.018214297
       2032.0000       290.49607       98758.421       12004.217    -0.064000000       4.4100000      0.37850000       343.05600       3.0137921     0.028404048
       2037.0000       290.61397       98759.210       12150.541       1.7922500       3.5902500      0.60150000       342.64900       2.7421557     0.019783611
       2042.0000       290.67112       98761.039       12240.797       1.2120000       5.1470000     -0.83050010       341.42100       2.4499941     0.017622625
       2047.0000       290.70395       98761.772       12325.959       1.1792500       2.5735000     -0.31800000       342.09200       2.6433450     0.014646828
       2052.0000       290.71145       98760.680       12381.797      0.64900000       2.9597500     -0.45900000       341.61600       3.0726863     0.022268944
       2057.0000       290.70760       98759.739       12426.445      0.74500010       2.4505000     -0.53925000       342.35000       2.6093310     0.026134924
       2062.0000       290.65405       98755.553       12419.333      0.36825000       2.4282500      0.54600000       342.68400       2.2129438     0.022251541
       2068.0000       290.50319       98744.412       12332.715      0.89225010       1.0797500      0.38600000       343.07600       2.1791844     0.016091056
       2073.0000       290.41396       98737.479       12283.299     0.077000010       1.8250000      0.50725000       344.87700       2.1395077     0.022444657
       2078.0000       290.26424       98726.214       12183.777      -1.0765000       1.0352500     -0.50850000       342.75600       2.1708870     0.022808310
       2083.0000       290.20926       98722.309       12137.722      -1.4512500       3.3080000    -0.031000000       342.66900       2.1345894     0.026175592
       2088.0000       290.21524       98721.916       12156.260      -1.4377500       1.8362500      0.33725000       343.00100       2.2572187     0.019911579
       2093.0000       290.24680       98725.096       12128.279     -0.91400000       3.3950000     0.070250000       342.91800       2.5058323     0.027463128
       2098.0000       290.34480       98736.118       12066.362    -0.082250010       2.0532500     -0.60925000       343.36700       2.4175243     0.019860088
       2103.0000       290.42911       98743.192       12057.090     -0.23225000       4.1727500     -0.61900000       342.08900       2.4967043     0.022295086
       2108.0000       290.59305       98753.128       12063.278      0.10500000       2.8280000     -0.38325000       343.27100       3.1298480     0.027813750
       2113.0000       290.63909       98758.437       12060.179     -0.53875010       3.0707500     -0.50525000       342.13300       2.9086647     0.024456193
       2118.0000       290.61374       98759.815       12102.744      0.30275000       4.2547500     -0.45625000       341.98800       2.4866883     0.024296334
       2123.0000       290.60621       98761.415       12116.746      -1.2817500       3.1910000     -0.52150010       341.99600       2.9867695     0.021809866
       2128.0000       290.50954       98760.376       12081.940     -0.92850010       3.4510000     -0.39275000       342.10800       2.8506309     0.024845768
       2133.0000       290.47725       98760.394       12086.193      0.47850000       2.7595000      0.14200000       342.66900       2.5610791     0.020019437
       2138.0000       290.51226       98761.544       12124.621      0.22200000       3.3967500     -0.36500000       341.75700       2.9145535     0.024316519
       2143.0000       290.49815       98760.140       12138.154      0.72875010       3.0485000    -0.047750000       342.83500       3.0408780     0.028126960
       2148.0000       290.46119       98758.998       12153.372       2.4447500       4.2717500     -0.25250000       341.89500       3.0579235     0.026058104
       2153.0000       290.44108       98754.277       12160.756       2.0277500       3.3207500    -0.063250010       341.27600       2.5142753     0.027438970
       2159.0000       290.38944       98743.102       12139.641       1.5520000       2.4662500      0.21475000       341.79100       2.4449304     0.029463885
       2164.0000       290.39195       98736.183       12150.755      0.98550000       2.2322500      -1.0117500       341.44300       3.0726334     0.025417735
       2169.0000       290.44209       98726.424       12183.062       1.1047500       2.9820000      0.12175000       342.30200       2.7545003     0.029612928
       2174.0000       290.46200       98721.714       12199.188       1.4697500       3.5677500     -0.36525000       341.58700       2.6140487     0.021769387
       2179.0000       290.46410       98720.503       12210.577       1.1840000       2.8267500     -0.87225000       341.83000       2.4464696     0.030238080
       2184.0000       290.52704       98719.164       12246.521       1.6960000       3.1792500     -0.90025000       341.56900       2.9737180     0.026619524
       2189.0000       290.61441       98720.271       12284.192     0.081250000       2.8570000     -0.51750000       342.19500       2.5370515     0.025755944
       2194.0000       290.69079       98720.243       12327.621      0.55925000       1.6165000      0.36600000       342.64300       2.4030116     0.021915682
       2199.0000       290.84127       98720.137       12412.837       1.2092500       1.2857500      0.10325000       342.77700       2.4137688     0.025978466
       2204.0000       290.90341       98720.121       12453.783       2.1197500       2.1240000     -0.33975000       342.38100       3.1021603     0.032562368
       2209.0000       290.94427       98720.336       12467.493       1.2250000       1.8677500    -0.074250010       342.70100       2.6384007     0.032490898
       2214.0000       290.89332       98720.336       12485.580      0.78700010       3.1105000      0.21500000       341.88100       2.3399287     0.026259598
       2219.0000       290.75875       98720.305       12517.903       1.6190000       2.2532500     -0.28500000       342.18700       2.7288747     0.033250021
       2224.0000       290.64538       98720.305       12483.504      0.34075000       2.0967500     0.028250000       342.64000       2.6270925     0.026992496
       2229.0000       290.43089       98719.290       12410.213       2.3625000       2.8017500     -0.77875010       342.69700       2.3840456     0.026888692
       2234.0000       290.31892       98720.963       12339.958       1.5192500       1.0367500     -0.27500000       342.44900       2.5231824     0.034491856
       2239.0000       290.26891       98722.155       12217.040       2.1097500       3.1487500     -0.86100010       342.04100       2.8262759     0.031869054
       2244.0000       290.20507       98727.330       12126.838      0.65850000       3.0180000     -0.46600000       342.12400       2.4726178     0.032330229
       2250.0000       290.16840       98741.590       12041.711       1.6195000       2.5190000     -0.34025000       342.38700       2.7821254     0.028240377
       2255.0000       290.10013       98742.910       11962.366       2.2212500       2.2750000    -0.027000000       342.71900       2.6474628     0.029253204
       2260.0000       290.00572       98740.066       11860.454      0.57725000       2.8725000      0.75975000       343.44500       3.0226299     0.031270685
       2265.0000       289.95499       98742.127       11814.087       1.4380000       4.6905000     -0.70025000       341.59500       2.8233257     0.035031938
       2270.0000       289.88486       98738.726       11780.553       1.6427500       3.5162500     -0.63400000       341.58900       2.7810276     0.028117919
       2275.0000       289.88156       98740.512       11785.567       2.5902500       2.4522500      0.20125000       341.39900       2.5190962     0.030815504
       2280.0000       289.94588       98750.771       11847.763       1.6792500       3.6787500     -0.53200000       341.29900       2.6607139     0.029296141
       2285.0000       289.96590       98753.062       11868.988      0.42975000       2.9610000     -0.57775000       341.63400       2.5682382     0.035515593
       2290.0000       289.99436       98751.882       11893.682     -0.29175000       3.0057500     -0.42050000       341.90300       2.7580013     0.039201369
       2295.0000       290.02444       98748.109       11923.126      0.29925000       4.2585000     -0.59975000       342.29100       2.7165477     0.030109252
       2300.0000       290.05479       98739.288       11946.435      -1.3315000       5.5287500     -0.29400000       341.71100       2.9833191     0.038783233
       2305.0000       290.05588       98738.997       11962.397      0.51400000       2.9097500      0.25275000       341.85000       3.5042562     0.030116418
       2310.0000       290.06742       98738.730       11988.923      0.55325000       3.2342500      0.27600000       342.53400       2.5542949     0.032341950
       2315.0000       290.03926       98740.537       12004.142     -0.69375000       2.6807500      0.23700000       341.66500       2.5423364     0.028333910
       2320.0000       289.95132       98750.862       11999.662       1.0985000       2.7235000     -0.65825000       341.58600       3.1614871     0.032630959
       2325.0000       289.92000       98753.133       12002.065     -0.23600000       2.3442500      0.38200000       342.52000       2.4167967     0.034630421
       2330.0000       289.89696       98750.353       12015.069     0.054000000       2.2702500      0.19500000       342.32400       2.5931350     0.030818145
       2336.0000       289.82543       98753.199       11957.903     -0.76200000       2.5957500     -0.10075000       342.03200       2.8234822     0.030622166
       2341.0000       289.86971       98751.419       11973.713      0.50525000       2.6825000      0.17550000       342.47700       2.7995568     0.031158320
       2346.0000       290.11033       98745.857       12084.711      -1.3645000       2.3865000      0.25700000       342.82100       2.3547642     0.029708567
       2351.0000       290.17516       98741.053       12123.098       1.2195000       2.1847500     -0.23175000       341.49100       2.7136758     0.030873984
       2356.0000       290.19076       98734.998       12148.192      0.48125000       1.9067500      0.17425000       341.76900       2.2231355     0.027283939
       2361.0000       290.24765       98724.097       12212.850      0.43500000       1.7832500     -0.60675000       341.94200       2.4471392     0.030406592
       2366.0000       290.16668       98720.305       12184.980       1.0772500       2.7462500     -0.33975000       342.09800       2.3870251     0.033428315
       2371.0000       289.87080       98719.987       12059.035      0.91450010       2.9700000     -0.38500000       342.35000       2.2045765     0.032709930
       2376.0000       289.84598       98720.301       11997.142      0.26975000       1.9995000     -0.13450000       343.16600       2.7156724     0.034054650
       2381.0000       289.83170       98720.325       11972.378      -1.2482500       1.9970000      0.36700000       343.38100       2.4274228     0.023098332
       2386.0000       289.88539       98720.214       11986.381    -0.048000000       3.0747500      0.35150000       342.65100       2.6003392     0.030848286
       2391.0000       289.94375       98720.178       12005.132    -0.080500010       2.3680000     -0.38725000       341.62300       2.7373380     0.027982933
       2396.0000       290.01446       98720.129       12040.730     -0.56600000       1.8907500     0.080750000       342.24400       2.8365353     0.032141174
       2401.0000       290.11787       98717.597       12125.887     -0.32450000       1.9900000     -0.32250000       342.11800       2.4021940     0.032598844
       2406.0000       290.12371       98726.239       12118.872    -0.072000000       2.9972500     -0.63850000       341.72200       2.4826239     0.027810315
       2411.0000       290.11164       98742.725       12076.659     -0.45450000       1.3770000      0.24775000       342.52300       2.6706534     0.030148252
       2416.0000       290.02965       98741.965       12053.328     -0.31925000       2.1467500     -0.18200000       342.05700       2.9435536     0.031725292
       2421.0000       289.98678       98742.380       12040.285      0.17400000       1.2602500     0.062500000       342.76200       2.6798305     0.034326486
       2427.0000       289.98608       98719.816       12098.942     -0.38975000       1.5877500      0.43975000       342.08700       2.5067691     0.029443168
       2432.0000       289.99747       98715.823       12113.203     -0.22450000       1.3645000      0.11150000       342.37500       2.4159401     0.029215300
       2437.0000       290.00586       98730.471       12070.478      0.26175000       1.5172500     0.048500000       342.77100       2.3746039     0.026797564
       2442.0000       290.04812       98736.418       12074.332       1.1740000       1.4772500      0.36450000       342.63600       2.4610354     0.026465082
       2447.0000       290.17097       98747.311       12089.270      0.39575000       1.1687500     0.071500000       342.94800       2.4044757     0.029042375
       2452.0000       290.21822       98752.910       12110.551     -0.47350000       1.2595000     0.029750000       342.94100       2.6199910     0.026348748
       2457.0000       290.24569       98748.840       12169.850      0.24300000       2.1372500      0.49975000       342.92700       2.9695320     0.031540966
       2462.0000       290.26363       98749.981       12213.661      -1.1575000       1.8812500     -0.65400000       342.37200       2.7021194     0.029312784
       2467.0000       290.22400       98753.833       12255.796      -1.5220000       1.6197500     -0.42400000       342.00800       2.2460154     0.031699905
       2472.0000       290.19382       98755.876       12283.911     -0.85575000       3.8337500     -0.42050000       341.20600       2.2311783     0.027831684
       2477.0000       290.20871       98759.284       12343.673      -1.3327500       3.3550000     -0.24800000       341.38000       2.2084837     0.026464407
       2482.0000       290.15534       98761.131       12329.900      -1.0610000       1.8007500      0.25950000       342.84900       2.1002992     0.020702954
       2487.0000       290.00987       98761.761       12238.606     -0.63275000       1.9747500      0.75125000       343.51900       2.2777057     0.027796289
       2492.0000       289.93127       98760.611       12181.068      -1.4402500       2.0132500    -0.035000000       341.54200       2.3098020     0.025324267
       2497.0000       289.84434       98756.858       12093.833     -0.61900000       2.5232500     -0.23575000       341.53000       2.2926605     0.023604249
       2502.0000       289.77643       98754.859       12012.405      -1.8777500       1.0190000     -0.22450000       342.64600       2.3432780     0.027954840
       2507.0000       289.76518       98751.293       11943.279      -1.0082500       1.5902500     -0.29950000       342.62700       2.1953226     0.025112329
       2512.0000       289.74500       98749.439       11890.968     -0.72800000       2.7470000     -0.20725000       341.48200       2.0585969     0.029436323
       2518.0000       289.67878       98754.238       11785.086     -0.65950000       2.4232500      0.31700000       342.64800       2.0522243     0.028691371
       2523.0000       289.69013       98750.144       11776.951     -0.90175000       2.5272500      0.33600000       342.35600       2.4643517     0.024567406
       2528.0000       289.78866       98738.998       11866.159     -0.97625010       1.8322500     -0.22775000       342.06300       2.5238490     0.025422288
       2533.0000       289.81474       98733.113       11899.414     -0.95850000      0.85100000      0.33825000       342.18100       2.4971721     0.028676213
       2538.0000       289.85310       98721.847       11963.370      -1.0535000      0.91525010      0.28550000       342.34400       2.0813734     0.025183418
       2543.0000       289.86550       98717.001       11997.238     -0.86575000       1.3187500     -0.34500000       341.35500       2.0347656     0.028954585
       2548.0000       289.79325       98718.967       11961.232      -1.5152500      0.94825010     0.043250000       341.73300       2.0475724     0.026904711
       2553.0000       289.79096       98720.361       11990.458      -1.1250000       1.4960000     -0.20725000       342.29500       2.0368270     0.028774567
       2558.0000       289.83836       98721.663       12067.043      -1.5832500       2.1202500     -0.54900000       341.78200       2.0574767     0.027260183
       2563.0000       289.85841       98726.423       12113.748     -0.71775000      0.80050000     0.075750000       342.90100       2.0557738     0.027691233
       2568.0000       289.86925       98736.295       12172.203     -0.90300010       1.4087500    -0.084750000       342.46300       3.0728841     0.026813140
       2573.0000       289.91260       98743.306       12223.711     -0.72925000       2.7565000     -0.38350000       341.78000       2.2016420     0.025062773
       2578.0000       289.98815       98753.167       12273.719      -1.2117500       2.5360000      0.26875000       342.00000       2.1173706     0.026752237
       2583.0000       290.01443       98758.422       12289.429      -1.7782500       1.4095000     -0.32575000       341.71800       2.2627939     0.024089196
       2588.0000       290.02588       98761.147       12276.346     -0.92050000       2.0707500     0.019500000       342.02000       2.2010361     0.025579156
       2593.0000       290.06632       98761.423       12292.123      0.29750000       2.1325000      0.12425000       341.81300       2.8549389     0.025667231
       2598.0000       290.09514       98758.959       12291.936    -0.022250000       1.8310000     -0.17275000       342.32400       3.0074502     0.026021137
       2603.0000       290.10529       98754.219       12294.667     -0.29175000       1.4897500      -1.3775000       341.98600       2.9137484     0.029181161
       2609.0000       290.16829       98743.025       12359.839     -0.60350000       2.1305000    0.0097500000       342.63100       2.8837136     0.027556076
       2614.0000       290.15952       98736.092       12339.988      0.66225000       3.7365000     -0.83125000       342.92500       2.4668890     0.024516761
       2619.0000       290.03655       98726.241       12229.667      0.42025000       2.7825000     -0.22575000       341.72400       2.5632422     0.027711863
       2624.0000       290.03506       98721.500       12211.587       1.1725000       1.5940000     -0.22150000       342.22300       2.4093041     0.026849177
       2629.0000       290.08337       98716.891       12193.123     -0.13950000      0.73625000      0.55925000       342.72800       2.8433688     0.024633354
       2634.0000       290.11012       98720.462       12205.775     -0.36250000       1.3885000     0.018750000       342.52300       2.5549132     0.027624112
       2639.0000       290.20839       98732.880       12304.875      0.41750000       2.3077500     -0.30375000       342.36300       2.3842495     0.024938438
       2644.0000       290.21984       98738.909       12329.094      0.81075010       1.3992500      0.78175000       343.09700       3.7491216     0.027769576
       2649.0000       290.15703       98748.896       12313.943      -2.0297500       1.3150000      0.37675000       342.39400       3.6718584     0.024302842
       2654.0000       290.13691       98754.666       12320.253     -0.46525000       1.2572500      0.55725000       343.00300       2.7680091     0.025742537
       2659.0000       290.11189       98755.714       12321.920      0.34450000       2.1965000     0.063250010       342.69500       2.6950586     0.022164753
       2664.0000       290.08203       98756.119       12311.687     -0.42550000       3.4687500     -0.33400000       342.26800       2.7207910     0.023532784
       2669.0000       290.07059       98759.670       12316.638      -1.1480000       3.0165000    -0.064500000       341.45600       2.4333091     0.023195197
       2674.0000       290.03400       98754.075       12287.256     -0.26750000       2.4325000     -0.11650000       341.41300       2.1324919     0.025722662
       2679.0000       289.95916       98740.130       12214.492     -0.31800000       2.3740000      0.12575000       341.80100       2.4885210     0.025537848
       2684.0000       289.92538       98729.536       12174.862     -0.69325010       2.1762500      0.55625000       342.04800       2.3783282     0.021698539
       2689.0000       289.91145       98709.597       12145.606     -0.95100000       2.6365000     -0.28475000       341.41000       2.3314761     0.024773616
       2694.0000       289.88135       98704.664       12096.533      -1.2605000       1.6735000     -0.10600000       341.49700       2.3159522     0.020475872
       2700.0000       289.83627       98705.388       12021.923     -0.81800000       1.7410000    -0.025250000       342.23500       2.0688657     0.022982522
       2705.0000       289.85389       98714.646       12007.014     -0.46850000       2.2535000     -0.18900000       342.09500       2.0442784     0.020831583
       2710.0000       289.89830       98739.259       11996.936     -0.38425000       1.8615000     -0.37250000       341.82900       2.0292553     0.019874410
       2715.0000       289.90844       98749.478       11994.027     -0.22400000       1.2392500     -0.79100000       342.27300       2.0521280     0.022668105
       2720.0000       289.96090       98762.647       12036.057      0.32400000       1.6187500    -0.028250000       342.58300       2.2674035     0.024327682
       2725.0000       289.96306       98765.288       12056.053      0.17250000       1.3672500     -0.72725000       342.55000       2.7477775     0.024268441
       2730.0000       289.90587       98758.312       12053.149    -0.050750000       1.3892500      0.19225000       342.53000       2.4689300     0.021718260
       2735.0000       289.87549       98750.631       12069.552       1.0240000      0.41175000      0.13825000       342.67000       2.5473542     0.024170683
       2740.0000       289.86251       98735.991       12117.814      0.84400000      0.84350000     -0.11350000       342.92300       2.2959039     0.021717970
       2745.0000       289.82410       98728.875       12124.808       1.4917500       1.3935000      0.35125000       342.13000       2.2757144     0.021660329
       2750.0000       289.73349       98716.677       12097.633      0.85825000       1.3622500    -0.016750000       341.56200       2.1729043     0.022870216
       2755.0000       289.73987       98718.895       12113.782      0.48850000       1.0400000    -0.051250000       341.80400       2.0766763     0.021679765
       2760.0000       289.78719       98732.915       12139.305      0.68675010       1.2242500     0.041750000       342.11100       2.0894088     0.024157882
       2765.0000       289.81640       98740.826       12150.054      0.21025000      0.85450010      0.12825000       342.00200       2.2132753     0.020668550
       2770.0000       289.90516       98756.620       12182.896     0.035250000       1.1055000     0.015000000       342.10100       2.0092408     0.022639861
       2775.0000       289.92770       98760.142       12187.685     0.035750000      0.59075000     -0.22500000       342.22600       2.0789421     0.022136155
       2780.0000       289.88279       98758.503       12145.327     -0.16225000      0.46025000      0.50525000       342.93200       2.1160068     0.022726000
       2785.0000       289.92051       98751.985       12167.436     -0.20575000      0.26300000      0.16275000       342.04700       2.0768501     0.022333150
       2791.0000       289.99456       98734.792       12225.467     -0.60375010       1.6192500     -0.11925000       341.76700       2.1415804     0.023236969
       2796.0000       290.06975       98720.281       12279.522     -0.60300000       2.1472500     -0.50775000       341.88300       2.2589362     0.022668943
       2801.0000       290.14905       98716.530       12338.437     0.099750000       2.2702500     0.038000000       342.22600       2.0441148     0.023846326
       2806.0000       290.22841       98720.167       12399.189     -0.60950010       1.4415000     -0.31100000       342.21400       2.5679778     0.024890228
       2811.0000       290.30460       98734.279       12451.638     -0.42825000       1.2470000     0.032500000       342.12000       2.3321552     0.022344043
       2816.0000       290.35390       98742.485       12520.649      -1.2710000       1.2960000     -0.17400000       342.50600       2.0828968     0.021731061
       2821.0000       290.41234       98758.847       12610.899     -0.37325000       2.8382500     -0.11050000       342.18400       2.0852153     0.021394642
       2826.0000       290.37028       98751.169       12663.809      0.49750000       2.3412500     -0.51300000       342.22800       2.9132033     0.022711478
       2831.0000       290.38730       98746.451       12722.175     0.018000000       3.2927500     -0.39825000       342.25400       2.6602905     0.022794667
       2836.0000       290.47545       98727.263       12825.317      0.24750000      0.98750010      0.69225000       342.80600       3.2386937     0.021666390
       2841.0000       290.50646       98721.616       12846.339      0.31525000       2.3305000     -0.16525000       342.53500       3.6404393     0.021636226
       2846.0000       290.52519       98723.357       12825.851      0.48150000       2.3587500     -0.15725000       342.88200       3.3171752     0.023943986
       2851.0000       290.56299       98733.923       12775.150      0.77275000       2.3755000     0.074250010       342.91000       2.6997514     0.020691412
       2856.0000       290.55967       98741.321       12721.086      0.53100000       1.4390000     0.081250000       342.36900       3.2123231     0.023909456
       2861.0000       290.49930       98757.726       12600.320     -0.17700000       2.1065000      0.15350000       342.35600       2.7711609     0.026010628
       2866.0000       290.48404       98760.098       12547.520    -0.046000000       2.6497500    -0.080250000       342.54900       2.6692903     0.022600708
       2871.0000       290.45512       98757.602       12485.319     -0.25225000       3.6095000     -0.16400000       342.10700       2.8909076     0.020054438
       2877.0000       290.37480       98739.536       12368.187      0.10075000       3.4015000     -0.26100000       342.23800       2.8496323     0.023892046
       2882.0000       290.33627       98732.841       12303.022     -0.35275000       2.4897500     0.082750010       342.49900       2.6110699     0.023294430
       2887.0000       290.31002       98722.536       12250.096     0.072500010       2.3017500     -0.23950000       342.72000       2.6069166     0.023386421
       2892.0000       290.29132       98722.336       12220.522     0.096500000       1.9777500     -0.13675000       342.70600       2.7286492     0.022825286
       2897.0000       290.30011       98740.755       12215.541     -0.11275000       1.7972500      0.25850000       342.89000       3.3861118     0.023604658
       2902.0000       290.30011       98747.489       12226.715     -0.28625000       2.8182500     -0.11875000       342.91000       3.2802906     0.025540889
       2907.0000       290.28637       98757.873       12273.723     -0.20075000       2.9805000     -0.74850000       342.48400       3.5853062     0.026326036
       2912.0000       290.29784       98758.072       12308.461      0.74400000       1.9825000      0.21100000       343.03700       2.9980349     0.025408488
       2917.0000       290.32023       98740.733       12362.846       1.3640000      0.96600000    -0.023750000       343.03400       2.7478944     0.025595447
       2922.0000       290.35137       98732.769       12397.091       1.1682500       2.0335000     -0.81575010       341.75300       2.2968571     0.024419106
       2927.0000       290.42468       98717.503       12391.495       1.3655000       2.5525000     -0.63200000       342.24000       2.2023507     0.023243176
       2932.0000       290.46304       98716.387       12426.758       1.8292500       2.4177500     -0.27525000       342.42100       2.5859820     0.023988258
       2937.0000       290.54923       98735.107       12518.598      0.93275000       2.2222500     -0.10725000       342.65000       2.2871116     0.022235322
       2942.0000       290.52214       98741.982       12538.088       2.2295000       1.7457500     0.049250000       341.66000       2.5957380     0.021915070
       2947.0000       290.39254       98759.824       12566.958       1.5485000       1.4607500     0.026750000       342.09600       2.7534579     0.025155422
       2952.0000       290.28992       98759.623       12540.539       1.3757500       1.3765000     0.055500000       341.79500       2.6843974     0.025473322
       2957.0000       290.04084       98726.822       12364.284       1.4302500       1.3872500    -0.065750000       341.83000       2.7404347     0.027115359
       2962.0000       289.94718       98720.399       12300.770       1.0475000       1.9395000     -0.12175000       342.11900       2.1575032     0.025231785
       2968.0000       289.96025       98720.550       12278.015      0.59625010       2.4107500    -0.051000000       342.43700       2.5767188     0.026232543
       2973.0000       289.99537       98723.861       12265.954      0.53250000       1.3760000     0.074250010       342.67400       2.7867267     0.027474243
       2978.0000       290.15260       98755.353       12316.156      0.95950010       2.5312500     -0.43625000       342.03900       3.2770485     0.028153202
       2983.0000       290.23813       98761.307       12347.259      0.15150000       2.6410000      0.43525000       342.67500       2.3364960     0.025298004
       2988.0000       290.35436       98750.063       12378.706      0.37500000       3.4610000     -0.66225000       341.70100       2.5648738     0.025864000
       2993.0000       290.37925       98744.302       12391.018      0.46425000       2.8820000     -0.24725000       342.33000       2.9368280     0.022839108
       2998.0000       290.31883       98724.110       12412.111       1.1130000       2.0630000      0.92900000       342.62000       3.1013377     0.021984160
       3003.0000       290.29521       98721.228       12414.582      0.32425000      0.94150010     -0.10650000       342.75400       2.6549659     0.030694355
       3008.0000       290.23515       98736.183       12390.139       1.8572500       2.1442500     -0.17075000       341.86800       2.4494162     0.021669825
       3013.0000       290.17482       98736.494       12357.531       1.2957500       1.8437500     -0.10850000       342.23800       2.4407967     0.017678409
       3018.0000       290.11099       98736.140       12290.413      0.42975000       2.3312500     -0.34950000       341.73600       3.0112392     0.020166332
       3023.0000       290.08500       98736.355       12276.112      0.25400000       1.7827500     0.070750010       342.35600       3.9054262     0.022134816
       3028.0000       290.03391       98725.472       12266.881      0.62900000       2.9767500      0.11475000       342.22300       3.2349808     0.022319970
       3033.0000       290.03589       98722.635       12274.446      0.57550000       2.4222500     -0.21800000       341.85600       3.0190711     0.024637718
       3038.0000       290.11988       98725.901       12327.935      0.72375010       1.9660000     -0.33825000       341.74500       2.5300497     0.025422019
       3043.0000       290.17027       98731.732       12376.870       1.0560000       1.9642500     -0.16450000       341.93600       2.5533215     0.025531631
       3048.0000       290.23411       98743.250       12439.664       1.2965000       1.6517500      0.10325000       342.43400       2.6348693     0.025910391
       3053.0000       290.27063       98747.924       12475.137      0.20875000       1.2410000     -0.12125000       342.38300       3.0528553     0.024879891
       3059.0000       290.28801       98759.277       12510.059      0.88850000       1.3980000     0.019000000       342.18600       2.6882051     0.024664778
       3064.0000       290.31782       98756.551       12551.205      0.29675000      0.76850000      0.17300000       342.58200       3.6324418     0.023835287
       3069.0000       290.35330       98734.497       12591.620      0.28000000       1.1537500   -0.0085000000       342.62500       2.9931157     0.024241762
       3074.0000       290.35708       98731.979       12597.806      0.58625000       1.4030000     -0.40225000       342.21900       2.7313052     0.025034667
       3079.0000       290.35862       98732.763       12612.021      0.67250000       1.6570000    -0.043000000       342.28800       2.7330082     0.016292193
       3084.0000       290.35233       98734.663       12603.490      0.29550000      0.91625010      0.38625000       342.88700       2.3273784     0.021878901
       3089.0000       290.31227       98753.251       12538.097      0.28000000      0.92925010    -0.085500000       342.69200       2.3658964     0.024381760
       3094.0000       290.28211       98752.534       12504.259    -0.061000000       2.2157500      0.35000000       342.23400       3.9316275     0.025744846
       3099.0000       290.25771       98734.231       12489.148      0.65375000       1.4180000     -0.43575000       342.58500       2.8629971     0.023850197
       3104.0000       290.23772       98733.062       12463.968      0.67100000       2.2867500    -0.038750000       342.83100       2.9541831     0.025585620
       3109.0000       290.18928       98731.882       12417.654       1.3542500       1.2305000     -0.11750000       342.39600       3.1720124     0.026028428
       3114.0000       290.19171       98735.330       12404.650      0.68050000       2.1362500    -0.073500000       342.08200       2.3569615     0.019914796
       3119.0000       290.22964       98758.770       12413.792       1.2667500       2.2625000     -0.34325000       341.80300       2.6530973     0.024258271
       3124.0000       290.26623       98758.241       12412.656       1.0255000       1.2692500    -0.065000010       342.28500       2.3636258     0.022261233
       3129.0000       290.34132       98740.066       12427.008       1.3940000      0.57475000      0.29725000       342.20000       2.5144559     0.021879075
       3134.0000       290.37532       98738.403       12428.232      0.91050000       1.2592500    -0.084750000       342.38200       2.1291388     0.023300002
       3139.0000       290.38847       98732.132       12388.239      0.33600000       1.3997500      0.12500000       342.58500       2.4343995     0.023645976
       3144.0000       290.41858       98734.190       12424.199     -0.19450000       1.0932500      0.57800000       342.55500       2.8409378     0.022390353
       3150.0000       290.44584       98759.548       12505.741      0.94025000       2.1540000     0.021500000       342.12200       3.0003378     0.020937814
       3155.0000       290.46545       98757.452       12592.626       1.4735000       1.6670000      0.21025000       342.36900       4.4349078     0.023828566
       3160.0000       290.50252       98739.321       12757.917       1.5260000       1.6492500      0.42550000       342.65200       4.0085138     0.025141664
       3165.0000       290.51373       98737.990       12830.533       1.7297500       1.3497500     -0.22800000       341.54100       2.6651829     0.019958569
       3170.0000       290.50927       98731.783       12907.825       1.5475000       1.2600000    -0.073750000       341.61000       2.2942572     0.016166595
       3175.0000       290.49025       98735.287       12879.766       1.0620000      0.99075010     -0.24450000       341.74600       2.6380687     0.016297856
       3180.0000       290.44547       98758.293       12745.754      0.96525010       1.0077500    -0.072500010       341.82600       2.3837286     0.020942261
       3185.0000       290.44437       98758.121       12702.255       1.1275000       1.0302500    -0.066250000       341.58800       2.4665579     0.015732114
       3190.0000       290.45203       98746.511       12621.227      0.94050000       1.2082500    0.0095000010       341.74000       2.2788177     0.019185366
       3195.0000       290.44188       98741.635       12589.962       1.1295000       1.0615000     -0.43175000       341.69900       2.8722656     0.018014076
       3200.0000       290.46630       98726.652       12654.714      0.80850010      0.95350000     -0.17225000       341.81800       2.4255358     0.024056576
       3205.0000       290.43929       98728.824       12607.690      0.51675000       1.1677500     -0.27100000       342.56600       2.1890493     0.023523048
       3210.0000       290.33367       98749.590       12483.452      0.15475000      0.81375000     0.074250010       342.83700       2.2128454     0.018584234
       3215.0000       290.34077       98744.286       12455.525      0.32425000      0.89875010     -0.13050000       342.83500       2.6035320     0.022343818
       3220.0000       290.42350       98730.632       12441.652      0.41225000       1.3410000     -0.28675000       342.03600       2.5835598     0.018261767
       3225.0000       290.37634       98727.596       12403.336      0.26925000       1.9995000     0.053000000       342.64500       3.2655931     0.022181431
       3230.0000       290.32817       98710.585       12416.749      0.69650000       1.8410000     -0.19425000       341.83100       3.6745926     0.022792156
       3235.0000       290.25219       98713.561       12375.748      0.79125010       1.8070000     -0.27950000       342.19400       2.6222664     0.020463390
       3241.0000       290.01844       98744.152       12243.197      0.88575010       1.0970000    -0.035250000       342.41600       2.3341666     0.018214822
       3246.0000       290.03013       98733.746       12234.627    -0.059500000       1.8790000     -0.22350000       342.15700       2.3840760     0.019764512
       3251.0000       290.03760       98734.604       12230.742      0.71700000      0.40975000      0.56625000       343.08300       2.3777178     0.019450239
       3256.0000       290.06971       98736.699       12243.592      0.47675000       1.9720000     -0.46700000       342.25600       2.1727170     0.020242190
       3261.0000       290.14200       98734.632       12272.494      0.20200000       1.8247500     -0.26175000       342.11900       2.3290106     0.023266493
       3266.0000       290.21390       98733.860       12343.445     -0.59850000      0.94425000     -0.28475000       342.45600       2.1626825     0.025425176
       3271.0000       290.31206       98742.566       12449.748     -0.89500000      0.85025010      0.32675000       343.01400       2.4792587     0.022174357
       3276.0000       290.36866       98724.217       12554.968     -0.70100000       2.4662500     -0.34375000       341.72400       2.5095930     0.022187928
       3281.0000       290.37426       98721.258       12603.654     0.037250000       3.0707500      0.57050000       342.51300       2.1220104     0.021875261
       3286.0000       290.25457       98739.835       12557.465      -1.5572500       3.0710000      0.32650000       342.22800       2.2076891     0.025064349
       3291.0000       290.19381       98742.185       12532.007     -0.27775000       2.9455000     0.097000000       342.66500       2.2007490     0.024236100
       3296.0000       290.14534       98740.841       12499.561      0.98125000       1.3545000     -0.24050000       343.36700       2.5741666     0.025878771
       3301.0000       290.08806       98741.052       12445.462       1.4217500       1.3150000      0.12600000       343.23200       2.7128067     0.023629351
       3306.0000       290.07120       98742.820       12416.092       1.2687500       2.4307500     -0.73700000       342.23900       3.1826260     0.024887253
       3311.0000       290.08896       98733.112       12393.644      0.91625010       2.4455000     -0.56575000       342.29600       2.5964777     0.023682334
       3316.0000       290.16148       98750.232       12406.565      0.65300010       2.0340000     0.036500000       342.71700       2.8396032     0.022901575
       3321.0000       290.20213       98754.063       12398.319     -0.13000000       3.1637500     -0.13700000       342.76200       2.4482519     0.021343426
       3326.0000       290.31570       98735.380       12404.058     -0.27300000       2.5905000      0.49800000       342.75900       3.1683535     0.028942937
       3332.0000       290.32685       98733.175       12379.707     -0.10450000       2.7005000     -0.43800000       341.71100       2.8061806     0.022254435
       3337.0000       290.21249       98742.628       12317.463     -0.41825000       2.3345000     -0.23600000       341.91600       3.3154338     0.026288146
       3342.0000       290.14184       98740.574       12268.702     0.084500010       2.0517500      0.11900000       342.01500       3.7191249     0.024331249
       3347.0000       289.99639       98738.659       12198.207     -0.27500000       1.9780000      0.15700000       341.86500       3.0414245     0.019643091
       3352.0000       289.92037       98741.494       12156.667    -0.053750000      0.97275010      0.61150000       342.65700       2.7389428     0.023165304
       3357.0000       289.91063       98734.711       12126.526      0.68675010      0.98525010      0.34200000       342.62500       2.4232768     0.021399163
       3362.0000       289.89184       98733.215       12112.815       1.2885000       1.8852500     -0.45450000       342.38900       2.3822836     0.016859835
       3367.0000       289.88588       98751.555       12127.894      0.42050000       1.7102500     -0.16625000       342.42300       2.5470872     0.020095146
       3372.0000       289.89698       98753.933       12139.876       1.1650000       1.6760000      0.39275000       343.01800       2.4343971     0.021594862
       3377.0000       289.87719       98735.835       12123.277      0.26700000       2.5677500    -0.067000000       342.63800       2.5020439     0.023152090
       3382.0000       289.94181       98733.238       12175.796       1.3497500       1.2087500      0.33900000       342.82700       2.5153416     0.019329144
       3387.0000       290.12325       98737.508       12283.432      0.22725000       1.3570000      0.48825000       343.05400       2.4266925     0.020848242
       3392.0000       290.22184       98734.536       12376.747      0.63425000       1.3225000      0.14525000       343.02300       3.1566158     0.023863861
       3397.0000       290.38778       98735.766       12581.103      0.76600000       1.5452500      0.43050000       342.94200       2.6912520     0.022986128
       3402.0000       290.44039       98736.567       12660.240      0.32550000       2.8590000     -0.54575000       342.70400       2.3881485     0.021953447
       3407.0000       290.33029       98726.614       12624.285      0.16175000       1.9877500     0.036250000       342.88300       2.8394301     0.021378955
       3412.0000       290.28977       98722.956       12627.300      0.24225000       1.9345000     -0.30775000       342.47400       3.3930478     0.020695661
       3417.0000       290.21894       98729.303       12583.349      0.35575000       1.2790000     -0.10675000       342.90900       2.6289322     0.021644372
       3423.0000       290.17767       98731.360       12544.263      0.45225000       1.6730000     0.021000000       343.16100       2.1455921     0.017962625
       3428.0000       290.19992       98726.440       12548.141      0.21800000       2.1612500     -0.47500000       342.87200       2.5712783     0.020048325
       3433.0000       290.19980       98730.516       12525.841       1.1195000       1.2515000     0.031750000       343.15900       2.4772416     0.020289039
       3438.0000       290.17371       98749.596       12449.262    -0.046000000       3.0777500     -0.64075010       342.57400       2.6985290     0.020587467
       3443.0000       290.20171       98747.358       12432.290      0.27175000       3.4465000     -0.33500000       341.65300       2.5078937     0.020568686
       3448.0000       290.26347       98728.296       12439.648     -0.57300000       2.6437500     -0.21150000       343.09100       2.6483768     0.018651976
       3453.0000       290.31770       98729.534       12459.292     -0.66650000       2.7482500      0.31125000       342.64300       2.3182467     0.018486224
       3458.0000       290.40311       98731.506       12508.721     -0.19775000       2.0585000      0.73625000       342.69500       3.4189376     0.019184211
       3463.0000       290.48336       98728.242       12566.952    -0.071250010       3.3300000      0.36775000       342.49900       2.6780403     0.022124551
       3468.0000       290.58419       98738.131       12682.691      0.22550000       2.5577500     -0.23350000       342.82800       2.8365983     0.021477458
       3473.0000       290.62628       98743.881       12712.266      0.67000000       1.8455000      0.54350000       342.83500       3.1728179     0.025003797
       3478.0000       290.65329       98736.033       12707.482       1.8997500       2.6385000      0.28975000       343.01600       3.0762414     0.027963396
       3483.0000       290.66544       98732.823       12707.323       1.1390000       2.1420000     0.098750000       342.40500       2.4943309     0.026248891
       3488.0000       290.57996       98741.017       12606.265      0.40200000       1.2662500      0.15550000       342.69800       2.4610834     0.022128178
       3493.0000       290.59151       98741.904       12611.860      0.44800000       2.8420000     -0.20600000       341.77500       3.0295622     0.018759092
       3498.0000       290.69034       98728.581       12718.120      0.47900000       2.1212500     -0.33500000       341.77900       2.2791589     0.019640155
       3503.0000       290.71685       98728.013       12760.145      0.80800000       1.9030000     -0.63975000       341.72500       2.5217653     0.019097190
       3509.0000       290.75674       98742.004       12838.368      0.94550000       2.3200000     -0.31775000       342.31700       2.7556324     0.021240356
       3514.0000       290.76395       98741.056       12852.367      0.70125000       2.2382500     -0.47275000       342.41300       2.5625744     0.018564516
       3519.0000       290.71272       98734.096       12817.774      0.57400000       2.4467500     -0.88050000       342.50300       2.8167018     0.024136230
       3524.0000       290.68326       98735.652       12772.981     -0.24000000       1.8232500      0.13000000       342.51100       2.4255784     0.019294241
       3529.0000       290.68247       98738.659       12695.336     -0.18775000       2.5272500      0.22950000       342.71100       2.6153316     0.016250852
       3534.0000       290.62950       98732.346       12634.044      0.27375000       1.1412500      0.32975000       343.19800       2.4327072     0.019065833
       3539.0000       290.52806       98723.359       12557.014       1.4350000       1.6122500     -0.34875000       342.39200       2.4698034     0.020836563
       3544.0000       290.45752       98725.634       12481.433       1.3790000       1.5480000    -0.043500000       341.91400       2.5487634     0.020779323
       3549.0000       290.35846       98727.490       12404.649       1.0920000       1.8765000      0.17150000       342.42500       2.1443304     0.018015480
       3554.0000       290.31056       98722.507       12348.851       1.0627500       3.7330000     -0.24050000       342.27000       2.5146303     0.020854932
       3559.0000       290.26732       98723.163       12254.308      0.37900000       2.9205000     -0.35950000       341.68800       2.9416677     0.020348998
       3564.0000       290.30204       98728.038       12259.084      0.78750000       2.7742500     -0.50825000       341.70700       3.3555333     0.020276395
       3569.0000       290.41254       98724.784       12342.171      0.20900000       1.7187500     -0.18650000       342.19100       2.5254402     0.020007163
       3574.0000       290.48961       98723.126       12401.263   -0.0080000000       2.7067500    -0.053750000       341.80500       3.5827575     0.016263543
       3579.0000       290.64943       98736.073       12515.152     -0.13625000       1.5605000      0.47925000       342.30600       3.4611794     0.019259500
       3584.0000       290.69436       98738.599       12592.652      0.56650000       2.6980000     -0.29975000       342.31600       2.9756735     0.024818751
       3589.0000       290.66759       98722.296       12647.957     -0.36625000       2.9402500     -0.44675000       342.49600       2.6967768     0.017479737
       3594.0000       290.64508       98723.342       12705.224       1.8290000       2.6557500     -0.72200010       342.67600       2.4546933     0.018590530
       3600.0000       290.55044       98739.941       12781.096      0.98950000       2.2467500      0.13850000       342.63600       2.6945979     0.020147985
       3605.0000       290.51947       98745.020       12816.808       1.8405000       1.8035000     0.021500000       342.67600       3.2482193     0.018249649
       3610.0000       290.50647       98750.977       12852.454       1.2945000       1.8922500    -0.097500000       341.72400       2.7750976     0.015604830
       3615.0000       290.47684       98753.268       12827.654      0.31200000       1.2707500      0.47200000       342.72400       2.1114927     0.014310338
       3620.0000       290.45533       98753.099       12760.102      0.55650000       2.4162500     -0.88950000       342.05100       3.4510824     0.021727837
       3625.0000       290.43526       98747.412       12702.491      0.99800000       1.7377500      0.41575000       342.95400       2.5216274     0.020974480
       3630.0000       290.40631       98733.767       12598.408      0.91500000       1.9452500    -0.021750000       342.50400       2.5783153     0.022576369
       3635.0000       290.37603       98733.389       12531.891      0.98800000       3.2052500     -0.31025000       342.23800       2.8734369     0.019217675
       3640.0000       290.35332       98735.904       12481.176      0.68025000       1.9765000       1.5492500       343.02400       3.3329178     0.023287262
       3645.0000       290.33351       98732.876       12438.389       1.1627500       2.0550000    0.0042500000       341.81700       3.0774721     0.015700731
       3650.0000       290.29684       98734.704       12392.513       1.4250000       1.5447500    -0.083250000       342.15800       2.5597955     0.021748368
       3655.0000       290.28568       98737.667       12374.448      0.90375010       1.6297500     -0.20700000       342.71600       2.3509646     0.018878673
       3660.0000       290.30011       98737.553       12378.123      0.68225000       2.0885000     -0.43900000       342.64500       2.3975470     0.019994271
       3665.0000       290.30011       98730.717       12390.207      0.81200000       1.8682500     0.053750000       342.73100       3.6797284     0.024778378
       3670.0000       290.31775       98723.602       12437.141       1.1017500       1.5767500   -0.0057500000       342.55800       2.7622173     0.019141953
       3675.0000       290.28013       98726.428       12429.008      0.80300000       2.1505000      0.35325000       342.59300       2.6532296     0.021406901
       3680.0000       290.21579       98724.789       12403.594       1.1952500       2.1590000    -0.020000000       343.34900       3.2708011     0.022559019
       3685.0000       290.15722       98723.532       12390.918      0.40400000       2.5307500      0.46600000       343.14300       2.6970895     0.024592756
       3691.0000       290.03049       98736.019       12337.375       1.0055000       2.9062500      0.42225000       342.86100       3.3507740     0.024806322
       3696.0000       290.04508       98742.833       12370.107       1.7357500       2.5287500      0.23425000       342.56300       2.9026953     0.016313311
       3701.0000       290.04369       98740.968       12388.103       2.7182500       1.5625000      0.49550000       342.79600       2.5066408     0.023140206
       3706.0000       290.05454       98737.866       12406.170       2.7445000       2.1437500    -0.097500000       341.74900       2.9193340     0.023111460
       3711.0000       290.09303       98740.475       12422.518       2.1307500       1.3317500     0.070250000       342.28400       2.6750816     0.026400776
       3716.0000       290.14461       98744.398       12461.234       2.9225000       1.4495000     0.090000000       342.43400       3.1156026     0.023460278
       3721.0000       290.19391       98740.354       12506.934       2.3567500       1.1437500     -0.29550000       341.97200       2.8394133     0.026176874
       3726.0000       290.25625       98736.217       12519.506       2.6367500       1.0395000     0.027250000       342.25800       2.6696136     0.022867585
       3731.0000       290.34538       98740.173       12586.789       1.5455000       1.1160000     -0.46275000       341.96500       2.7736267     0.025315239
       3736.0000       290.50533       98744.176       12728.222       2.2915000       2.0647500     -0.39550000       341.92100       2.3176047     0.023550851
       3741.0000       290.56826       98740.217       12799.140       1.3317500       1.8405000     -0.27050000       342.17900       2.2796008     0.019244429
       3746.0000       290.59426       98736.286       12855.314       1.0132500       1.1327500      0.30750000       342.49500       2.4280073     0.022297523
       3751.0000       290.62708       98741.041       12955.727      0.77550010       1.3565000    -0.084750000       341.95400       2.2308454     0.023018741
       3756.0000       290.59066       98742.820       12946.471       1.0090000      0.97100010      0.19900000       342.47100       2.3286025     0.021021909
       3761.0000       290.42607       98734.798       12825.347      0.88300000      0.65100000     -0.25025000       342.71900       3.6284038     0.024606399
       3766.0000       290.49067       98732.133       12844.398      0.84600000      0.98725000     -0.16825000       342.56000       3.1723033     0.020167538
       3771.0000       290.50093       98735.092       12818.292      0.56800000       1.5385000     -0.30350000       342.47500       3.3489788     0.023322862
       3776.0000       290.51102       98738.345       12772.889       1.6090000       1.8200000     -0.24050000       342.84500       2.9759328     0.023773572
       3782.0000       290.55880       98734.816       12748.497      0.39425000       1.3795000     -0.19825000       342.68000       2.9389092     0.022559187
       3787.0000       290.57781       98732.840       12693.571      0.34475000       1.4862500      0.76475010       343.03400       2.7765534     0.020589163
       3792.0000       290.59877       98735.803       12663.951       1.4992500       1.8852500     -0.20050000       342.67300       2.3145961     0.024731219
       3797.0000       290.71014       98736.199       12701.354      0.53325000       4.3440000     -0.67925010       342.42100       2.1594889     0.024378818
       3802.0000       290.72497       98734.372       12693.143       1.4465000       2.7955000     -0.10150000       342.52500       2.2765680     0.017970126
       3807.0000       290.63245       98740.457       12644.179     -0.32050000       1.9915000      0.59925000       343.33800       2.2967680     0.020836204
       3812.0000       290.59243       98742.162       12620.171     -0.41650000       1.8945000     0.086750000       342.42100       2.5455445     0.021035891
       3817.0000       290.53359       98729.399       12587.033      0.71050010       1.1027500      0.60350000       343.12300       3.0171362     0.022118253
       3822.0000       290.48448       98727.801       12568.563      -1.0107500       1.9025000     -0.80775000       342.01700       2.4874575     0.018262577
       3827.0000       290.45185       98739.909       12559.669     -0.15500000       1.2852500     0.084750000       342.93200       2.5411085     0.018194872
       3832.0000       290.44332       98741.628       12573.439     -0.31125000       2.2740000     -0.73125000       342.22900       2.5444687     0.020825142
       3837.0000       290.42823       98738.688       12609.401     -0.27625000       1.8962500      0.11125000       342.98300       2.4824585     0.024179273
       3842.0000       290.44117       98740.665       12640.703     -0.34975000       2.0152500     -0.15050000       342.74800       2.5082007     0.022092790
       3847.0000       290.52405       98743.384       12704.730     -0.22300000      0.94700000      0.17575000       343.43600       2.5498913     0.023378072
       3852.0000       290.56309       98740.256       12742.931     -0.32300000       2.2047500      0.12625000       342.80500       2.4507925     0.023754074
       3857.0000       290.56268       98733.705       12737.105     -0.64350000       1.6902500     -0.21000000       342.43900       3.1608440     0.021987239
       3862.0000       290.60415       98734.787       12773.369      -1.2252500      0.96650000     -0.31750000       342.47000       2.2456061     0.019130065
       3867.0000       290.69703       98740.621       12859.979     -0.61350010       2.4825000     -0.31700000       341.76400       2.1455725     0.020187988
       3873.0000       290.71460       98734.116       12890.848     -0.38650000       2.5330000     -0.15350000       341.75900       2.1908745     0.020294881
       3878.0000       290.71451       98721.944       12926.779     -0.22825000       1.1595000      0.41475000       342.55000       2.0900465     0.025460506
       3883.0000       290.70753       98725.012       12918.126      -1.2385000       1.1475000     -0.40025000       341.83800       2.2257405     0.023042736
       3888.0000       290.60966       98733.084       12822.845     -0.78000000       1.5005000     -0.15950000       341.87900       2.1458751     0.018500035
       3893.0000       290.57710       98728.677       12771.206     -0.38050000       2.0792500    0.0017500000       342.15400       2.0014704     0.021282011
       3898.0000       290.60031       98727.891       12713.282     -0.30275000       2.7647500     -0.39175000       342.34800       2.1085682     0.019798731
       3903.0000       290.60047       98732.641       12682.017     -0.10350000       2.0247500     -0.27675000       342.97700       2.9368611     0.020896872
       3908.0000       290.61340       98726.346       12695.020      -1.0010000       1.8305000      0.45750000       342.71100       2.8085304     0.022462600
       3913.0000       290.60009       98722.422       12661.183     -0.53550000       1.8140000     -0.20275000       342.23900       2.8768441     0.019569583
       3918.0000       290.56225       98735.170       12612.718      0.27000000       1.5977500     0.065500010       342.65700       2.3790433     0.022126476
       3923.0000       290.54246       98738.650       12573.536      0.31150000       1.7507500    -0.046500000       342.59600       2.8357180     0.025893181
       3928.0000       290.47872       98725.759       12462.947     -0.47125000       1.7190000      0.15625000       343.13200       3.1295515     0.022085051
       3933.0000       290.49080       98723.062       12453.901      0.48975000       2.1082500     -0.30425000       341.93900       3.8884251     0.025692559
       3938.0000       290.56347       98730.942       12514.668      0.51150000       1.9397500     -0.45100000       341.95500       2.8843669     0.025800769
       3943.0000       290.61752       98731.159       12568.182      0.85300000       1.7575000     0.010000000       341.97800       2.6157469     0.020403800
       3948.0000       290.72897       98721.211       12686.956      0.86875000       1.7087500     -0.27175000       342.17300       2.8317432     0.021579162
       3953.0000       290.78170       98724.654       12766.024       1.2155000       2.0310000     0.035250000       342.37100       2.6420991     0.020241880
       3958.0000       290.78275       98743.997       12810.445      0.39975000       3.4732500     -0.33800000       342.04800       3.3638426     0.021909828
       3964.0000       290.81878       98741.076       12907.969      0.84325000       2.6320000     -0.29425000       341.99200       3.1653190     0.022117377
       3969.0000       290.86469       98728.276       13040.544       1.1490000       3.3022500      0.22575000       342.69600       2.8396327     0.020908439
       3974.0000       290.85256       98731.550       13076.624      0.43800000       2.6422500     -0.80675010       342.05600       3.2973708     0.020159500
       3979.0000       290.82906       98730.226       13096.049       2.4312500       1.9015000    -0.063750010       342.16300       2.1305975     0.020377422
       3984.0000       290.78616       98727.596       13080.614       2.0067500      0.94650010       1.0732500       342.90800       2.7661752     0.022802849
       3989.0000       290.66057       98741.678       12966.830       1.6210000       3.0070000     -0.21650000       342.83000       2.5048675     0.021964225
       3994.0000       290.61273       98743.659       12910.008      0.41925000       2.0990000      0.55825000       342.97500       3.1878182     0.021638870
       3999.0000       290.58938       98724.716       12866.154       1.2600000       2.2750000     0.028750000       342.37800       2.9977922     0.020990603
       4004.0000       290.59153       98721.132       12830.972      0.72625010       2.0467500    -0.081000000       343.09300       2.0921434     0.023089443
       4009.0000       290.64196       98731.466       12806.141       1.7150000       2.9865000     -0.12750000       343.07500       2.2844425     0.021670924
       4014.0000       290.66175       98731.254       12770.810       2.4665000       2.1625000     -0.41725000       342.70500       2.5380647     0.014369888
       4019.0000       290.71173       98721.771       12754.369      0.51125000       1.6900000      0.25225000       343.44100       2.5163954     0.010809128
       4024.0000       290.70909       98726.422       12709.604       1.4795000       1.9140000      0.47825000       342.61100       3.5956695     0.014545659
       4029.0000       290.65861       98743.774       12625.307      0.42675000       2.4570000     -0.29825000       342.38100       2.8440273     0.020148260
       4034.0000       290.63893       98740.565       12587.178       1.5335000       3.8932500     -0.67700000       341.76100       2.2967376     0.014646789
       4039.0000       290.58930       98728.694       12541.847      0.71825000       3.4727500     -0.62800000       342.62500       2.1905072     0.023792801
       4044.0000       290.59165       98730.203       12544.493      0.33550000       3.3370000     -0.63700000       342.76500       2.4902859     0.018143736
       4049.0000       290.64230       98724.056       12597.788     0.068000000       3.0735000      0.11025000       342.31200       3.2607523     0.017176835
       4055.0000       290.66619       98722.982       12644.501       1.1810000       2.4897500     -0.89375010       342.93200       3.3244663     0.012616184
       4060.0000       290.72117       98742.568       12714.913       2.0462500       1.5867500     -0.14775000       343.27200       3.0807100     0.018053943
       4065.0000       290.69554       98744.224       12749.761      0.68925010       1.5517500      0.17200000       342.77700       2.8757714     0.015189504
       4070.0000       290.58212       98727.910       12747.190      0.88750000      0.59975000      0.45275000       343.18800       2.6167101     0.018594458
       4075.0000       290.59873       98729.487       12815.268       1.1427500       1.3365000      0.66525000       343.87500       2.6168601     0.017619825
       4080.0000       290.63255       98743.862       12908.804       1.8900000       3.2767500      0.16750000       342.26300       2.4098743     0.013213908
       4085.0000       290.66994       98738.491       12981.944       2.2205000       1.7882500      0.12900000       342.97400       2.7322672     0.015529395
       4090.0000       290.81826       98723.013       13129.454      0.52275000       2.1272500      0.61625000       343.78800       3.1276720     0.013637326
       4095.0000       290.83371       98724.575       13140.091       1.7352500       2.4562500     -0.52250000       342.99500       2.3935387    0.0094551431
       4100.0000       290.75411       98723.705       13052.044       2.2197500       3.6650000      -1.3037500       342.57500       2.6437950     0.011239094
       4105.0000       290.73431       98724.370       13021.742       1.6642500       2.1952500     -0.30750000       343.22200       2.6346204     0.014966969
       4110.0000       290.71555       98743.849       12959.690       1.1420000       1.1410000       1.2465000       343.34600       2.2998057     0.013575657
       4115.0000       290.66630       98743.460       12899.576       1.9622500       2.0307500      0.31875000       342.76100       3.0055732     0.011927712
       4120.0000       290.60739       98722.186       12860.568       2.7235000       2.6617500     -0.59125000       342.59900       2.2858711    0.0093643000
       4125.0000       290.56712       98723.457       12803.338       2.6312500       2.9140000     -0.25175000       342.39500       2.3675360     0.017058019
       4130.0000       290.50152       98736.624       12709.830       3.5160000       4.1267500     -0.22975000       342.19000       2.7693931     0.019674468
       4135.0000       290.46001       98735.874       12639.785       2.4852500       3.9660000   -0.0020000000       342.30400       3.1448321     0.014361078
       4141.0000       290.44387       98735.320       12567.349       1.3835000       2.6020000      0.54475000       342.84100       2.9466989     0.014405913
       4146.0000       290.46038       98736.983       12547.813       2.6735000       1.7285000      0.34375000       342.86700       2.6331235     0.017602651
       4151.0000       290.45068       98734.973       12528.255       1.5937500       1.9920000      0.63950000       343.53500       2.8719633     0.018623531
       4156.0000       290.44104       98734.213       12526.248       4.6080000       4.4440000     -0.21950000       342.03800       2.8631350    0.0098442555
       4161.0000       290.45700       98742.954       12567.352       3.3060000       3.2075000     -0.21925000       341.77000       2.5216889     0.012182585
       4166.0000       290.44551       98739.340       12584.249       2.3477500       3.5770000     0.092750010       342.10900       2.5036641     0.015671378
       4171.0000       290.38829       98721.594       12581.959       2.5075000       3.5215000      0.17650000       342.52200       2.6092006     0.016239171
       4176.0000       290.43036       98739.901       12640.347       2.7347500       1.7710000     -0.35850000       343.05400       2.4823250     0.019389448
       4181.0000       290.45052       98742.422       12681.440       2.2490000       1.2472500     0.077500000       342.97300       2.7306546     0.012261914
       4186.0000       290.48516       98740.856       12734.943       1.7852500       1.6900000      0.41825000       343.03800       2.9517493     0.012347300
       4191.0000       290.50608       98742.223       12768.679       1.4402500      0.93650010      0.65025000       343.63200       2.6700364     0.020411125
       4196.0000       290.51466       98739.880       12787.787       3.0617500       2.1670000     -0.81675000       342.59300       2.3066138     0.018925235
       4201.0000       290.51315       98721.561       12801.830       3.5825000       2.6125000      0.34950000       341.97100       2.3794615     0.020961549
       4206.0000       290.46998       98724.525       12756.308       3.6780000       2.4992500     -0.34450000       342.28000       2.4841327     0.016591863
       4211.0000       290.39420       98740.858       12663.621       2.0490000       3.0317500     -0.43300000       342.02700       2.3280606     0.017610221
       4216.0000       290.33042       98747.275       12609.174       1.4612500       1.2377500      0.16525000       343.17300       3.0966589     0.020407540
       4221.0000       290.32489       98751.563       12588.135       2.3592500       2.2617500      -1.0065000       342.42400       3.0382804     0.019864111
       4226.0000       290.46095       98753.353       12679.380       1.6650000       1.6285000     -0.21050000       342.77700       2.8560056     0.016239565
       4232.0000       290.51994       98750.949       12712.933       2.5062500       2.5625000      0.16350000       342.31700       3.1904118     0.018045158
       4237.0000       290.51816       98744.931       12677.733       3.1622500      0.94400010     0.076250000       342.97400       2.8327212     0.016046694
       4242.0000       290.55798       98739.855       12697.622       2.1785000       2.6427500      0.42225000       342.73100       2.4810139     0.016990548
       4247.0000       290.56162       98724.695       12720.422       1.6785000       2.4150000   -0.0040000000       342.76100       2.6662403     0.015414587
       4252.0000       290.59424       98722.426       12749.106       1.9012500       1.5577500     0.087500010       342.15000       2.5173220     0.017152918
       4257.0000       290.72683       98734.242       12844.235       1.4210000       2.7490000     0.061000000       342.50400       2.4828376     0.018663098
       4262.0000       290.77311       98736.064       12891.298       2.2302500       3.1215000    -0.071250010       342.27200       2.7039897     0.016260427
       4267.0000       290.74148       98740.427       12874.648       1.9675000       1.6025000      0.47975000       342.89600       2.1834331     0.019114996
       4272.0000       290.75129       98742.133       12904.655       3.6495000       2.7600000    -0.096750010       342.66800       2.3576920     0.015397039
       4277.0000       290.75763       98729.283       12974.514       2.3545000       2.1512500     0.036000000       342.62700       2.3096757     0.016355648
       4282.0000       290.74757       98727.742       12998.504       1.3320000       2.8245000      -1.1120000       342.42800       2.5723011     0.020962329
       4287.0000       290.75721       98741.377       13039.990       1.9717500       1.9925000      0.47925000       342.84200       2.4846788     0.020432745
       4292.0000       290.75570       98741.947       13044.664       1.4700000       2.3670000     -0.11600000       342.24500       2.5113823     0.018103124
       4297.0000       290.71080       98736.709       12986.850      0.78825000       4.2185000     -0.30100000       342.50000       2.3582052     0.018326077
       4302.0000       290.69231       98735.633       12940.652      0.55225000       2.8307500     -0.16325000       342.29800       2.3423244     0.016677156
       4307.0000       290.69988       98723.927       12889.031      0.53400000       1.4145000      0.77325000       343.30800       2.7682012     0.014699095
       4312.0000       290.69974       98722.537       12834.096      0.71675000       2.2462500      0.24875000       342.58600       2.7865248     0.018885483
       4317.0000       290.71425       98743.105       12762.880       1.6300000       1.8705000     -0.15275000       342.15600       2.6405684     0.016095347
       4323.0000       290.69924       98742.316       12691.967       1.7177500       1.3152500     -0.31725000       342.47900       2.7050084     0.017506623
       4328.0000       290.67492       98726.370       12623.914       1.8920000       2.6307500     -0.27950000       342.49400       2.5550057     0.020529974
       4333.0000       290.64135       98723.712       12584.137       1.2767500      0.81225000     -0.33450000       342.43300       3.0558488     0.020443414
       4338.0000       290.55455       98711.165       12549.582      0.73750000       1.0667500    -0.058500000       343.49900       2.3202274     0.016554099
       4343.0000       290.53215       98711.806       12547.604       1.8947500      0.86750010      0.56650000       343.01400       3.2275584     0.019045110
       4348.0000       290.55589       98742.731       12606.164       1.7150000       1.6905000     -0.10400000       343.06400       2.4142499     0.014229606
       4353.0000       290.54559       98744.840       12612.421       1.9590000       1.3167500      0.25475000       343.53900       2.1156370     0.010113077
       4358.0000       290.54335       98723.521       12590.984      0.37175000       1.7027500   -0.0045000000       343.28300       2.2921781     0.015769404
       4363.0000       290.55324       98723.561       12612.198       1.4207500       2.2400000      0.19950000       342.78300       2.2530873     0.017584793
       4368.0000       290.54326       98724.390       12627.430      0.92575000       1.9425000      0.15150000       342.57000       2.1634902     0.013811108
       4373.0000       290.54697       98723.496       12653.334      0.59675000       1.3980000      0.34550000       342.74500       2.7876152     0.013811571
       4378.0000       290.58195       98744.379       12729.354      0.32725000       1.7582500      0.33425000       342.58100       3.6715538     0.019838845
       4383.0000       290.61202       98744.198       12784.653     0.084500010       2.2160000     -0.21275000       341.90500       3.4368095     0.017349637
       4388.0000       290.63792       98713.631       12831.976      0.55275010       2.3452500     -0.27725000       342.82200       3.3092736     0.014359825
       4393.0000       290.65795       98711.346       12860.973      0.97925010      0.48300000      0.13975000       343.17400       2.9249967     0.018890781
       4398.0000       290.72161       98723.693       12912.169      0.66850000       1.7925000      0.26575000       343.12900       2.6822802     0.017911500
       4403.0000       290.71087       98726.096       12908.479      0.28275000       2.4387500      0.33500000       343.06600       2.7441152     0.015322165
       4408.0000       290.62348       98741.512       12832.553       1.3060000       1.5515000     -0.25100000       342.95600       3.0007252     0.019587315
       4414.0000       290.57584       98743.786       12790.729       2.0087500       1.8462500     -0.34775000       342.57600       3.2063375     0.016593106
       4419.0000       290.50180       98722.816       12740.375       1.4115000      0.71000000      0.23200000       342.75000       2.5783509     0.016754089
       4424.0000       290.47440       98722.846       12710.194       1.0220000       1.0665000      0.67400000       343.46800       2.3605302     0.014288692
       4429.0000       290.51203       98734.897       12721.202      0.43425000       1.4185000      0.20250000       343.31800       2.6511986     0.016623770
       4434.0000       290.49572       98736.233       12686.531      0.77225010       1.1242500      0.36300000       343.20900       3.3890842     0.014619568
       4439.0000       290.45809       98742.548       12619.489       1.3702500      0.93825010      0.53925000       343.37000       3.8017126     0.017968698
