MIRICO/SHELL project - Processed LDS file generated on
Mon Jul 10 06:25:38 2017
Time stamp for record start
05/11/2017  09:41:54.0000
Nb of points in the record
         879
Beam position index
       4.0000000
Beam angle (degrees)
    -0.023000000
Open Path length (m)
       98.010000
****************** Temporal data record ************************
Elapsedtime_sec Temp_K Press_Pa Humidity_ppmv WindX_m/s WindY_m/s WindZ_m/s Speedofsound_m/s CH4vmr_ppmv CH4vmrerror_ppmv  
      0.00000000       288.64338       98745.235       11492.839      -1.2267500       1.3147500     -0.25850000       341.42700       2.0796445     0.010318898
       6.0000077       288.70012       98742.367       11496.301     -0.24125000       1.8127500      0.29225000       341.84200       2.0883949    0.0092761982
       11.000021       288.71269       98745.389       11474.665      0.20425000       1.9177500    -0.031000000       341.64600       2.0894314     0.011330979
       15.999994       288.70068       98748.411       11432.494      0.73950000       3.4667500     -0.33700000       341.05900       2.0992446    0.0090009200
       21.000007       288.64438       98741.822       11349.769    0.0012500000       3.5542500    -0.098500010       341.15600       2.0554160    0.0094423617
       26.000020       288.64565       98749.593       11315.193      0.44575000       3.1915000     -0.35800000       341.46600       2.0798628     0.010700825
       30.999993       288.64456       98773.185       11277.385    -0.016250000       3.2175000     0.089250010       341.12200       2.0914664    0.0098593001
       36.000006       288.68502       98775.654       11292.214     -0.15225000       1.8707500      0.17500000       341.44800       2.0600862     0.010535138
       41.000019       288.70663       98773.392       11303.051    -0.054750000       3.4865000     0.019000000       341.21300       2.0808132     0.010073620
       45.999992       288.67023       98746.701       11304.721     0.037750000       1.8730000      0.36950000       341.58000       2.0813827    0.0094537051
       51.000005       288.68786       98740.879       11336.470      0.57525000       2.6195000     0.070500000       341.30400       2.0906022     0.012887972
       56.000018       288.73012       98743.667       11385.451     -0.20125000       2.4462500     -0.64275000       340.92800       2.0867144     0.012799662
       60.999991       288.80526       98755.015       11448.199      0.61725000       2.0307500     0.052000000       341.61600       2.1015944    0.0098467916
       66.000004       288.82426       98756.121       11512.602     -0.25950000       2.6887500     -0.48850000       341.20600       2.0797873     0.010754223
       71.000017       288.87385       98769.466       11616.627    -0.077500000       1.8637500      0.19600000       341.32000       2.0904895    0.0096215475
       75.999990       288.76797       98741.126       11627.085      0.16925000       2.0772500     -0.25475000       341.59200       2.0868271    0.0093076854
       81.000003       288.69721       98734.923       11630.324      0.96475010       2.5615000      0.50450000       340.89400       2.1008153    0.0091823522
       86.000016       288.61369       98751.344       11590.603      0.20250000       2.6700000     -0.69325010       341.02400       2.0578075     0.012721218
       91.999984       288.53046       98756.064       11544.643     -0.69375000       2.2722500     0.075000000       341.23000       2.0719404     0.010879483
       96.999997       288.47640       98772.852       11509.447      0.79725000       2.1277500      0.34800000       341.26700       2.0902322     0.010450152
       102.00001       288.43820       98774.871       11460.942    -0.096250010       2.2060000     -0.48325000       340.87000       2.0678391     0.010606121
       107.00002       288.42472       98744.941       11398.095      -1.2692500       2.8630000     0.015750000       341.20400       2.0576547    0.0095809910
       112.00000       288.39476       98740.890       11332.857     -0.38875000       1.6367500      0.52975000       341.80100       2.0909853     0.012442877
       117.00001       288.36657       98750.390       11235.061     0.084750000       2.4567500      0.32800000       341.11800       2.0884088     0.011571820
       122.00002       288.34677       98754.789       11178.675     -0.61200000       1.3205000      0.54425000       341.97100       2.0920351     0.013057727
       127.00000       288.30939       98782.465       11127.177     -0.76750000       1.0705000      0.53375000       341.68100       2.0755710     0.012100830
       132.00001       288.29023       98786.500       11105.191     -0.67325000       1.0755000      0.73275010       341.70000       2.0713150     0.012145332
       137.00002       288.28565       98760.494       11128.871     -0.78750000       1.2737500      0.43950000       341.22500       2.0729522     0.014288926
       141.99999       288.29679       98752.888       11150.418     -0.25950000       2.3782500     -0.28250000       341.01800       2.0791355     0.013509697
       147.00001       288.31874       98737.316       11188.858    -0.058250000       1.2640000      0.56975000       341.56600       2.0897722     0.013008275
       152.00002       288.35010       98735.387       11229.563       1.3075000       1.1127500      0.35500000       341.06100       2.0611068     0.011014492
       156.99999       288.40948       98761.340       11267.525      0.49375000       1.4737500      0.26850000       341.93500       2.0835245     0.019754650
       162.00001       288.45959       98768.878       11328.428      0.91025010       1.3372500      0.21875000       341.51700       2.0926457     0.014898430
       167.00002       288.49733       98774.710       11378.696     -0.17550000       1.3270000     -0.46300000       341.28000       2.0702421     0.013487493
       171.99999       288.55897       98773.030       11485.336      0.50700000       1.4265000     0.039750000       341.15600       2.0645845     0.010992484
       177.00001       288.68717       98747.578       11732.252      0.12900000       1.7400000    -0.094250000       342.39200       2.0944738     0.012836181
       183.00001       288.72515       98740.728       11838.716       1.0412500       2.4955000      0.43275000       341.94500       2.0575455     0.011614270
       187.99999       288.71402       98740.687       11894.955      -1.0987500      0.89225010     -0.25550000       342.01500       2.0604742    0.0087679362
       193.00000       288.70680       98744.524       11903.548     -0.51450000       1.7080000      0.54000000       341.47600       2.0731867     0.022161499
       198.00001       288.59683       98770.345       11744.251    -0.025250000       2.8032500      0.35700000       341.74800       2.0673269    0.0093527440
       202.99999       288.57849       98775.078       11682.113     -0.20100000       2.1067500     -0.23125000       341.85100       2.0782192     0.012402585
       208.00000       288.63782       98770.395       11670.266    -0.016000000       2.4307500     -0.13450000       342.23200       2.0576653     0.010597225
       213.00001       288.65780       98764.900       11627.759     -0.14975000       2.4882500      0.79600010       341.33700       2.0578135     0.014677916
       217.99998       288.69509       98740.069       11584.905       1.3895000       2.4030000     -0.29475000       341.31000       2.0769727     0.014530559
       223.00000       288.71179       98735.161       11538.637      0.83250000       1.7200000    -0.096250010       341.45900       2.0439042     0.014102952
       228.00001       288.69991       98739.986       11472.752       1.3022500       1.5727500      0.20850000       341.80000       2.0622630     0.011112421
       233.00002       288.69980       98745.372       11423.244      0.17850000       2.6527500     -0.11400000       341.66600       2.0722191     0.012130448
       238.00000       288.72709       98768.943       11406.486      0.55275010       2.3972500     -0.31825000       341.34000       2.0597990     0.016025050
       243.00001       288.69923       98774.962       11343.037      0.66275000       2.2977500      0.11250000       341.47200       2.0825042     0.014064418
       248.00002       288.62400       98775.573       11236.632       1.0947500       1.7402500     0.089250010       341.59100       2.0784164     0.020896950
       253.00000       288.58400       98770.751       11177.991      0.10150000       2.7435000     -0.34225000       341.39600       2.0801340     0.011849775
       258.00001       288.49669       98749.592       11079.982     -0.46325000       2.6145000      0.50975000       341.88400       2.0638465     0.012930278
       263.00002       288.47765       98740.257       11064.879     -0.19350000       1.9215000      0.28200000       341.82900       2.0538500     0.014673564
       267.99999       288.56357       98727.863       11165.755     -0.64425000      0.96875010      0.57225000       341.73900       2.0960637     0.022499640
       274.00000       288.55115       98727.956       11188.105     -0.72550000       2.8562500     -0.10050000       340.82100       2.0859254     0.025497136
       279.00002       288.50362       98740.513       11201.569      0.20025000       2.7127500     -0.24050000       340.58600       2.0726935     0.014612919
       283.99999       288.49338       98749.610       11222.020    -0.011500000       1.0285000      0.58725010       341.81100       2.0805006     0.012611331
       289.00000       288.43112       98770.584       11187.570     -0.33450000       2.0427500     -0.43625000       341.09500       2.0890053     0.010915805
       294.00001       288.44030       98775.400       11220.119     -0.30450000       1.3460000      0.66950010       341.20200       2.0670578    0.0088283462
       298.99999       288.54065       98774.822       11325.084      0.59225000       1.2677500     -0.27200000       341.16200       2.0927065     0.018984207
       304.00000       288.57464       98768.657       11373.385      0.28800000       1.8215000     -0.13575000       340.90500       2.0894391     0.012657929
       309.00001       288.58831       98748.616       11419.340      0.32350000       2.0740000     -0.36025000       340.58700       2.0998234     0.013341536
       313.99999       288.61841       98738.160       11450.861     -0.12300000       1.6312500      0.33475000       341.45500       2.0805303     0.014919446
       319.00000       288.63047       98722.864       11447.017      0.27000000       1.4927500     -0.24675000       341.08400       2.0813746     0.020171143
       324.00001       288.66615       98721.590       11466.000     -0.15050000       1.2730000     -0.10775000       341.02900       2.0833001     0.011686000
       328.99999       288.75264       98729.054       11508.944      0.91025010       1.0920000     -0.48900000       340.72400       2.0728814     0.010757651
       334.00000       288.76996       98738.617       11509.023      0.22175000      0.28100000      0.43300000       341.84900       2.1000291     0.012798076
       339.00001       288.73561       98762.638       11477.629      0.34175000       1.2647500     -0.22250000       340.71000       2.0895081     0.013865341
       343.99998       288.76254       98772.849       11481.210      0.50825000       1.2437500     -0.20350000       340.87400       2.1166066     0.027493916
       349.00000       288.77528       98782.483       11462.370       1.3882500      0.59550010      0.24175000       341.78900       2.0974144     0.010719112
       354.00001       288.81779       98783.440       11483.218      0.70500000      0.58325000     -0.27825000       341.06600       2.1046192     0.016853698
       358.99998       288.94082       98772.814       11567.429       1.3847500      0.81025000      0.36600000       340.80700       2.0955729     0.021356357
       364.99999       288.99410       98765.886       11600.478      0.82850000       1.2857500     0.068000000       340.91200       2.1005522     0.016013785
       370.00000       288.99391       98756.889       11609.521      0.76475010      0.81700000    -0.062750000       341.35600       2.0698119     0.016467273
       375.00002       289.02358       98748.901       11631.188      0.53250000      0.94475010    -0.080750000       341.65100       2.0930155     0.020114522
       379.99999       289.05446       98740.895       11656.410      0.19375000      0.20575000     -0.17475000       340.95500       2.0672790     0.018647258
       385.00000       289.05567       98735.676       11634.572    -0.098500010      0.57200000      0.15975000       340.73600       2.0574503     0.015571087
       390.00002       289.06540       98728.054       11607.757    0.0037500000      0.67175000     0.088500000       341.17400       2.0851778     0.023903720
       394.99999       289.03797       98729.575       11557.449      0.90350000       1.8875000    -0.041750000       341.02000       2.0971060     0.026435881
       400.00000       288.94145       98738.809       11430.837      0.36375000       1.3390000      0.23325000       341.71900       2.0719346     0.022133799
       405.00002       288.92872       98744.680       11397.122      0.26800000       1.6505000     0.012000000       341.14700       2.1043183     0.019287790
       409.99999       288.95182       98753.699       11402.536     0.019250000       1.6672500   -0.0017500000       341.49300       2.0935520     0.020102215
       415.00000       288.94194       98761.639       11400.274      0.44350000       1.2667500     0.075750000       342.17300       2.0892470     0.012521149
       420.00002       288.97649       98769.446       11444.574     -0.19250000       1.4155000     0.011500000       341.22600       2.0667473     0.022209904
       424.99999       288.92913       98774.551       11432.501    -0.054000000       1.4797500     -0.31750000       341.36400       2.0838514     0.019844168
       430.00000       288.80533       98780.900       11392.215     -0.63000010       1.5775000      0.40200000       341.30800       2.0954161     0.023528888
       435.00001       288.75399       98783.204       11369.981     -0.72575000       1.3362500    -0.030250000       341.36700       2.0796241     0.021397941
       439.99999       288.69339       98780.280       11332.500     -0.28150000       1.4252500     -0.10600000       341.44000       2.0679175     0.020387485
       445.00000       288.67090       98780.313       11311.701      0.67300000      0.89750000      0.12150000       342.49300       2.0727521     0.024403873
       450.00001       288.70026       98780.393       11303.608      0.59825000       1.0975000     0.057250000       341.58700       2.0587596    0.0089295684
       456.00002       288.68485       98783.236       11274.514     -0.55350000       2.9270000     -0.15800000       341.33800       2.0571675    0.0083921329
       460.99999       288.69330       98781.520       11283.106      0.55025010       1.6462500     0.095500010       341.62100       2.0779786    0.0098607194
       466.00001       288.71398       98777.331       11314.464      0.85725000       1.1045000    -0.048250000       341.74100       2.0658105     0.010916262
       471.00002       288.74233       98771.084       11371.052       1.5605000       1.3260000   -0.0077500000       341.25100       2.0903705     0.019820521
       475.99999       288.78410       98764.873       11427.005       1.0542500       2.0450000     -0.20900000       341.20400       2.0624446     0.014625396
       481.00001       288.85021       98753.991       11506.869      0.96800010       1.5170000     -0.16175000       341.28400       2.0830293     0.013154664
       486.00002       288.90052       98754.658       11578.339      0.81525000       1.5115000      0.75550000       342.06700       2.0701561     0.012904701
       490.99999       288.95084       98750.753       11663.704      0.56250000       3.5667500     -0.57950000       341.09000       2.0829777     0.012789652
       496.00001       289.00011       98744.329       11807.172     -0.21050000       2.5947500     -0.21450000       341.30800       2.0623387     0.020839278
       501.00002       289.04951       98740.383       11897.877      0.96800010       2.2877500      0.61975000       341.65200       2.0921793     0.024606599
       505.99999       289.09886       98736.422       11965.876    0.0075000000       4.4017500      0.33350000       341.36800       2.0797406     0.019501894
       511.00000       289.15574       98729.256       12037.689     -0.12425000       2.4462500     -0.29300000       341.60900       2.0884862     0.020465872
       516.00002       289.18457       98727.636       12025.047     -0.60600000       2.6337500      0.83600000       341.35400       2.0743244     0.019279967
       520.99999       289.20606       98730.253       11945.212      0.26400000       1.9535000     -0.16675000       341.58400       2.0795168     0.012713571
       526.00000       289.25881       98730.157       11882.172      0.94325010       3.6980000     -0.10850000       340.84800       2.0866863     0.012850510
       531.00002       289.22406       98730.098       11799.159     -0.78150000       2.9892500    -0.098750000       341.33000       2.0752014     0.015045842
       535.99999       289.09366       98730.245       11703.057       1.5532500       2.0155000      0.51350000       341.48600       2.0734780    0.0097737075
       541.00000       289.00551       98730.209       11610.574      0.88875000       2.0952500     -0.19650000       341.16700       2.0804589     0.021825634
       547.00001       288.79120       98730.277       11425.382     -0.21875000       1.5132500      0.15050000       342.05100       2.0542788     0.019958209
       552.00002       288.70795       98730.298       11350.949      0.97325000       4.3295000     -0.13925000       341.37100       2.0698037     0.011258455
       557.00000       288.77224       98730.112       11375.148     0.072250000       2.5362500      0.12100000       341.07000       2.0613226     0.013018659
       562.00001       288.75081       98730.053       11332.051      0.51725000       1.1470000     0.079750000       341.57700       2.0831801     0.020155159
       567.00002       288.72220       98730.113       11288.252     -0.14225000       1.8855000      0.52250000       341.80100       2.0796394     0.021316834
       572.00000       288.70127       98730.070       11262.208     -0.64800000       2.8270000     -0.19100000       341.48700       2.0816341     0.017886326
       577.00001       288.61935       98730.146       11176.277      0.17025000       2.6670000      0.55500000       341.57400       2.0701471     0.012727164
       582.00002       288.58126       98730.086       11142.751     -0.20775000       3.0410000     -0.40850000       341.21700       2.0643464     0.017592571
       586.99999       288.59984       98730.239       11185.989      0.87225000       2.6712500    -0.092000010       341.81300       2.0652495    0.0094847197
       592.00001       288.59969       98730.201       11203.922      0.36000000       1.7987500     -0.57950000       341.63900       2.0663306     0.013130163
       597.00002       288.58603       98722.992       11207.332      0.50225000       1.1685000      0.38900000       342.30600       2.0736167     0.015385450
       601.99999       288.59770       98728.706       11237.511      0.75900010       1.3537500     0.043250000       341.72600       2.0719536     0.018853916
       607.00001       288.64825       98754.284       11303.615      0.79650000       1.4492500     0.044000000       341.80400       2.0669857     0.012568307
       612.00002       288.65697       98758.591       11335.187      0.57675000       1.1825000    -0.025500000       342.36100       2.0618866     0.011346763
       616.99999       288.65581       98759.453       11363.542      0.11525000       1.0512500     -0.21850000       341.60300       2.0690391     0.011299938
       622.00001       288.65464       98757.702       11390.172    -0.010250000       2.9957500      0.21975000       341.37600       2.0701479     0.021359117
       627.00002       288.60957       98727.456       11386.869      0.97800000       2.5540000      0.26300000       341.27600       2.0756548     0.020383554
       631.99999       288.59118       98719.691       11391.734      0.13500000       3.4710000     0.088250000       341.39700       2.0563783     0.013568606
       638.00000       288.59982       98730.940       11420.491      0.67525010       2.5002500    -0.030250000       341.42600       2.0751564     0.013117283
       643.00001       288.59966       98736.645       11423.625       1.2867500       2.6920000     -0.24025000       341.34800       2.0586190     0.019507072
       647.99999       288.61415       98752.672       11422.897       1.4960000       1.5985000      0.14075000       341.81700       2.0678655     0.020878631
       653.00000       288.60058       98759.596       11394.656     0.074000000       1.9327500     -0.10475000       340.93600       2.0768340     0.014917971
       658.00001       288.53637       98757.133       11309.166      0.38825000       2.3167500      0.19050000       341.26100       2.0626099     0.015004456
       662.99998       288.54392       98761.531       11291.203      0.82225010       1.5577500    -0.069750000       341.17000       2.0742896     0.022909324
       668.00000       288.59460       98767.908       11297.809      0.36575000      0.95025000      0.32900000       341.91100       2.0794405     0.020414598
       673.00001       288.60468       98771.895       11289.083     -0.27750000       1.3757500      0.15975000       341.56700       2.1827152     0.014043137
       678.00002       288.62632       98779.324       11301.216      0.11425000       2.6695000     -0.16075000       341.02000       2.4659541     0.021315311
       683.00000       288.66602       98782.525       11332.028     -0.40300000       2.1630000     -0.46525000       341.36800       2.5515133     0.024829075
       688.00001       288.62562       98782.930       11320.114     -0.39250000       1.7435000     -0.22825000       341.37500       2.7341587     0.029719201
       693.00002       288.70547       98780.118       11384.012      0.38425000       2.0140000     0.070000000       341.80400       2.8285193     0.024600166
       698.00000       288.97997       98773.984       11562.800      0.60050000       1.7022500    -0.035000000       341.94300       3.0263341     0.023265741
       703.00001       289.05119       98768.610       11655.719       1.2127500       2.2827500     -0.90300010       341.88200       3.0438257     0.026123637
       708.00002       289.06464       98759.979       11749.581       2.1040000       1.8577500     -0.50425000       341.43000       2.5512915     0.014577352
       713.00000       289.06973       98752.004       11809.299      0.69650000       1.5472500     -0.30775000       341.98800       2.7763582     0.011786334
       718.00001       288.92718       98743.265       11822.191       2.6927500      0.69700000     -0.73375000       341.96000       2.9715050     0.020101034
       723.00002       288.86550       98737.740       11814.393       1.8490000       2.4470000     -0.11375000       341.16500       2.7824285     0.022707463
       728.99999       288.83551       98730.508       11760.425       2.3282500       1.9980000     -0.39850000       341.36600       2.7178331     0.020959017
       734.00000       288.84764       98727.754       11742.651       2.4980000       2.5135000     0.053500000       341.28000       2.6763458     0.012754109
       739.00001       288.90664       98728.145       11714.518       1.8372500       2.0567500     -0.34950000       341.18700       3.4015797     0.024505819
       743.99999       288.90048       98731.507       11676.908       2.0162500       3.2440000     -0.14675000       341.55000       3.6841837     0.029693476
       749.00000       288.88074       98737.576       11639.179       1.5520000       2.5727500     -0.11650000       341.39100       3.7686785     0.024266798
       754.00001       288.91752       98743.237       11635.588       1.6920000       1.8952500     0.061250000       341.88800       3.5897772     0.014785176
       758.99999       288.94085       98752.000       11627.388      0.92050000       1.5885000      0.20875000       342.24800       3.1163664     0.022586853
       764.00000       288.95724       98759.946       11626.099      0.61275010       2.1192500     -0.50550000       341.92600       3.3264907     0.020234444
       769.00001       289.06744       98768.652       11687.950     0.066000000       1.7090000     -0.10450000       342.18100       2.7483691     0.026126004
       773.99999       289.07265       98773.975       11685.904       1.7835000       2.0747500     -0.22825000       341.72300       2.7930348     0.020353820
       779.00000       288.94809       98782.638       11617.027      0.94600000      0.73025010     -0.33575000       341.60700       2.5301356     0.016136499
       784.00001       288.93095       98782.063       11609.243       1.7710000       4.0145000     0.087500010       341.41900       2.7883545     0.022238047
       788.99999       288.96488       98772.995       11633.077      0.54700010       1.9422500      0.40775000       341.80000       3.1847542     0.020033383
       794.00000       288.93824       98767.324       11610.645      0.43150000       2.6382500     -0.98325000       341.46000       2.5791213     0.015303645
       799.00001       288.91388       98758.270       11584.425       1.0367500       1.8880000      0.69325010       342.06400       3.3518394     0.014263513
       803.99998       288.88763       98750.265       11564.967       1.3047500       1.8450000    -0.011500000       341.43400       3.1385162     0.020866257
       809.00000       288.80103       98741.894       11499.327       2.7172500       1.1977500      0.17075000       341.85700       3.2364568     0.023505304
       815.00001       288.77137       98735.611       11483.479       1.5182500       2.8195000     -0.14425000       341.44100       3.6694240     0.021323653
       820.00002       288.80915       98727.139       11528.733       1.2705000       2.0592500     -0.30875000       341.36000       4.0443383     0.025060414
       824.99999       288.79074       98730.474       11520.320       1.9065000       1.1862500     -0.11400000       341.69500       3.2318252     0.018544309
       830.00000       288.75498       98742.118       11499.998       1.8365000       3.5742500     -0.57600000       340.71700       3.0231853     0.023274867
       835.00002       288.73473       98752.030       11478.846       1.7302500       2.2920000      0.34850000       341.05600       3.0731524     0.014508196
       839.99999       288.68873       98771.965       11429.583      0.62075000       2.8650000     -0.87725000       341.20400       2.6881384     0.019621460
       845.00000       288.69613       98775.596       11420.409      0.94925000       2.1545000      0.37250000       341.90900       2.8494818     0.013157888
       850.00002       288.73773       98774.336       11425.965     -0.60875000       1.4890000      0.30250000       341.84700       2.7588013     0.023857980
       854.99999       288.77633       98767.064       11440.477       1.0012500       2.6267500     0.076000010       341.48300       2.7652735     0.014361047
       860.00000       288.85820       98745.783       11474.149       1.2300000       3.4040000      0.22050000       341.09400       3.1923954     0.014342240
       865.00002       288.87057       98737.539       11507.438       1.4020000       2.9765000     -0.75850000       341.16500       2.5535796     0.018136777
       869.99999       288.86670       98724.776       11562.063       1.2895000       2.2832500     -0.28525000       341.46800       2.5718504     0.013201358
       875.00000       288.83830       98730.985       11575.124       1.6467500       2.4107500     -0.60025000       340.90400       3.0566698     0.022850915
       880.00001       288.74271       98753.181       11575.038       1.2277500       1.8775000     -0.31525000       341.41500       2.7208028     0.013466472
       884.99999       288.73029       98763.149       11579.949     0.095250000       1.7002500      0.50175010       341.74200       2.9530756     0.024840573
       890.00000       288.72564       98784.561       11540.948      0.91200010       1.4592500     -0.44075000       341.52600       2.6446416     0.022488649
       895.00001       288.77174       98784.568       11577.100     -0.43925000       1.8032500      0.70000000       341.88600       3.1969224     0.026882657
       899.99999       288.90440       98769.204       11677.839     -0.60350000       5.0927500      0.27500000       341.62400       3.3101511     0.028085602
       905.99999       288.93992       98741.306       11713.675      0.88750000       2.7585000    -0.063750010       341.55300       2.8314230     0.016481652
       911.00001       288.96231       98731.593       11737.622      0.52125000       4.4475000     -0.82825010       341.09600       2.6801845     0.021900323
       916.00002       288.96006       98729.255       11739.687       1.6535000       3.4817500      0.21750000       341.62100       3.7793338     0.023155240
       920.99999       288.88744       98730.889       11680.958       2.0930000       3.5125000     -0.59950000       341.12600       2.4169964     0.016610846
       926.00001       288.90031       98740.725       11683.714       1.2377500       2.0920000    -0.049500000       341.56700       2.6605366     0.012582164
       931.00002       288.95537       98768.187       11718.604       1.8112500       1.9762500      0.42475000       341.63800       2.8176028     0.021263262
       935.99999       288.98396       98775.599       11725.276       1.2430000       2.9632500     0.059750000       341.80700       2.7397669     0.012522763
       941.00001       288.96819       98774.614       11705.384       1.2730000       2.9640000      0.31700000       341.87900       2.7687516     0.020109650
       946.00002       288.85425       98746.704       11633.412       1.4055000       3.0000000     -0.66200010       341.61400       2.5343547     0.013010060
       950.99999       288.79337       98737.166       11583.921       2.4682500       2.6365000      0.35950000       341.79300       2.9341914     0.022448758
       956.00000       288.74479       98733.780       11536.311      0.86400000      0.97375010      0.77300010       342.46800       2.8483789     0.016935599
       961.00002       288.68806       98730.502       11479.007      0.88625000       1.7497500      0.36975000       342.27300       2.8718750     0.021625858
       965.99999       288.67124       98739.619       11442.490       2.2875000       2.4262500      0.40625000       341.25300       2.9715481     0.021339834
       971.00000       288.70073       98768.195       11417.488       2.3992500       2.1662500     -0.35275000       341.83300       2.5776793     0.014881744
       976.00002       288.71495       98774.149       11421.804       1.0440000       3.0565000     -0.45425000       341.51200       2.8708096     0.020207770
       980.99999       288.70639       98773.936       11428.008       1.3380000       1.1230000    -0.015750000       341.65800       3.2480469     0.016515476
       986.00000       288.66974       98751.158       11477.854       1.4445000       2.4325000     -0.12500000       341.04200       2.9398406     0.027219236
       991.00002       288.64993       98742.806       11497.868       1.1192500       1.4027500    -0.043000000       341.43600       3.0869063     0.020001682
       997.00002       288.58119       98735.735       11482.339       1.1675000       1.5717500      0.32500000       341.83300       3.5322856     0.021320934
       1002.0000       288.58458       98737.393       11489.747       1.2360000       2.0097500      0.37825000       341.47300       2.6191154     0.011878438
       1007.0000       288.63671       98765.573       11478.627      0.38150000       2.1585000     -0.29325000       341.19900       2.9448753     0.022436820
       1012.0000       288.69929       98769.603       11501.301     -0.32750000       1.8952500     0.073250000       341.86500       3.3198700     0.012218608
       1017.0000       288.81916       98760.290       11556.357      0.50500000       2.2060000     -0.48350000       341.35100       3.2548503     0.023416573
       1022.0000       288.91985       98755.972       11618.916     -0.59625010       1.5310000      0.41100000       342.17200       3.0681356     0.016812040
       1027.0000       289.02180       98731.004       11712.452      0.75600000       1.1192500      0.19675000       341.01500       2.4659953     0.012483799
       1032.0000       289.12240       98724.824       11793.693      0.92200010       2.5792500     -0.28500000       341.00500       3.1788174     0.023185850
       1037.0000       289.20618       98741.842       11876.284      0.83675000       1.9645000      0.38825000       341.35600       2.8420523     0.024129467
       1042.0000       289.31637       98746.653       11963.343      0.14900000       1.4015000      0.10875000       341.99100       2.8205482     0.020632147
       1047.0000       289.49493       98757.061       12074.784      0.39575000       2.0410000    -0.019750000       341.62700       2.8363527     0.021678890
       1052.0000       289.58050       98758.395       12140.306      0.27950000       1.8480000      0.10950000       341.59900       2.6536343     0.024120522
       1057.0000       289.60745       98740.348       12179.313     0.013250000       1.3235000      0.48700000       341.44300       2.9486066     0.013857580
       1062.0000       289.66671       98737.907       12223.918   -0.0075000000      0.76575010     -0.23525000       342.23900       3.1183194     0.021541978
       1067.0000       289.73541       98742.587       12302.487      0.73525010       1.9697500     0.027000000       341.17300       3.1817189     0.023188689
       1072.0000       289.71224       98744.823       12265.686      0.86175010       2.1835000     -0.22725000       341.37500       3.3205856     0.018814651
       1077.0000       289.65818       98761.797       12155.886      0.35100000       2.0052500     -0.42575000       342.27900       4.1367113     0.040069689
       1082.0000       289.60440       98763.952       12056.663      0.77975000       1.2577500     -0.53550000       341.57900       3.6305423     0.023147939
       1088.0000       289.35667       98744.957       11746.168      0.41375000       1.1495000      0.58800000       342.43700       3.5756800     0.029201154
       1093.0000       289.29934       98743.066       11662.219      0.64975010       2.1865000      0.13900000       341.84900       3.3361141     0.024691502
       1098.0000       289.35245       98744.292       11723.064      0.36800000       2.7027500     -0.43825000       341.42600       3.4737546     0.021632818
       1103.0000       289.40417       98744.106       11729.400      0.66250000       3.1980000     -0.35000000       341.24300       4.0547052     0.033866692
       1108.0000       289.60282       98757.422       11840.446       1.5852500       2.6490000     -0.17775000       341.54200       2.9084470     0.017860138
       1113.0000       289.63419       98757.628       11848.919      0.52250000       2.1182500      0.32100000       341.68600       3.2174394     0.018251751
       1118.0000       289.60078       98736.638       11762.001      0.99350010       3.0360000     0.029250000       342.45100       2.9790641     0.020756347
       1123.0000       289.54644       98737.751       11717.541      0.21425000       2.0847500     0.063250010       341.47800       3.2062606     0.020289229
       1128.0000       289.35134       98757.929       11656.758      0.68350010       1.8745000     -0.30750000       342.21200       2.8142536     0.024379375
       1133.0000       289.24965       98756.372       11609.106    -0.082250010       1.6990000     -0.14950000       342.52200       2.5779770     0.019981975
       1138.0000       289.15883       98751.431       11558.959     -0.75325010       1.9490000      0.57100000       342.84500       3.1606316     0.033893638
       1143.0000       289.12056       98751.592       11544.351      0.33250000       1.3927500     0.012000000       342.47300       2.8742712     0.020068588
       1148.0000       289.09248       98733.606       11515.028      0.92775010       2.0075000     -0.14000000       342.20200       3.2261717     0.023377859
       1153.0000       289.15194       98731.244       11560.355    0.0072500000       2.4862500      -1.2265000       342.06400       2.9315913     0.024663889
       1158.0000       289.37644       98757.843       11727.834      0.24375000       2.2832500     -0.20725000       342.02900       2.8434042     0.025824837
       1163.0000       289.44614       98759.296       11791.537      0.56925000       2.6205000     -0.16500000       342.16500       3.5152325     0.023472933
       1168.0000       289.49199       98736.872       11851.058       1.1967500       2.4202500     -0.13650000       341.90000       2.6094719     0.012332038
       1173.0000       289.53017       98738.834       11888.872       1.0105000       1.5567500      0.33925000       342.15200       3.3025618     0.021330845
       1179.0000       289.43209       98751.435       11823.815      0.72575000      0.72500000      0.31800000       343.08900       2.4995180     0.024331611
       1184.0000       289.44045       98749.835       11840.640       2.2832500       1.9590000     0.070500000       341.85500       3.1546177     0.031976899
       1189.0000       289.50474       98756.758       11908.661       1.6415000       2.4355000      0.10075000       342.26500       3.4010218     0.022480772
       1194.0000       289.58757       98758.097       11948.791      0.72900000       2.6280000     -0.28575000       341.42700       2.4812562     0.019646135
       1199.0000       289.71356       98739.255       11989.475      0.89850000      0.75200000      0.77375000       342.50900       2.5263863     0.018690693
       1204.0000       289.80412       98736.337       12045.979       1.0690000       3.1320000     -0.39750000       340.91500       2.7343469     0.022274809
       1209.0000       290.00852       98752.288       12170.436      0.14775000       1.3375000     0.018500000       342.15500       2.6885287     0.022002730
       1214.0000       289.97415       98751.852       12135.414      0.78700010       1.0897500      0.14850000       341.49400       3.2323871     0.022099298
       1219.0000       289.76933       98738.673       12030.509      0.60675000       1.2967500    -0.015000000       342.02700       2.8450581     0.021056588
       1224.0000       289.63164       98739.562       11933.633      0.90575000       1.9340000     -0.12550000       341.07700       3.4600688     0.021034807
       1229.0000       289.33341       98746.355       11692.668      0.83500000       1.4147500     -0.42225000       341.87900       3.4471410     0.023482402
       1234.0000       289.19544       98744.733       11577.224       1.2807500       1.4782500     -0.10675000       341.76400       2.9609528     0.020446009
       1239.0000       289.14952       98744.061       11540.865       1.4012500       1.5027500     -0.15500000       341.35700       2.6001106     0.025713794
       1244.0000       289.11851       98747.127       11481.358       1.4810000       1.1210000     0.063250010       341.31500       2.8366146     0.017916221
       1249.0000       289.12143       98744.438       11416.981      0.84850000       1.3542500     -0.18500000       341.83400       2.5683153     0.027357921
       1254.0000       289.16014       98744.738       11392.218       1.4805000      0.81575010     0.020750000       342.29300       2.4561595     0.024435990
       1259.0000       289.23959       98754.893       11364.569      0.33025000      0.78100000      0.64450000       342.89400       2.5148880     0.021139247
       1264.0000       289.35779       98758.631       11414.645      0.81575010       1.5380000     -0.25550000       341.31400       2.3411690     0.024286161
       1270.0000       289.58047       98754.615       11558.177      0.42550000       1.0612500    -0.056500000       341.80800       2.9774717     0.016308556
       1275.0000       289.70100       98755.501       11662.620    -0.019250000      0.47675000      0.16250000       342.75800       2.3347228     0.020702709
       1280.0000       289.87661       98763.442       11848.413     -0.24400000      0.97450010      0.44200000       343.46600       2.6992185     0.020406984
       1285.0000       289.90381       98758.936       11914.598     -0.14875000       1.1770000      0.14975000       342.91300       3.2888554     0.020554281
       1290.0000       289.80243       98743.916       11902.259      0.36450000       1.8940000      0.19650000       341.70300       3.0502977     0.024413629
       1295.0000       289.79283       98743.584       11957.733      0.42150000       1.7847500     0.061500000       342.81700       3.0451663     0.025457049
       1300.0000       289.74015       98745.989       11994.413       1.3490000       1.2590000      0.41825000       342.36700       3.1145846     0.023553889
       1305.0000       289.73732       98743.007       12035.106       1.8707500       2.3825000      0.19400000       342.37600       3.1365491     0.020464034
       1310.0000       289.81202       98744.809       12147.946      0.20125000       3.2555000      0.13250000       342.55600       3.4680302     0.025001457
       1315.0000       289.80461       98747.831       12133.825      0.61775000       3.3252500     -0.60025000       342.17800       2.8814426     0.019101666
       1320.0000       289.77370       98746.703       12044.074      0.57175000       1.9982500     -0.53000000       342.24200       2.5262812     0.018328131
       1325.0000       289.71549       98741.818       11960.833      0.14325000       1.6500000      0.10175000       342.73100       2.7821711     0.019037056
       1330.0000       289.61370       98739.267       11822.852   -0.0092500000       3.7130000     -0.38300000       341.38200       2.5870328     0.021513899
       1335.0000       289.54328       98742.244       11716.395       1.7840000       3.5067500      0.10425000       341.33700       2.3491459     0.013477154
       1340.0000       289.44608       98741.217       11598.353     -0.49125000       2.0615000      0.14400000       343.25000       2.9943407     0.019326728
       1345.0000       289.40330       98737.240       11519.242     0.058500000       2.9940000      0.40400000       342.20600       2.8110689     0.014086882
       1350.0000       289.37036       98739.655       11438.492       2.4532500       4.1587500     -0.15000000       341.68300       3.4301427     0.020571579
       1356.0000       289.44507       98744.361       11424.030     -0.17075000       1.6107500      0.44975000       342.27800       2.7027362     0.020037045
       1361.0000       289.53043       98740.414       11439.411      0.83200000       1.3577500      0.19375000       342.83100       3.0008878     0.020266943
       1366.0000       289.65267       98736.454       11484.193     -0.12900000       1.6392500      0.47650000       343.33500       3.2841972     0.018850601
       1371.0000       289.86609       98740.581       11575.559      0.57675000       2.6302500     0.092500000       342.15400       2.7777110     0.023230588
       1376.0000       289.95289       98744.592       11641.356      0.13225000       1.9680000      0.21300000       343.10200       2.9509152     0.024760543
       1381.0000       289.99382       98740.334       11707.248      0.92025010       2.4640000     -0.26175000       342.69300       2.5372089     0.022929189
       1386.0000       290.12201       98736.038       11857.069      0.20900000       2.7907500     -0.24300000       342.66700       2.4992441     0.026838997
       1391.0000       290.20304       98739.945       11982.121    -0.088000010       1.7875000      0.18800000       342.84600       2.7962130     0.020996020
       1396.0000       290.34087       98744.418       12207.417     -0.41625000       2.9855000     -0.38250000       341.35400       2.6556335     0.018159541
       1401.0000       290.42498       98740.531       12325.259      0.62350000       1.8945000     0.051500000       343.26900       3.1655076     0.026409030
       1406.0000       290.45987       98736.629       12377.087       2.0095000       2.7067500     -0.58250000       341.19400       2.9781533     0.020645840
       1411.0000       290.40012       98740.507       12352.954      0.65450000       2.4445000     -0.46725000       342.75400       2.6309182     0.019641046
       1416.0000       290.40005       98744.429       12322.947      0.52725010       2.6127500    -0.093500000       341.94000       2.6826924     0.019174857
       1421.0000       290.39988       98738.511       12217.528       2.4712500      0.55725000      0.60700010       341.36800       2.7690147     0.027351626
       1426.0000       290.41530       98751.084       12145.394      0.35375000       1.1405000      0.51050000       343.29300       3.5069918     0.023740362
       1431.0000       290.40699       98757.596       12113.738     -0.38625000       1.5820000    -0.031250000       342.69400       2.7094058     0.029525976
       1436.0000       290.42975       98751.643       12173.521     0.088250000       3.6670000     -0.31275000       340.69900       3.2283031     0.030515674
       1441.0000       290.37469       98749.451       12144.438      0.46875000       3.3952500     -0.39175000       341.67400       3.2674246     0.030103554
       1447.0000       290.20231       98753.119       12083.705     0.090000000       2.4437500      0.55775000       342.97100       2.9580331     0.022695719
       1452.0000       290.08198       98750.887       12008.078     -0.84750000       3.9527500     -0.10400000       341.35900       2.8388762     0.021099880
       1457.0000       289.85840       98739.318       11808.723      -1.4275000       4.2047500     -0.66000000       340.96100       3.3548888     0.030826237
       1462.0000       289.75509       98738.740       11695.733      0.28625000       2.8237500    0.0092500000       341.53200       2.6762366     0.023058157
       1467.0000       289.78282       98748.272       11629.050      0.58900000       2.5907500      0.16150000       341.91900       2.5530790     0.027524242
       1472.0000       289.74254       98746.065       11563.573     -0.78425000       2.5030000      0.62475000       342.39100       3.3111777     0.031159239
       1477.0000       289.72148       98735.027       11519.766     -0.55575000       3.3805000     -0.46850000       341.62800       2.9979257     0.018282476
       1482.0000       289.70027       98739.267       11495.822     -0.48025000       1.7772500     0.094250000       342.79600       2.3902993     0.025890637
       1487.0000       289.59080       98751.857       11468.662     -0.41525000       2.8987500      0.78350000       342.69100       3.1416037     0.028350650
       1492.0000       289.57600       98750.818       11480.157    -0.036750000       2.9322500     -0.62075000       341.63900       3.1914010     0.022904992
       1497.0000       289.66676       98753.399       11557.481     -0.66675000       2.8225000     -0.15750000       340.99400       2.9612593     0.022980633
       1502.0000       289.70685       98757.897       11602.161    -0.053250000       2.9792500     -0.53250000       341.48100       2.9019075     0.017116084
       1507.0000       289.77930       98746.955       11647.770     -0.20925000       2.2512500     -0.41550000       342.38300       2.8652143     0.018176548
       1512.0000       289.81674       98742.402       11700.005    -0.017750000       1.2510000  -0.00050000000       343.53000       3.2138920     0.018972155
       1517.0000       289.77165       98756.814       11710.579       1.1227500       2.2700000     -0.31500000       342.71100       3.0902104     0.021783680
       1522.0000       289.79390       98758.286       11777.699      0.67875000       2.0832500    -0.054750000       342.37400       3.0096117     0.022106723
       1527.0000       289.91140       98740.170       11958.039      0.56125000       1.9752500     -0.13150000       342.06900       3.1260740     0.020648832
       1532.0000       289.91723       98737.741       12022.632       1.8155000       1.5070000      0.39250000       341.64900       2.9971068     0.022966432
       1538.0000       289.87622       98748.012       12062.936      0.34875000       1.2672500      0.11425000       344.09600       3.1202652     0.022335583
       1543.0000       289.84922       98745.348       12071.108       1.8845000       1.0730000     -0.11900000       342.53200       3.0736907     0.019223558
       1548.0000       289.70166       98738.589       11955.387       1.5295000       1.2610000      0.32950000       342.88400       2.8509907     0.027161348
       1553.0000       289.66694       98740.963       11924.636      0.40400000       2.7302500     -0.30125000       341.79000       3.3290665     0.019436174
       1558.0000       289.75052       98738.916       11960.863      0.31375000       1.0140000     -0.11050000       342.49000       2.9680279     0.023154577
       1563.0000       289.75660       98738.988       11943.107     -0.33175000       2.7905000     0.056750000       340.90800       3.7721445     0.028734797
       1568.0000       289.76939       98757.021       11913.235     -0.42550000       2.8200000     -0.17200000       342.05000       3.2026732     0.027792076
       1573.0000       289.75214       98758.893       11886.818     -0.61175000       2.5890000    -0.075000000       341.12800       3.1984361     0.031530134
       1578.0000       289.66732       98739.323       11809.702     -0.15000000       1.8675000     -0.15475000       341.82300       2.9366917     0.032327428
       1583.0000       289.63161       98737.835       11794.341      0.63050000       2.4747500     0.081750010       341.95900       2.7185971     0.029758586
       1588.0000       289.57779       98746.533       11832.200      0.43875000       1.6775000     -0.70150010       341.70300       2.9442120     0.036344713
       1593.0000       289.58944       98745.131       11842.576       2.5612500       1.0090000      0.33325000       343.73900       2.6220120     0.023183444
       1598.0000       289.67639       98747.198       11877.578      -65.536000      -65.536000      -65.536000       307.23200       4.3121951     0.027156851
       1603.0000       289.71651       98746.070       11886.397     0.040500000       2.6597500     -0.65725000       341.79900       2.5709533     0.019575366
       1608.0000       289.79109       98728.008       11856.770      0.49650000       1.8872500      0.42700000       342.54800       2.9688221     0.012954188
       1613.0000       289.82400       98727.223       11854.362     -0.18400000       4.3427500     0.066500000       341.84100       3.0122580     0.022223131
       1618.0000       289.81268       98746.806       11871.639      0.89100000       3.6792500     -0.24225000       342.12400       2.5927240     0.018154165
       1623.0000       289.79887       98747.247       11865.691       1.2920000       3.2895000     -0.29225000       341.86300       2.6646667     0.019003284
       1629.0000       289.75785       98739.972       11846.966      0.85025010       2.8342500      0.11425000       342.04600       2.5529231     0.021826453
       1634.0000       289.73778       98740.979       11846.322       1.3320000       3.0915000      0.68475000       341.66300       2.4267485     0.020601080
       1639.0000       289.70108       98731.800       11838.047     0.047750000       4.4515000     -0.24700000       340.91500       2.8590898     0.018977458
       1644.0000       289.68748       98733.985       11836.001      -1.1565000       3.6052500     -0.35700000       341.11200       2.7092581     0.018924771
       1649.0000       289.69953       98758.340       11859.127      0.84525000       3.9592500     -0.26700000       341.17900       3.0620690     0.020600640
       1654.0000       289.69924       98757.932       11860.011     -0.36800000       2.6440000     -0.40625000       341.78200       3.7213821     0.019632066
       1659.0000       289.69978       98741.921       11838.122     -0.69350000       2.0252500     -0.16600000       341.92100       3.5630179     0.024076846
       1664.0000       289.69966       98736.874       11835.146      0.83825000       2.4197500     -0.48200000       342.36200       2.9882970     0.020152298
       1669.0000       289.71167       98721.413       11857.691      0.15650000       3.5282500     0.081000000       342.18000       3.2054499     0.019489837
       1674.0000       289.69567       98722.728       11833.951       1.8447500       2.9485000       1.1990000       341.94400       3.3805163     0.014764195
       1679.0000       289.60022       98743.798       11765.295       1.4695000       3.8707500     -0.69550000       341.46300       3.2060416     0.018265001
       1684.0000       289.66237       98749.535       11763.392       1.2777500       2.9267500     0.057000000       341.38600       2.9743902     0.011051679
       1689.0000       289.78975       98755.704       11740.674       1.2770000       3.2305000     0.060250000       341.42300       2.4869801     0.019154364
       1694.0000       289.90921       98757.840       11786.109       1.0057500       3.0970000      0.17750000       341.76800       2.8407079     0.018876206
       1699.0000       290.18443       98749.198       11940.380     0.077750000       2.4380000     -0.21550000       342.39900       2.8366907     0.018131887
       1704.0000       290.29396       98749.407       12015.645      0.13600000       2.6325000      0.16900000       342.57400       3.0116645     0.026896432
       1709.0000       290.29864       98755.459       12068.536    -0.023000000       2.5265000     -0.78325000       341.65500       2.5218315     0.018329850
       1714.0000       290.32570       98755.780       12146.042      0.25200000       1.8430000     -0.15925000       341.90500       2.3846035     0.016738882
       1720.0000       290.29993       98758.879       12231.785     -0.36000000       3.4005000    -0.055750000       341.70700       2.8742631     0.015092204
       1725.0000       290.29993       98752.532       12287.503      0.91875000       2.4250000     -0.40775000       341.75400       3.5657697     0.023868515
       1730.0000       290.29069       98733.705       12379.653      0.17625000       2.7147500     -0.55675000       341.63200       2.8362409     0.012483153
       1735.0000       290.30961       98732.231       12393.090      0.84550010       2.5992500     -0.45350000       341.66800       3.7300652     0.020406347
       1740.0000       290.38998       98732.365       12361.025     0.066750000       2.8627500     0.064750000       342.39400       2.8334238     0.019703309
       1745.0000       290.31598       98736.850       12298.495       1.1482500       2.0775000   -0.0047500000       342.14900       3.1047694     0.026912745
       1750.0000       290.18798       98759.742       12191.126      0.35600000       2.7232500      0.18325000       342.23200       3.3401052     0.024924354
       1755.0000       290.06222       98757.798       12088.217       1.0090000       3.1435000     -0.38225000       342.62800       2.9984632     0.017301073
       1760.0000       289.79231       98741.178       11946.072      0.92000000       2.6835000     -0.16525000       342.43300       3.2602790     0.021055728
       1765.0000       289.69653       98736.166       11833.184      0.39750000       1.0310000     0.062250000       343.45600       3.1670378     0.010590520
       1770.0000       289.68455       98720.848       11706.480      0.62550000       2.4955000      0.21800000       343.51800       3.1420329     0.013107704
       1775.0000       289.68155       98724.200       11640.746       2.2882500       2.3010000     -0.60500000       341.30200       2.5946731     0.010711804
       1780.0000       289.73754       98744.313       11591.533       1.9925000       1.6185000     -0.49075000       342.18800       2.9068794     0.014206577
       1785.0000       289.77670       98751.490       11579.992       1.4872500       2.3317500      0.17400000       343.45100       4.1507251     0.017345938
       1790.0000       289.85007       98763.934       11627.381       1.9217500       2.4730000     -0.46900000       340.87700       2.8230098     0.011903316
       1795.0000       289.88131       98761.709       11655.123      0.19000000       1.6300000      0.47650000       342.39200       2.9448847     0.015039973
       1800.0000       289.87682       98743.786       11685.988      0.35825000       2.9607500     -0.25800000       341.89100       2.4785570     0.010378236
       1805.0000       289.94398       98743.426       11746.413       1.8525000       2.0867500      0.37675000       342.37400       3.0646544     0.020665725
       1811.0000       290.04940       98745.714       11845.137       1.3582500       3.4187500     -0.48875000       341.83600       2.7603659     0.016408647
       1816.0000       290.10881       98740.587       11919.295       1.5815000       2.2210000    -0.027000000       342.41300       2.9473631     0.016559270
       1821.0000       290.21812       98740.357       12013.449       1.9012500       1.8377500      0.55050000       342.26600       2.7719293     0.012098325
       1826.0000       290.24394       98741.247       12095.170      0.82775000       1.8995000     -0.25975000       342.16700       2.8317883     0.017020776
       1831.0000       290.20609       98732.810       12177.852       1.0387500       2.0242500    -0.036750000       342.07700       3.9245902     0.019149328
       1836.0000       290.19880       98748.718       12232.678      0.53050010       1.9817500     -0.39950000       341.18900       3.1765658     0.016130536
       1841.0000       290.16130       98753.479       12238.328      0.92350010       1.2747500     -0.57300000       341.59900       2.8495000     0.012243045
       1846.0000       290.05455       98739.905       12148.065       1.1507500       1.5447500     -0.36400000       341.82000       2.3289533     0.018988938
       1851.0000       289.99392       98738.587       12082.696     -0.18550000       2.2110000      0.19150000       343.90200       3.3394487     0.023505676
       1856.0000       289.94565       98740.948       12012.072      0.37975000      0.90675000      0.48650000       343.65200       3.3517378     0.020797121
       1861.0000       289.86814       98743.823       11903.308       1.2205000       2.9487500      0.15775000       342.02600       2.9436898     0.011791991
       1866.0000       289.91589       98748.228       11890.562      0.30500000       2.8242500    -0.088000010       341.79500       3.1890768     0.022070570
       1871.0000       290.05011       98762.740       11928.302     -0.11850000       3.4385000      0.83275000       343.10100       3.4147350     0.018635393
       1876.0000       290.15518       98761.644       11925.305     -0.26575000       2.2962500    -0.075750000       342.67700       2.4074230     0.012762235
       1881.0000       290.21946       98757.015       11919.015    -0.087750000       2.3397500     -0.19625000       341.24600       2.3625335    0.0099932676
       1886.0000       290.17029       98738.270       11827.607      0.12600000       1.6615000     -0.10575000       341.41600       2.6121271     0.014683037
       1891.0000       290.18799       98732.917       11803.968     -0.31125000       1.0792500      0.37175000       342.91300       2.4408027     0.011819723
       1896.0000       290.24521       98732.189       11856.737     -0.41725000       1.9930000     -0.32200000       341.96300       3.1185237     0.025329451
       1902.0000       290.30476       98733.329       11892.284     -0.79225000       1.9645000     0.042750000       341.43200       2.9534225     0.019222579
       1907.0000       290.38360       98750.551       11910.404      0.45575000       1.5440000      0.31475000       343.30400       2.7706500     0.018001744
       1912.0000       290.46332       98758.122       11983.097      0.41575000       1.4867500    -0.085750010       341.98700       3.4992252     0.019726833
       1917.0000       290.55753       98760.683       12106.438      0.60675000       2.5107500     -0.29325000       341.25700       2.1404292     0.021375673
       1922.0000       290.61669       98761.477       12184.108      0.53700000       1.9557500    -0.032500000       342.01100       3.1239840     0.013117742
       1927.0000       290.68057       98761.045       12307.538      0.54775010       2.1320000     -0.22600000       341.98000       2.9231533     0.021036106
       1932.0000       290.71873       98755.699       12382.799    -0.074750010       2.0557500     -0.18775000       342.16800       3.1808083     0.020803974
       1937.0000       290.67191       98739.665       12356.192      0.49450000       2.9202500      0.10100000       341.59200       4.4556169     0.018027598
       1942.0000       290.69449       98732.990       12384.689       1.7205000       2.3477500     -0.59475000       342.35900       2.8220611     0.020013951
       1947.0000       290.75254       98722.162       12453.211    -0.043500000       2.0672500     -0.12825000       343.62400       3.7454515     0.029102371
       1952.0000       290.80419       98722.055       12486.016      0.17950000       1.9077500     -0.24500000       342.88300       2.4666547     0.016761056
       1957.0000       290.91378       98736.749       12535.631      0.42175000       1.8940000     -0.30200000       342.47500       2.3431127     0.019491964
       1962.0000       290.97142       98746.984       12543.158      0.60075000       1.3060000      0.10850000       343.02500       3.3120442     0.021234920
       1967.0000       291.03287       98768.661       12522.046      0.24500000       2.2290000      0.47400000       343.30100       3.3492560     0.018408560
       1972.0000       291.01842       98775.095       12461.026    -0.039500000       1.0582500      0.12175000       342.87500       2.7732460     0.015138110
       1977.0000       290.92546       98770.996       12339.583    -0.075250010       1.3595000      0.22850000       343.12000       2.9589870     0.026167737
       1982.0000       290.84334       98766.475       12241.381     -0.52025000       1.9370000      0.15450000       342.33000       2.1993463     0.020495541
       1988.0000       290.62652       98745.705       12061.947     -0.96900000       2.3617500    -0.060250000       343.49000       2.5459274     0.021867717
       1993.0000       290.55175       98735.569       11980.369     -0.35725000       2.2092500      0.16650000       342.66100       3.0465118     0.021044857
       1998.0000       290.56103       98727.782       11940.855      0.65850000       3.1812500     -0.43300000       341.00900       2.4919009     0.024963394
       2003.0000       290.53507       98722.647       11918.950      0.80975000       1.9695000     -0.87100010       342.45700       3.1000192     0.024684508
       2008.0000       290.56927       98716.948       11963.623      0.60575000       1.5507500      0.66625010       343.76400       2.4777452     0.024893647
       2013.0000       290.55178       98719.421       11961.207      0.59050010       2.0852500      0.19450000       342.98200       2.7874736     0.019071053
       2018.0000       290.44010       98730.483       11921.378    -0.049000000       2.0357500      0.34650000       342.18500       2.3740804     0.031113651
       2023.0000       290.43057       98737.816       11941.790       1.7635000       3.0307500     -0.12825000       341.98300       2.5121182     0.017868885
       2028.0000       290.46819       98752.656       11961.537       1.5780000       3.1570000     -0.51250000       341.91900       2.8205908     0.014687138
       2033.0000       290.50551       98759.495       12018.361      0.83650000       4.1017500     -0.76200000       341.38000       2.8042536     0.013291140
       2038.0000       290.62739       98759.676       12169.835       1.6367500       3.3032500     0.073750000       342.16200       2.7253562     0.020135199
       2043.0000       290.67957       98761.255       12256.970     -0.58975010       4.4417500     -0.67275010       342.47500       2.9413544     0.020967538
       2048.0000       290.70746       98761.654       12339.109      0.12475000       2.2350000     -0.34125000       342.36200       2.6945989     0.020903801
       2053.0000       290.70994       98760.309       12389.981      0.44250000       2.5980000     -0.19675000       341.74100       2.7777578     0.019068359
       2058.0000       290.69987       98759.100       12428.035      0.76525000       2.7767500     -0.33600000       342.20900       2.7542483     0.016162024
       2063.0000       290.63886       98754.419       12413.397       1.0755000       1.2605000      0.47075000       343.13900       2.8097509     0.023560428
       2068.0000       290.50319       98744.412       12332.715       1.2990000      0.81475000      0.41225000       343.14600       2.6891625     0.016672778
       2073.0000       290.41396       98737.479       12283.299      0.20575000       1.2837500     -0.25650000       343.54300       2.6784682     0.018036703
       2079.0000       290.24931       98725.139       12172.513     -0.42375000       1.5972500      0.22125000       343.06300       2.8499584     0.017999895
       2084.0000       290.20417       98721.969       12131.581     -0.79275010       3.3485000     0.022250000       342.23100       2.3079314     0.017242168
       2089.0000       290.21849       98722.246       12151.425      -1.5470000       2.0500000     -0.79800000       343.11100       2.8773448     0.020219798
       2094.0000       290.25770       98726.193       12121.522     -0.61225000       3.1595000     0.094000000       342.39500       3.5448450     0.013331583
       2099.0000       290.36065       98737.530       12063.153     -0.49225000       1.6347500     -0.44225000       342.67500       2.5308213     0.023647808
       2104.0000       290.44749       98744.610       12057.270     -0.72150000       4.7232500     0.051250000       343.38100       2.6954423     0.023585079
       2109.0000       290.60635       98754.396       12061.809      0.36350000       3.0812500    -0.093250010       343.54800       2.5850830     0.017783557
       2114.0000       290.64216       98759.191       12060.851     0.075750000       3.0155000     -0.49175000       342.46900       2.1992203     0.018911183
       2119.0000       290.61420       98760.233       12106.648     -0.88075010       4.0545000     -0.32150000       341.19200       3.0788963     0.015454858
       2124.0000       290.60176       98761.587       12117.888      -1.1260000       3.4155000     -0.40775000       341.60100       2.7754170     0.016083033
       2129.0000       290.50108       98760.381       12081.647     -0.32925000       2.7675000     -0.46675000       342.28300       2.8505943     0.018549895
       2134.0000       290.47381       98760.396       12088.761     -0.27375000       1.4745000      0.89225010       343.48600       2.9964554     0.025088386
       2139.0000       290.51045       98761.364       12127.685     -0.69875000       3.0920000     0.038750000       342.76200       2.9041332     0.023870307
       2144.0000       290.49382       98759.707       12140.322    -0.068500000       2.2040000     -0.10200000       342.85600       2.6886346     0.017651048
       2149.0000       290.45714       98758.252       12155.447       1.0300000       4.5590000     -0.25850000       342.06900       2.7494542     0.020852259
       2154.0000       290.43709       98753.034       12161.337       1.8407500       3.3355000     -0.18050000       341.25100       2.5521191     0.019653846
       2159.0000       290.38944       98743.102       12139.641       2.0675000       2.4002500      0.17325000       341.94900       2.9131334     0.018263928
       2164.0000       290.39195       98736.183       12150.755       1.7820000       1.5115000    0.0072500000       342.20100       2.9823935     0.022155667
       2170.0000       290.44607       98725.286       12186.310      0.11275000       2.5757500      0.64450000       342.19100       3.2236775     0.021059588
       2175.0000       290.46598       98721.065       12202.379       1.2252500       3.9552500     -0.32550000       341.48100       2.7688865     0.017501375
       2180.0000       290.47464       98720.136       12217.008       1.1665000       3.0142500     -0.82525000       341.98600       2.5716750     0.011570588
       2185.0000       290.54270       98719.046       12254.847       1.7080000       2.9420000     -0.14150000       342.25100       2.6268190     0.016276346
       2190.0000       290.62869       98720.268       12292.086       1.0592500       2.2277500      0.27950000       341.86600       2.8211095     0.026536039
       2195.0000       290.70756       98720.235       12337.496      0.99000010      0.60275000      0.41700000       342.72300       2.5155723     0.021759982
       2200.0000       290.85677       98720.133       12422.387      0.46350000       1.7937500     -0.11000000       342.42500       3.5702582     0.032264556
       2205.0000       290.91123       98720.119       12459.927       1.0745000       1.8365000     0.039500000       342.87800       3.8706915     0.028367233
       2210.0000       290.93901       98720.336       12471.724       1.4640000       2.8552500      0.14550000       342.33200       3.1326912     0.025075646
       2215.0000       290.87574       98720.336       12488.249       1.3970000       2.5227500     0.097000000       342.83100       2.7443488     0.018675229
       2220.0000       290.73821       98720.305       12513.725      0.99100010       2.6390000     -0.39075000       341.83700       2.8914864     0.011136017
       2225.0000       290.61949       98720.305       12472.589      0.82800010       3.3977500     -0.12150000       341.31100       2.5126630     0.017292426
       2230.0000       290.40549       98719.525       12397.660       2.6350000       1.9192500      0.25525000       343.10000       2.8342356     0.021074683
       2235.0000       290.30104       98721.448       12323.683       1.8790000       2.5612500     -0.10225000       342.46000       2.8071630     0.016952874
       2240.0000       290.25508       98722.992       12198.334       2.2415000       2.3345000      0.11950000       342.24000       3.1802606     0.026373065
       2245.0000       290.19389       98728.662       12109.789       1.8690000       3.0567500      0.20675000       342.66500       3.3690494     0.024078832
       2250.0000       290.16840       98741.590       12041.711       1.7277500       3.5135000     -0.57300000       342.15600       3.0813259     0.020072214
       2255.0000       290.10013       98742.910       11962.366       1.4615000       1.9377500      0.19400000       342.19400       2.5568207     0.024457087
       2261.0000       289.99459       98740.477       11849.241       2.3385000       3.7150000      0.17675000       341.67200       3.2642214     0.029537435
       2266.0000       289.94633       98742.541       11807.713       1.9025000       4.1295000     -0.30350000       341.38200       3.0237945     0.022108829
       2271.0000       289.88117       98738.878       11779.081      0.84075000       3.3595000      0.57325010       341.98200       3.3536965     0.019943925
       2276.0000       289.88544       98741.178       11790.283       1.9487500       2.5782500  -0.00025000000       341.85700       2.7031749     0.020936115
       2281.0000       289.94989       98751.431       11852.180       1.0157500       3.4822500      0.20650000       341.47000       2.5319177     0.025323867
       2286.0000       289.97022       98753.089       11870.315      0.46900000       2.9000000     -0.19325000       341.72700       2.6974972     0.020893847
       2291.0000       290.00038       98751.328       11899.550      0.18750000       2.8007500     -0.22675000       341.51700       2.9043127     0.019538612
       2296.0000       290.04503       98741.280       11931.946      0.16750000       3.8245000      -1.5637500       341.80700       3.5471450     0.018158911
       2301.0000       290.05600       98739.034       11949.819     -0.31975000       5.1862500     -0.26050000       341.62000       2.6000570     0.025441743
       2306.0000       290.05462       98739.232       11965.300      0.66425000       4.1357500     -0.52000000       341.77200       3.2442334     0.018772989
       2311.0000       290.06384       98738.886       11992.545      0.67250000       3.4432500     -0.48800000       341.35400       2.3206077     0.017106274
       2316.0000       290.03055       98741.207       12006.311      0.24075000       2.6825000      0.29650000       342.29200       3.4658447     0.023499620
       2321.0000       289.94405       98751.517       12000.143      0.50050000       4.0165000      0.38075000       341.73300       3.2205767     0.016940107
       2326.0000       289.91509       98750.332       12011.838     -0.23825000       2.8790000      0.33500000       341.97800       2.7201618     0.025957318
       2331.0000       289.89369       98750.357       12015.103     -0.49050000       3.1582500     0.046750000       341.81500       2.8006971     0.026756809
       2336.0000       289.82543       98753.199       11957.903      0.28175000       2.3672500      0.36475000       342.56000       2.8830398     0.022268711
       2341.0000       289.86971       98751.419       11973.713      0.75425000       3.1220000    -0.092250000       342.32600       2.4789236     0.021416375
       2346.0000       290.11033       98745.857       12084.711     -0.25550000       2.2527500      0.62525000       343.15200       2.7157466     0.022038791
       2352.0000       290.18222       98739.942       12129.183      0.12750000       1.1530000    -0.050000000       341.84900       2.4233619     0.017311802
       2357.0000       290.24791       98728.910       12199.484      0.77850000       3.0762500     -0.38975000       341.35400       2.3679551     0.020768236
       2362.0000       290.23862       98723.141       12211.242      0.16150000       1.6992500     -0.32525000       342.12400       2.2558902     0.024016318
       2367.0000       289.95942       98721.527       12102.080      0.66800000       2.7687500     -0.51025000       342.01300       2.3231596     0.020375722
       2372.0000       289.85491       98719.727       12049.417      0.25875000       2.7432500     -0.24325000       342.40300       3.2732559     0.021772728
       2377.0000       289.84011       98720.307       11990.036       1.1425000       1.6880000      -1.1522500       341.53700       2.4382041     0.019445074
       2382.0000       289.83336       98720.329       11970.648      -1.1085000       2.8942500     0.096250010       341.70000       3.1862543     0.015226438
       2387.0000       289.89608       98720.208       11988.790     -0.72350000       3.5215000      0.25950000       342.90600       3.1368625     0.020485436
       2392.0000       289.95691       98720.170       12010.899     -0.18375000       2.4207500     -0.19800000       341.29800       3.1692144     0.018573546
       2397.0000       290.08630       98714.354       12108.153     -0.27300000       1.6050000    -0.028000000       342.21900       2.6360827     0.016582306
       2402.0000       290.12203       98718.917       12127.079     0.016500000       1.4782500      0.16150000       342.69100       2.5712279     0.024098610
       2407.0000       290.11158       98739.536       12078.511     -0.47050000       2.5672500     -0.10250000       342.34000       2.6350279     0.017674751
       2412.0000       290.10915       98743.022       12076.328     -0.29350000       1.7542500    -0.030750000       341.93900       2.9469817     0.022185931
       2417.0000       290.01904       98742.442       12049.122      0.70800000       1.2945000     -0.13625000       342.19500       2.6508786     0.025092203
       2422.0000       289.98127       98741.871       12040.071     -0.85050000       1.2300000     0.071250010       343.09300       2.3296749     0.021287530
       2427.0000       289.98608       98719.816       12098.942     0.085250010       1.3055000      0.44800000       342.79300       2.4390686     0.023305705
       2432.0000       289.99747       98715.823       12113.203     -0.34825000       1.4475000      0.21875000       342.79700       2.3789657     0.016159309
       2437.0000       290.00586       98730.471       12070.478      0.91800000       1.1967500     0.078000000       342.48000       2.2234937     0.031233844
       2443.0000       290.05953       98737.606       12076.797     -0.36725000       1.1680000      0.10325000       343.40600       2.8173289     0.022082611
       2448.0000       290.18239       98748.732       12092.380      0.62125000       1.1790000     0.072000000       342.94200       3.2830085     0.024149454
       2453.0000       290.22472       98753.578       12116.535     -0.17225000       1.5060000      0.31475000       343.03200       2.7548893     0.019237920
       2458.0000       290.25127       98748.967       12178.961    -0.012000000       1.8617500      0.73925010       341.97200       2.9307457     0.026445939
       2463.0000       290.26423       98750.361       12221.894     -0.50800000       2.3032500     -0.24025000       341.85600       2.6274552     0.020780089
       2468.0000       290.21796       98754.246       12262.072      -1.1640000       2.9987500     -0.50075000       342.42400       2.9394426     0.021770905
       2473.0000       290.18779       98756.278       12288.555      -1.0170000       2.8570000     -0.22475000       342.00000       3.5900694     0.019912548
       2478.0000       290.20099       98759.752       12344.244      -1.3385000       3.1975000    -0.071000000       341.25400       3.6342487     0.025140233
       2483.0000       290.14023       98761.352       12322.167      -1.3242500       1.5452500    -0.080000010       341.76700       3.1784614     0.019270103
       2488.0000       289.99322       98761.633       12227.751     -0.91450010       2.6820000     -0.29400000       341.18800       3.0485140     0.020744821
       2493.0000       289.91694       98760.227       12168.587      -1.2935000       2.2530000     -0.10725000       341.61000       2.8187749     0.020659218
       2498.0000       289.82875       98756.456       12076.939     -0.61075000       2.7035000     -0.34000000       341.66100       2.9725137     0.018979525
       2503.0000       289.76585       98754.463       11997.023     -0.59050010      0.91675000      0.27825000       342.73800       3.4975018     0.022249865
       2508.0000       289.76112       98750.820       11932.368      -1.8625000       1.5667500     -0.36625000       342.33900       2.6188238     0.021763337
       2513.0000       289.74100       98749.222       11881.177      -1.9592500       2.0785000     -0.47375000       341.68600       2.5969919     0.021609862
       2518.0000       289.67878       98754.238       11785.086     -0.71625010       2.4162500     0.017750000       342.40700       3.0078097     0.023560742
       2523.0000       289.69013       98750.144       11776.951     -0.40400000       2.5122500     -0.42250000       342.40100       2.7362614     0.025766970
       2529.0000       289.79486       98737.820       11872.782     -0.85800000       2.3485000     0.073000010       342.21300       2.8715039     0.024651257
       2534.0000       289.81848       98731.938       11906.106     -0.54150000       2.5352500     0.011250000       342.37800       3.0078008     0.021600404
       2539.0000       289.85762       98720.577       11971.725      -1.9787500       1.5862500     -0.35000000       342.13500       2.7646362     0.020994002
       2544.0000       289.86492       98716.484       12001.633      -1.2622500       1.1012500    -0.086500000       341.28700       2.5962420     0.019146953
       2549.0000       289.79078       98719.144       11965.149      -1.8182500      0.89750000     -0.22525000       341.84300       2.8558960     0.019685887
       2554.0000       289.79352       98720.791       11999.202     -0.90600000       1.6842500     -0.31950000       341.81700       3.0981016     0.020556064
       2559.0000       289.84239       98722.416       12076.448      -1.1695000       1.7662500    -0.037750000       341.82200       2.8306816     0.020542988
       2564.0000       289.86238       98727.674       12122.994     -0.47350000      0.93750010     -0.21000000       342.32500       4.1785380     0.023169749
       2569.0000       289.87694       98737.698       12183.081      -1.3560000       1.4500000      0.32075000       342.56200       2.8450624     0.019529809
       2574.0000       289.92274       98744.706       12233.146     -0.13500000       2.3120000      0.31950000       342.44800       3.3852966     0.020155882
       2579.0000       289.99436       98754.415       12278.206     -0.54500000       3.3945000     0.022750000       342.21900       2.7136321     0.021404157
       2584.0000       290.01824       98759.176       12290.551     -0.80000000       2.1920000     -0.26925000       341.54100       3.5709400     0.022326116
       2589.0000       290.03397       98761.401       12279.474     -0.38400000       2.7432500     -0.29775000       342.02300       4.3340881     0.033794198
       2594.0000       290.07441       98761.180       12295.320      0.16775000       2.4900000     -0.16175000       341.75700       3.2607326     0.021840817
       2599.0000       290.09721       98758.209       12291.872     -0.16975000       1.8527500     0.053750000       342.32700       3.5906468     0.021442352
       2604.0000       290.10726       98752.975       12296.130      -1.0647500       2.1190000      0.57775000       342.70700       4.3909593     0.033007761
       2609.0000       290.16829       98743.025       12359.839     -0.19975000       1.9347500      0.28150000       342.75100       3.0248649     0.020362271
       2614.0000       290.15952       98736.092       12339.988      0.77450000       3.5907500      -1.1625000       342.49600       3.2998001     0.022926315
       2620.0000       290.03329       98725.095       12224.346      0.78500000       2.0982500     -0.32150000       341.94900       2.3956391     0.021691421
       2625.0000       290.03919       98720.848       12210.525       1.3315000       1.1490000    -0.099750000       342.20400       2.8178888     0.022874598
       2630.0000       290.08766       98717.199       12193.263    -0.072000000      0.62350000      0.37275000       342.65200       3.2948964     0.021312278
       2635.0000       290.11706       98721.785       12211.897    -0.048250000       1.3062500    -0.093250010       342.64300       2.7952165     0.022824137
       2640.0000       290.21368       98734.085       12311.481      0.84325000       2.7890000     -0.48900000       341.55100       3.4149016     0.037978112
       2645.0000       290.21763       98740.116       12331.289      0.33100000       2.1352500     -0.29450000       341.96800       3.4191208     0.023590995
       2650.0000       290.15297       98750.253       12315.377     -0.71400000       2.9937500     -0.11675000       342.68200       3.5612658     0.021897153
       2655.0000       290.13293       98755.515       12321.256      0.92700000       1.5095000      0.17875000       342.82600       3.4675132     0.030640147
       2660.0000       290.10592       98755.894       12320.257      0.25650000       2.2105000      0.80475000       342.92800       2.8373641     0.021751089
       2665.0000       290.07606       98756.052       12309.067      0.56225000       2.1437500     -0.48500000       342.10200       2.7137841     0.017015993
       2670.0000       290.06432       98758.959       12312.336     -0.83875010       3.7560000     -0.34825000       341.96700       2.5218518     0.020092380
       2675.0000       290.02512       98752.344       12279.024     -0.16050000       2.3905000    -0.051500000       341.43900       3.0025085     0.019993938
       2680.0000       289.95140       98738.109       12206.151     -0.98475000       2.3440000    -0.097750010       341.63900       2.8262789     0.020570580
       2685.0000       289.92014       98727.271       12167.556     -0.92175010       1.9810000      0.26300000       342.25400       3.7256600     0.024809510
       2690.0000       289.90542       98708.100       12136.220     -0.75600000       2.1105000     0.027500000       342.03600       3.0287482     0.021134517
       2695.0000       289.87534       98704.445       12086.076      -1.1505000       1.4925000   -0.0052500000       342.34900       2.4424905     0.021228475
       2700.0000       289.83627       98705.388       12021.923     -0.53475000       1.8342500    -0.090250010       342.27900       2.5556595     0.018751459
       2705.0000       289.85389       98714.646       12007.014     -0.47300000       2.1362500     -0.34475000       341.54100       2.3339327     0.019473811
       2711.0000       289.90033       98741.499       11995.159     -0.13425000       1.5915000      0.18275000       341.95200       2.2999502     0.024328003
       2716.0000       289.91047       98751.227       11995.238      0.14275000       2.2575000      0.18875000       342.06300       2.9797462     0.024651559
       2721.0000       289.96337       98763.678       12040.348     -0.13525000       1.2622500     -0.71975000       342.19200       2.5857783     0.020173174
       2726.0000       289.96045       98765.061       12059.610     0.025000000       1.3357500     -0.38325000       342.64300       3.0973927     0.028071588
       2731.0000       289.89979       98757.077       12055.803      0.31350000       1.7142500      0.32775000       342.71600       2.8828653     0.021409137
       2736.0000       289.88448       98742.676       12101.307      0.59750000       1.0872500    0.0010000000       342.43200       2.5351575     0.018049205
       2741.0000       289.85580       98734.458       12120.426       1.0517500       1.4452500     -0.18500000       342.03100       2.5554334     0.017815634
       2746.0000       289.75501       98720.221       12092.635       1.2835000       1.3290000   -0.0052500000       341.47400       2.3270159     0.021070204
       2751.0000       289.73180       98716.529       12099.980       1.0775000       1.3015000    -0.042500000       341.65500       2.2726863     0.016943754
       2756.0000       289.74558       98720.226       12118.340      0.72100000      0.84475000    -0.049500000       342.05000       2.4956685     0.022909417
       2761.0000       289.79198       98734.390       12141.451      0.43975000       1.1572500    -0.045750000       341.90800       2.3079580     0.031328274
       2766.0000       289.82382       98742.568       12152.208      0.20175000      0.78175000      0.27025000       342.52500       2.9581186     0.031144728
       2771.0000       289.91167       98757.726       12184.979     -0.28100000      0.56850000      0.52675000       342.90500       3.1124503     0.022832515
       2776.0000       289.87076       98760.098       12144.085      0.37650000      0.49175000     0.069500010       342.50300       3.0282985     0.025235898
       2781.0000       289.88832       98757.602       12147.920     -0.58250000      0.33675000      0.35000000       342.26400       2.5061266     0.021477011
       2786.0000       289.94596       98742.779       12190.285     -0.33175000      0.53050010      0.14150000       341.92700       2.3514270     0.021445169
       2791.0000       289.99456       98734.792       12225.467     -0.66600000       1.6007500     0.090000000       342.20000       2.2692007     0.022053012
       2796.0000       290.06975       98720.281       12279.522     -0.48450000       1.9927500     0.067250010       342.11300       2.4058810     0.025441179
       2802.0000       290.16492       98716.666       12350.439     -0.20775000       2.2465000     -0.32100000       341.95200       3.9546901     0.025431395
       2807.0000       290.25659       98728.695       12402.674     -0.68825000       1.1190000     -0.46675000       342.12400       3.2127295     0.024829961
       2812.0000       290.31541       98735.811       12464.745     -0.25525000       1.0740000      0.33675000       342.16400       3.1943273     0.026358894
       2817.0000       290.37983       98754.803       12555.666      -1.4732500       2.4920000      0.32175000       342.56100       2.9567567     0.022913453
       2822.0000       290.41797       98759.107       12623.829     -0.28075000       2.8392500      0.27100000       342.37700       3.3005680     0.026255532
       2827.0000       290.37167       98750.419       12675.694      0.54150000       2.5475000     -0.27075000       342.47600       2.4642205     0.024665887
       2832.0000       290.39372       98745.218       12733.537      0.80350010       3.1482500     -0.62650000       342.51200       3.4692108     0.023896245
       2837.0000       290.48264       98725.543       12832.834     -0.14525000      0.61850010      0.41900000       343.33300       3.2403095     0.021844165
       2842.0000       290.51119       98721.373       12845.566      0.92325000       2.7385000     -0.19400000       342.81000       2.8811442     0.021275229
       2847.0000       290.54731       98729.877       12800.838      0.97225000       1.9135000     -0.37025000       342.71800       3.2175993     0.022761256
       2852.0000       290.56436       98735.195       12766.282       1.0302500       2.1267500      0.30000000       343.16500       3.2184164     0.024209349
       2857.0000       290.52367       98752.100       12665.527      0.26650000       1.4965000      0.45875000       342.57200       2.9611987     0.021812501
       2862.0000       290.49320       98758.631       12584.880     -0.50625000       2.0430000     -0.18125000       342.66100       3.1725764     0.024608903
       2867.0000       290.47924       98760.001       12535.769      0.35475000       2.2282500     -0.41325000       342.63500       3.4545441     0.024938325
       2872.0000       290.44786       98756.500       12471.849     -0.13500000       3.5410000     -0.53650000       341.94400       3.4194911     0.024462306
       2877.0000       290.37480       98739.536       12368.187     -0.43300000       3.7172500     -0.19475000       341.95000       3.2844661     0.019260338
       2882.0000       290.33627       98732.841       12303.022      0.11400000       2.1512500     0.096000000       342.42800       3.4894594     0.020056579
       2887.0000       290.31002       98722.536       12250.096     -0.34575000       1.5842500      0.61175000       342.87900       3.4921709     0.021020684
       2893.0000       290.28906       98723.183       12217.155      0.59775000       2.7612500     -0.19400000       342.77600       4.6798956     0.048901089
       2898.0000       290.30011       98742.298       12216.301     -0.19575000       2.1885000     0.016750000       342.84600       3.9426542     0.034968389
       2903.0000       290.30011       98748.543       12231.162      0.45000000       3.8185000     -0.16325000       342.27700       3.6338121     0.024180873
       2908.0000       290.28766       98758.516       12280.413     -0.46725000       3.0082500    -0.046250000       342.68500       3.0827838     0.020774120
       2913.0000       290.30163       98757.206       12315.798      0.69625000       1.6647500    -0.017750000       343.10700       3.2650544     0.023810958
       2918.0000       290.32548       98739.029       12370.568      0.96200010       1.9737500    -0.094500010       342.58000       2.4477747     0.018556773
       2923.0000       290.35907       98731.343       12402.627       1.7362500       2.4752500     -0.61075000       342.39900       2.5067636     0.020566396
       2928.0000       290.43334       98716.592       12397.396       1.6000000       1.8245000      0.26925000       342.28600       2.7669650     0.023565866
       2933.0000       290.46923       98717.195       12435.542       1.3232500       1.4375000      0.34850000       342.51100       3.4200208     0.029303980
       2938.0000       290.54888       98736.573       12524.422       1.4512500       1.6205000    -0.099250000       341.98100       3.2004848     0.020611824
       2943.0000       290.50911       98743.220       12539.079       1.9215000       2.3770000     0.036250000       341.66500       2.8686796     0.021042639
       2948.0000       290.37401       98760.687       12565.640       1.4382500       1.2185000     -0.38575000       342.07600       3.2511609     0.021127060
       2953.0000       290.26639       98758.229       12529.335       1.6275000       1.5957500    -0.076000010       341.80800       2.6476364     0.019124125
       2958.0000       290.01599       98724.922       12348.584       1.5767500       1.1205000      0.41800000       341.92800       2.7728582     0.021083321
       2963.0000       289.93763       98720.038       12292.547       1.0162500       1.9142500    -0.087000000       342.15800       3.3453698     0.029969917
       2968.0000       289.96025       98720.550       12278.015      0.73050000       1.4960000     -0.19550000       342.55500       3.9367916     0.038764080
       2973.0000       289.99537       98723.861       12265.954      0.66325000       1.5490000     0.020250000       342.90800       4.3185721     0.041129585
       2978.0000       290.15260       98755.353       12316.156       1.9890000       2.8470000     -0.16125000       342.04600       2.5828160     0.021331369
       2984.0000       290.25375       98761.316       12353.344       1.0900000       3.1275000     -0.13250000       342.39400       3.4889992     0.025561267
       2989.0000       290.36335       98749.122       12381.647      0.58225000       2.6972500     0.059250000       342.37700       3.5022200     0.025971176
       2994.0000       290.37820       98742.832       12392.764      0.41250000       2.5502500      0.35225000       342.44000       3.1434641     0.019986925
       2999.0000       290.31511       98722.934       12413.892       1.8790000       2.3557500      0.31625000       342.10900       3.1282202     0.023186635
       3004.0000       290.28898       98721.550       12413.146      0.82950000       1.6927500      0.65025000       342.36800       2.4897461     0.021213193
       3009.0000       290.22306       98736.453       12384.389       1.3155000       1.8585000     0.077000010       342.45200       3.2216567     0.026691847
       3014.0000       290.16279       98736.244       12349.857      0.96300010       1.9012500     0.064250000       342.31900       3.6449935     0.024054610
       3019.0000       290.10481       98736.383       12286.159       1.0187500       2.0557500     -0.48350000       341.97900       3.5240623     0.019365186
       3024.0000       290.08128       98736.098       12275.339      0.34275000       2.4287500     -0.42225000       342.12900       3.5101979     0.019426966
       3029.0000       290.03125       98724.601       12266.625      0.63525000       2.3317500     -0.17225000       341.91100       3.8295807     0.031168797
       3034.0000       290.04086       98722.522       12278.615      0.43925000       2.4112500     -0.13025000       341.89400       2.9317811     0.020824408
       3039.0000       290.12996       98726.865       12337.328      0.84600000       2.4252500     -0.21675000       341.80200       2.8186541     0.026751061
       3044.0000       290.18036       98733.201       12387.250       1.1720000       2.0792500     -0.14950000       341.78500       3.1246849     0.022667497
       3049.0000       290.24246       98744.294       12447.385       1.6297500       1.5812500      0.45875000       342.40800       3.8525128     0.023667987
       3054.0000       290.27636       98748.696       12481.290      0.88875000       1.3450000     -0.51475000       342.14300       2.8888083     0.020487750
       3059.0000       290.28801       98759.277       12510.059      0.72600000      0.98175010      0.16250000       342.14500       3.8959758     0.025085809
       3064.0000       290.31782       98756.551       12551.205      0.90925000      0.80300000     0.010250000       342.84300       3.5999404     0.023979858
       3069.0000       290.35330       98734.497       12591.620      0.66875000       1.5062500      0.26025000       342.71700       3.7468818     0.030595012
       3075.0000       290.35635       98732.066       12597.470      0.39350000       1.9485000    -0.058250000       342.10300       2.8377168     0.020885879
       3080.0000       290.35840       98732.834       12612.021      0.69200000       1.8577500      0.14750000       342.43300       3.1900426     0.021431498
       3085.0000       290.34952       98735.507       12599.226      0.46300000      0.98600010   -0.0082500000       342.89100       3.6137528     0.033912163
       3090.0000       290.30623       98753.709       12530.835      0.11450000      0.84950010      0.10675000       342.58100       3.8818846     0.040934015
       3095.0000       290.27609       98751.489       12498.232       1.8260000       1.7210000     -0.43100000       342.37400       4.4019270     0.037309869
       3100.0000       290.25369       98733.690       12484.332       1.3735000       2.5080000     -0.44075000       342.12900       2.9705943     0.019946842
       3105.0000       290.23375       98733.290       12458.602       1.1377500       2.7525000     -0.24025000       341.70300       2.6504922     0.019634129
       3110.0000       290.18779       98732.178       12413.930       1.9060000       1.6375000     -0.22125000       342.11100       2.8986223     0.020140460
       3115.0000       290.19515       98736.609       12403.731       1.5337500       2.2630000     -0.27200000       341.74300       3.2837523     0.020719452
       3120.0000       290.23592       98759.369       12413.285      0.68775000       1.4735000    -0.089000000       342.16100       2.9603315     0.020520516
       3125.0000       290.27511       98757.079       12412.846       1.1055000       1.0000000     -0.10875000       342.42700       3.1433928     0.028755322
       3130.0000       290.34912       98739.531       12427.672       1.0967500       1.0305000      0.23250000       342.15400       3.1152949     0.020256312
       3135.0000       290.38062       98738.373       12427.849       1.2890000       1.3522500    -0.029000000       342.21400       2.6391969     0.020112671
       3140.0000       290.39450       98732.044       12392.812       1.1912500       1.4632500    0.0045000000       342.68500       3.2553962     0.021631281
       3145.0000       290.42458       98735.350       12435.328      0.97575000      0.43300000      0.14825000       342.49100       3.5648656     0.026338602
       3150.0000       290.44584       98759.548       12505.741      0.19375000       1.6672500      0.67450000       342.64100       4.3155100     0.024459975
       3155.0000       290.46545       98757.452       12592.626      0.29250000       2.0042500      0.36325000       342.21400       3.5842574     0.040632814
       3161.0000       290.50574       98738.858       12774.680       1.3427500       1.2700000      0.77475010       342.93600       3.6497153     0.027154726
       3166.0000       290.51449       98738.019       12841.688       1.4485000      0.78150000     -0.16925000       341.70500       2.9516276     0.018215533
       3171.0000       290.50648       98731.974       12907.274       1.3332500       1.4210000     -0.21575000       342.12300       3.6395080     0.017358752
       3176.0000       290.48492       98736.753       12866.575      0.93600000      0.49275000    -0.049500000       342.16000       4.1723045     0.023455941
       3181.0000       290.44425       98758.858       12736.566      0.87675010      0.87575010    -0.056000000       341.93800       3.2538086     0.019466685
       3186.0000       290.46002       98749.573       12666.955       1.0975000      0.97300000    -0.082250010       341.59300       3.0028717     0.020554330
       3191.0000       290.45001       98745.629       12612.674       1.0240000       1.1267500     -0.62375000       341.74800       3.3320633     0.028562620
       3196.0000       290.47025       98730.224       12666.470       1.1662500      0.68650000    0.0075000000       342.06500       3.0872215     0.017950475
       3201.0000       290.46286       98726.496       12648.177      0.66275000      0.83525000     -0.34650000       341.69000       2.9295419     0.018456995
       3206.0000       290.43094       98730.143       12593.997      0.84225000       1.0730000     -0.25775000       342.08500       2.7555256     0.020546381
       3211.0000       290.33208       98749.131       12476.036      0.17950000      0.50700000     0.085500000       342.46500       3.4158240     0.020705938
       3216.0000       290.34672       98742.324       12452.677      0.64300000      0.79775010    -0.063500000       342.99700       3.0610315     0.019314774
       3221.0000       290.41707       98730.023       12433.707      0.22700000       1.1350000      0.22850000       342.30300       3.5942830     0.020760177
       3226.0000       290.36256       98715.435       12431.095   -0.0055000000       2.0942500     -0.32100000       342.07100       4.4060454     0.025927914
       3231.0000       290.31591       98710.377       12410.596      0.94275000       1.5517500      0.52725010       342.32200       3.3159534     0.021175976
       3236.0000       290.11316       98736.513       12297.204      0.45750000       1.7195000     -0.44050000       342.14600       2.7645900     0.023417194
       3241.0000       290.01844       98744.152       12243.197       1.1437500       1.0100000     -0.26325000       342.08500       2.9821830     0.023302126
       3246.0000       290.03013       98733.746       12234.627      0.67250000       2.0087500     -0.49175000       342.12700       2.4909090     0.019615308
       3252.0000       290.04205       98734.924       12231.973      0.49475000       2.5570000     -0.34700000       341.93200       2.7119070     0.019211065
       3257.0000       290.09396       98736.199       12236.060      0.27650000       2.2442500     -0.18025000       342.29500       2.9513537     0.019931568
       3262.0000       290.15533       98734.372       12284.416      0.51125000       1.7007500     -0.45500000       342.28000       2.7315228     0.022471161
       3267.0000       290.27173       98741.733       12398.172     -0.46650000      0.77600000     0.034750000       343.13500       2.6431379     0.023986562
       3272.0000       290.31965       98742.275       12462.013     -0.70500000      0.99925010      0.87300000       343.41500       3.0959740     0.020088827
       3277.0000       290.37380       98723.016       12568.457     -0.46425000       2.1900000     -0.35075000       342.08600       2.9906793     0.020336034
       3282.0000       290.36936       98721.580       12607.746     -0.40125000       2.1292500    -0.045000000       342.22000       3.5220104     0.025312381
       3287.0000       290.24143       98740.601       12552.939      -1.1910000       3.5200000     -0.39425000       342.14200       3.3175666     0.022245174
       3292.0000       290.18313       98742.212       12526.073      0.22525000       2.8077500     -0.51800000       342.46300       3.7595680     0.027341712
       3297.0000       290.11968       98738.687       12474.377      0.60875000       1.3835000    -0.042250000       342.83500       3.3343621     0.023027889
       3302.0000       290.08267       98741.511       12438.988      0.65100000       2.1685000     -0.19500000       342.70900       3.6772001     0.024735137
       3307.0000       290.07250       98734.679       12406.198      0.54225000       2.1315000      0.86450000       342.97600       2.8246871     0.022314692
       3312.0000       290.09559       98733.224       12391.682      0.73750000       2.3322500     -0.68925010       342.50000       2.7200240     0.019879033
       3317.0000       290.16965       98751.604       12405.254      0.44725000       1.7232500    -0.018500000       342.83800       3.1753180     0.029916192
       3322.0000       290.21020       98753.921       12396.161     -0.26025000       3.2595000     -0.65025000       341.67700       3.3582573     0.021845909
       3327.0000       290.32371       98734.520       12401.953     -0.25450000       2.7085000     0.030500000       341.86100       3.0963606     0.025536432
       3332.0000       290.32685       98733.175       12379.707     -0.18550000       2.7525000    -0.094000000       342.05400       3.2395965     0.025112720
       3337.0000       290.21249       98742.628       12317.463     -0.61125000       2.1682500      0.13700000       342.34100       3.2343351     0.021088765
       3343.0000       290.12624       98740.015       12258.717     -0.50325000       1.5587500      0.31150000       342.38700       3.3397136     0.022439174
       3348.0000       289.97819       98739.331       12188.736    -0.096000000       1.4240000     -0.12875000       342.11200       2.7666976     0.021781419
       3353.0000       289.90967       98741.902       12150.102     -0.28900000       1.1682500    -0.079500000       342.35600       3.3766421     0.023500106
       3358.0000       289.90586       98734.009       12122.451      0.55800000       1.7087500     -0.23000000       342.42900       3.0619169     0.023810623
       3363.0000       289.88960       98733.520       12112.071       1.2430000       1.7167500     -0.40650000       342.49600       2.8548102     0.020290329
       3368.0000       289.88709       98752.636       12129.835      0.59450000       1.5462500     -0.63275000       342.71800       2.6807216     0.019766905
       3373.0000       289.90071       98753.500       12142.957      0.36275000       1.7972500     -0.46875000       342.77800       3.3452722     0.025855103
       3378.0000       289.88618       98735.021       12130.924       1.1867500       1.7882500     -0.31925000       342.37500       3.4025939     0.021999329
       3383.0000       289.96065       98733.160       12190.603      0.85500000       1.4707500    -0.070250000       342.37900       3.1074600     0.023384225
       3388.0000       290.14387       98736.907       12300.711      0.42275000       1.6692500   -0.0015000000       342.64700       3.9827420     0.029960849
       3393.0000       290.24021       98733.952       12397.499      0.39900000       1.5310000     0.010500000       342.53100       2.7575167     0.019612493
       3398.0000       290.40431       98736.130       12601.933      0.57050000       1.8442500      0.21975000       343.31700       2.4377011     0.022653903
       3403.0000       290.44189       98736.421       12668.522      0.34275000       1.8870000     0.075250010       342.71800       3.2906252     0.018109587
       3408.0000       290.32214       98725.579       12626.142     0.051000000       2.4192500     -0.42700000       342.33100       3.4734578     0.023908819
       3413.0000       290.28174       98722.679       12626.027      0.65475000       2.0497500    -0.097500000       342.56300       2.9000344     0.019787924
       3418.0000       290.20960       98729.770       12576.066      0.35725000       1.3300000      0.23800000       343.38700       2.8537881     0.018342502
       3423.0000       290.17767       98731.360       12544.263     0.042000000       1.9852500     -0.11025000       343.36400       3.1916887     0.019250486
       3428.0000       290.19992       98726.440       12548.141      0.92175010       2.6610000     -0.51075000       342.61700       2.4773706     0.021058202
       3434.0000       290.19978       98731.775       12519.834      0.94050000       2.4297500    -0.034500000       342.81600       3.1390120     0.019533985
       3439.0000       290.17727       98749.749       12443.994      0.85700010       2.5122500      0.82850000       343.19800       3.1369670     0.017073252
       3444.0000       290.21037       98746.008       12431.703     -0.37475000       4.3800000     -0.30275000       341.99400       2.4003700     0.019850561
       3449.0000       290.27331       98728.242       12441.999     -0.32200000       3.2867500     -0.21925000       341.59000       2.4195378     0.014549017
       3454.0000       290.33005       98730.236       12465.593     -0.42250000       3.3855000      0.42100000       342.00900       2.8800999     0.018763980
       3459.0000       290.41920       98730.660       12519.376     -0.30550000       1.7815000      0.68475000       342.89600       2.7943091     0.019820336
       3464.0000       290.49935       98727.879       12580.092      0.25975000       2.8057500     -0.12825000       342.26900       3.6887274     0.026316540
       3469.0000       290.59458       98739.578       12691.182      0.10250000       2.1315000    -0.012500000       343.02900       3.7341483     0.018154167
       3474.0000       290.63174       98744.586       12714.310       1.3802500       2.1892500      0.27925000       343.25300       2.6549679     0.021170475
       3479.0000       290.65776       98735.184       12709.156       1.6195000       2.6285000     -0.21725000       341.63100       2.4811407     0.018350777
       3484.0000       290.66480       98732.491       12704.733      0.77750000       2.5887500     -0.28975000       342.09800       3.6323341     0.021229145
       3489.0000       290.57926       98741.494       12603.680      0.76400010       1.6182500      0.30000000       343.02000       2.8403180     0.018386190
       3494.0000       290.59832       98741.631       12618.539      0.74725000       2.2640000     -0.19700000       342.10200       2.9186356     0.018760101
       3499.0000       290.69671       98728.063       12727.028      0.57725000       2.3705000     -0.28350000       342.05900       2.8931888     0.015003990
       3504.0000       290.72056       98728.507       12767.793      0.28800000       1.6732500     -0.27375000       342.28600       2.9145421     0.019470461
       3509.0000       290.75674       98742.004       12838.368      0.53400000       1.7972500      0.31675000       342.76200       3.0865469     0.017615853
       3514.0000       290.76395       98741.056       12852.367      0.42875000       2.6707500     -0.44300000       342.21900       2.9805624     0.016278997
       3519.0000       290.71272       98734.096       12817.774      0.15075000       2.0400000     -0.73500000       342.34400       2.7267950     0.020912738
       3525.0000       290.67737       98736.110       12761.565     -0.28325000       2.0275000     -0.57000010       342.53300       3.1287899     0.016812679
       3530.0000       290.67394       98737.597       12683.469    -0.036250000       2.1547500      0.33550000       342.83400       2.8128028     0.014252119
       3535.0000       290.61581       98730.781       12621.204      0.57050000      0.96950010      0.44675000       343.48300       3.5154163     0.018076553
       3540.0000       290.51396       98723.615       12541.894       1.1337500       1.5405000     -0.38750000       342.34300       2.5075708     0.013012318
       3545.0000       290.44341       98726.387       12466.322       2.4122500       2.3167500      0.12300000       342.20600       2.4967883     0.016047870
       3550.0000       290.34682       98726.501       12392.841     -0.12625000       2.4697500      0.12325000       343.25700       2.8788645     0.020868804
       3555.0000       290.30407       98721.499       12338.658       1.1297500       3.6552500     -0.47950000       341.60300       3.2234191     0.021921520
       3560.0000       290.27033       98724.139       12251.179      0.19025000       2.4760000     -0.27850000       341.70500       3.5033177     0.017743955
       3565.0000       290.31489       98729.011       12266.171     -0.36725000       2.7087500      0.16950000       342.49400       3.1555109     0.020739145
       3570.0000       290.42686       98724.243       12352.512     0.018250000       1.6682500     -0.37975000       342.13100       3.4158054     0.018456326
       3575.0000       290.50666       98723.108       12415.308     0.068000000       2.6800000     -0.13350000       342.13700       3.1993919     0.020365650
       3580.0000       290.66243       98736.981       12531.497      0.82600000       1.7610000    -0.070000000       342.80900       3.1919325     0.015995933
       3585.0000       290.69733       98738.500       12606.865       1.1805000       2.3445000      0.31500000       342.70900       3.4010110     0.018690602
       3590.0000       290.66509       98722.002       12659.704      0.76550000       3.1052500     -0.39000000       342.48500       2.9430685     0.011619025
       3595.0000       290.63758       98724.306       12716.222       1.1885000       2.3437500     -0.73950000       342.48600       3.0323416     0.019662382
       3600.0000       290.55044       98739.941       12781.096       1.3700000       2.4335000     -0.13400000       342.43000       3.0193628     0.021421881
       3605.0000       290.51947       98745.020       12816.808       1.5350000       2.2097500     -0.57825010       341.69600       3.2612997     0.015072322
       3610.0000       290.50647       98750.977       12852.454      0.89875010       1.8752500      0.17825000       342.06500       2.9010526     0.016630556
       3616.0000       290.47091       98753.430       12818.492       1.0707500      0.44600000      0.57750000       343.17600       3.0090273     0.013656131
       3621.0000       290.45134       98752.266       12749.832      0.51400000       2.3885000   -0.0040000000       341.95200       2.8192264     0.018570900
       3626.0000       290.43121       98745.817       12689.093      0.49050000       2.2535000      0.84350000       342.73000       2.7718192     0.020112267
       3631.0000       290.40025       98733.391       12584.310      0.66625010       3.0955000     0.085000000       342.23600       3.5935102     0.020926164
       3636.0000       290.36944       98738.286       12521.426      0.86325000       2.3392500     -0.28950000       341.95100       3.7451096     0.018445852
       3641.0000       290.34933       98735.303       12471.950       1.0920000       1.4492500      0.34675000       343.27400       3.4076894     0.016998124
       3646.0000       290.31466       98732.334       12419.452       1.1317500       2.7647500      0.10350000       341.80400       2.7840527     0.018304735
       3651.0000       290.29362       98735.296       12387.515       1.3870000       1.8685000     -0.20675000       342.05800       3.6070774     0.020405019
       3656.0000       290.28492       98738.259       12372.911      0.75050000       1.4882500    -0.094250000       342.60500       3.2739344     0.019409253
       3661.0000       290.30011       98736.387       12379.481       1.6367500       1.5857500    -0.034500000       342.80600       3.3132589     0.019160686
       3666.0000       290.30011       98729.048       12394.212       1.7917500       1.8127500    -0.098750000       342.07600       3.4279992     0.019244411
       3671.0000       290.31223       98723.966       12436.932       1.2145000       1.8827500     -0.24100000       343.18900       2.9366519     0.013956190
       3676.0000       290.25401       98727.524       12410.072       1.1505000       1.9632500     -0.88850000       342.45800       3.0508730     0.018634969
       3681.0000       290.20504       98724.346       12401.467      0.44175000       2.3812500     -0.41650000       342.17400       3.4968920     0.019811568
       3686.0000       290.08355       98727.949       12354.014      0.88375000       2.0787500      0.38075000       342.64900       3.7250542     0.018561409
       3691.0000       290.03049       98736.019       12337.375       2.0842500       2.5205000     -0.44725000       342.43800       3.9502853     0.026877867
       3696.0000       290.04508       98742.833       12370.107       1.8750000       2.6392500     -0.25850000       342.56300       3.3579433     0.016937238
       3701.0000       290.04369       98740.968       12388.103       2.3310000       1.7760000      0.40800000       342.44400       3.3424274     0.021524757
       3707.0000       290.06098       98737.267       12398.983       2.3830000       2.0910000    -0.089250010       341.84900       3.4883177     0.016158899
       3712.0000       290.10232       98741.268       12429.433       1.8865000       1.1480000    -0.058750000       342.68600       3.6679502     0.020796236
       3717.0000       290.15379       98743.596       12477.571       2.9582500       1.9712500      0.23950000       342.36000       3.0679792     0.017910300
       3722.0000       290.20519       98739.545       12514.530       2.4150000       1.4427500     -0.11400000       341.91700       3.1925103     0.020593486
       3727.0000       290.27312       98737.005       12530.933       2.6062500      0.95875010     0.050250000       342.26700       3.1366710     0.019744041
       3732.0000       290.36464       98740.969       12603.307       2.3032500      0.60000000      0.47925000       343.24100       3.3256546     0.020268335
       3737.0000       290.52087       98743.382       12743.571       1.7537500       2.2510000     -0.21475000       342.08600       3.2438667     0.019687998
       3742.0000       290.57642       98739.428       12811.564       1.8982500      0.90625010     0.019750000       342.03500       3.4540010     0.021531337
       3747.0000       290.61947       98738.658       12921.704      0.65450000       1.4262500     0.079250000       342.28300       2.5700954     0.018440992
       3752.0000       290.62388       98741.504       12958.482      0.69450000       1.0957500     -0.41575000       342.06100       3.4551039     0.023644454
       3757.0000       290.45801       98738.813       12849.528      0.98775010      0.67450000      0.16925000       342.39000       3.8225144     0.024681101
       3762.0000       290.42311       98733.920       12821.103      0.67850010      0.59000000     0.052250000       342.63500       4.7187995     0.022708515
       3767.0000       290.49276       98732.720       12840.008      0.59425000       1.4675000     -0.32350000       342.79300       3.6936805     0.021961870
       3772.0000       290.50293       98735.693       12811.823       1.4357500       1.7852500     -0.23300000       342.25800       3.6818393     0.025351441
       3777.0000       290.51898       98737.758       12769.097       1.3700000       1.2822500    -0.044000000       342.64500       3.1044339     0.021679092
       3782.0000       290.55880       98734.816       12748.497      0.25000000       1.3682500     0.084250000       343.01500       3.7265381     0.023152706
       3787.0000       290.57781       98732.840       12693.571      0.41850000       1.3367500     0.067250010       343.19700       2.7743061     0.014914867
       3793.0000       290.60443       98736.395       12660.427      0.78925000       1.5480000     -0.24875000       342.84000       2.9784312     0.019254594
       3798.0000       290.71715       98735.728       12701.120       1.3052500       1.8297500      0.34750000       342.71300       3.2006811     0.017248838
       3803.0000       290.72187       98734.165       12689.394      0.92500010       2.7612500     -0.12725000       342.55600       3.1343249     0.023866804
       3808.0000       290.62444       98741.097       12639.125      0.29425000       2.4160000      0.28575000       343.40100       3.0422750     0.024530899
       3813.0000       290.58444       98742.055       12615.748     -0.50025000       1.4972500      0.64650010       342.80500       3.1151570     0.021313331
       3818.0000       290.52275       98728.676       12582.369      0.35575000       1.0850000      0.49500000       343.41600       3.2856734     0.022746390
       3823.0000       290.47619       98728.087       12566.323     -0.71400000       1.3120000     -0.57550000       342.21100       2.8153960     0.020271196
       3828.0000       290.44916       98740.450       12561.205     0.091750000       1.4475000     -0.21150000       342.96000       3.4090378     0.024538880
       3833.0000       290.44308       98741.677       12578.022     -0.41025000       2.1045000     -0.73150000       342.25200       2.8424508     0.023815477
       3838.0000       290.42876       98739.085       12615.020    -0.040250000       2.0827500     -0.24275000       342.35100       2.5475590     0.018586369
       3843.0000       290.44684       98741.059       12647.931      0.25350000      0.99100010      0.37675000       342.96000       2.8156015     0.020750927
       3848.0000       290.53285       98742.858       12713.366     -0.10075000       1.2145000      0.22525000       343.57400       3.1769153     0.031432259
       3853.0000       290.56940       98739.480       12749.073     -0.27025000       2.1995000   -0.0042500000       342.93800       2.9902624     0.023067220
       3858.0000       290.56997       98733.815       12743.135     -0.72900000       2.2677500     -0.15625000       342.56300       2.7202023     0.021741822
       3863.0000       290.61394       98735.164       12782.460     -0.61800000       2.1125000      0.41475000       342.76000       3.2621312     0.018683381
       3868.0000       290.70241       98739.783       12866.853     -0.80150000       2.8167500     -0.43075000       342.12100       3.0767302     0.024094553
       3873.0000       290.71460       98734.116       12890.848     -0.43450000       2.3097500      0.21850000       342.17200       3.1947071     0.027232851
       3878.0000       290.71451       98721.944       12926.779     -0.77650000       1.3525000     0.059750000       341.84000       3.7719635     0.022118787
       3884.0000       290.70319       98726.070       12912.054      -1.2255000       1.7257500     -0.53900000       341.79100       3.9434912     0.023541823
       3889.0000       290.60114       98732.295       12812.131     -0.48750000       1.5600000     -0.20825000       341.88300       3.6279213     0.022904706
       3894.0000       290.57361       98727.658       12761.453     -0.78375010       1.8505000    -0.090750000       342.24000       3.0883682     0.018921577
       3899.0000       290.60034       98728.941       12705.767     -0.32050000       1.9097500      0.23025000       342.52700       2.9994251     0.029075838
       3904.0000       290.60051       98733.441       12677.657    -0.067000000       1.3727500      0.22175000       342.76300       2.8303916     0.024213600
       3909.0000       290.61174       98725.265       12689.304     -0.17900000       2.4480000   -0.0030000000       342.55300       3.8035978     0.023602793
       3914.0000       290.59593       98722.081       12652.842     -0.56425010       2.6727500     -0.29200000       341.87400       3.0588497     0.019768298
       3919.0000       290.55830       98736.260       12605.433     -0.51950000       2.1120000    -0.015250000       342.23000       3.4867448     0.021372996
       3924.0000       290.53850       98738.754       12564.873      0.21800000       1.0470000      0.47900000       343.08300       3.7210175     0.021690576
       3929.0000       290.47809       98724.914       12457.312    -0.093500000       1.4542500      0.15650000       342.61000       3.9104155     0.026330143
       3934.0000       290.49778       98722.981       12457.831      0.61600010       2.3425000     -0.37025000       341.91300       3.4878060     0.023804608
       3939.0000       290.57328       98731.185       12523.488      0.32175000       1.6100000     -0.31850000       342.03000       3.5298421     0.021176727
       3944.0000       290.62984       98730.905       12581.720      0.75000010       1.5602500    -0.098500010       342.10500       3.1304616     0.020837531
       3949.0000       290.74158       98721.494       12703.643      0.51550000       1.5947500     -0.10950000       342.31600       2.6869386     0.021000742
       3954.0000       290.78916       98725.951       12780.515      0.85200010       2.3092500     0.035250000       342.49100       3.9619217     0.021535245
       3959.0000       290.78875       98744.124       12825.555      0.34550000       2.7605000     -0.48600000       342.15200       3.3364699     0.024333474
       3964.0000       290.81878       98741.076       12907.969      0.49625000       2.7590000      0.25075000       342.25400       3.5009655     0.024366134
       3969.0000       290.86469       98728.276       13040.544       2.2555000       3.5630000    -0.016750000       342.34300       4.0076202     0.027818194
       3975.0000       290.84718       98732.500       13079.463       1.0660000       2.3850000     -0.23225000       342.19800       2.5734464     0.020919074
       3980.0000       290.82255       98729.487       13096.205       2.2682500       2.3147500     -0.96125010       342.49600       3.0440743     0.025206483
       3985.0000       290.77447       98727.390       13072.672       2.3477500       2.1035000     -0.61200000       342.35800       3.3631804     0.020378188
       3990.0000       290.64900       98742.573       12954.757       1.6377500       3.3765000     -0.24675000       342.87800       4.4638164     0.027336731
       3995.0000       290.60618       98743.307       12899.701       1.1867500       2.0542500      0.12450000       343.19900       3.3042299     0.026339633
       4000.0000       290.58779       98723.593       12858.521       1.0127500       2.1077500     0.014750000       342.61500       2.7690662     0.018467144
       4005.0000       290.59499       98721.024       12824.823     -0.45000000      0.72525000     -0.68775000       343.10200       2.7364813     0.019565319
       4010.0000       290.64592       98731.620       12799.058      0.78675000       3.0215000     -0.27150000       342.45400       2.9219128     0.021799631
       4015.0000       290.66571       98730.916       12763.769      0.67625000       3.6377500     -0.66650000       343.05900       2.8135979     0.019218573
       4020.0000       290.71322       98722.298       12746.514       1.2540000       1.5550000     0.041750000       343.20900       3.2134081     0.019657784
       4025.0000       290.70554       98727.957       12699.013     -0.43150000       3.6275000     -0.20650000       342.43500       3.3024877     0.019550089
       4030.0000       290.65467       98743.633       12616.562       1.4652500       3.0590000    -0.060250000       342.88300       3.0367205     0.017146810
       4035.0000       290.63501       98739.174       12581.228       1.0212500       2.3445000     0.024500000       342.23700       2.5517413     0.019068901
       4040.0000       290.58775       98728.886       12539.930      0.88100000       3.0597500    -0.014750000       342.46700       2.6243734     0.020086851
       4045.0000       290.59515       98730.670       12548.693     0.028500000       3.5382500     -0.42025000       343.00300       3.3928881     0.018664767
       4050.0000       290.64628       98723.384       12604.608      0.82100000       2.5617500     -0.29200000       342.92600       3.5002055     0.021673455
       4055.0000       290.66619       98722.982       12644.501       1.7980000       2.8000000     -0.92100010       342.57200       4.2806526     0.020247405
       4060.0000       290.72117       98742.568       12714.913       1.3700000       1.7757500     0.020750000       342.59400       3.5559735     0.021424847
       4066.0000       290.68599       98743.815       12755.353       1.0700000       1.7222500     -0.38225000       342.75300       3.3822992     0.020196929
       4071.0000       290.58245       98727.821       12758.764       1.2150000       1.9715000    -0.016500000       343.88400       2.8322488     0.020795157
       4076.0000       290.60655       98730.409       12831.966      0.66125010      0.80075000      0.74225000       343.97300       2.9821304     0.022776235
       4081.0000       290.63802       98743.286       12922.930       2.9622500       3.2677500     -0.41650000       342.33500       3.5830568     0.026210479
       4086.0000       290.76940       98724.576       13076.537       2.2947500       2.3477500     -0.24475000       342.47600       3.1229486     0.019143221
       4091.0000       290.82541       98723.013       13136.528       1.4450000       1.2907500     0.075000000       343.31800       2.6352642     0.021689597
       4096.0000       290.76994       98725.833       13070.401       1.4252500       2.5592500     -0.42625000       342.80700       3.3024867     0.018587798
       4101.0000       290.75015       98723.542       13046.637       2.5492500       2.6480000      0.30075000       342.81900       3.2729246     0.019799595
       4106.0000       290.73036       98724.946       13014.704       1.4827500       1.7065000    -0.019000000       343.81500       2.7945175     0.018498934
       4111.0000       290.70673       98744.383       12947.796       1.2730000       1.4625000      0.44625000       343.62100       3.4437106     0.019338447
       4116.0000       290.65490       98742.465       12887.362       2.2482500       2.8525000     -0.83675000       342.74700       2.7666130     0.020184038
       4121.0000       290.59934       98721.941       12850.002       2.4197500       2.2872500     -0.73275010       342.51000       2.6080276     0.018471850
       4126.0000       290.54396       98735.353       12770.362       2.0110000       3.0002500     0.065000010       342.62200       3.0543753     0.018822236
       4131.0000       290.49219       98736.682       12695.325       3.4945000       3.6665000      -1.0577500       342.79100       3.7692327     0.019353683
       4136.0000       290.45490       98732.357       12610.074       1.9962500       2.7002500     -0.44150000       342.32500       3.8298576     0.028678728
       4141.0000       290.44387       98735.320       12567.349       1.9730000       2.9435000     -0.32900000       342.54600       3.8158342     0.017856164
       4146.0000       290.46038       98736.983       12547.813       1.9627500       1.4320000     0.051250000       343.22100       3.0963820     0.021851066
       4151.0000       290.45068       98734.973       12528.255       1.8742500       2.3592500     -0.34225000       342.58600       3.3410576     0.018386458
       4157.0000       290.45695       98742.164       12552.631       3.2997500       4.6237500     -0.57900010       342.32200       3.7504280     0.020616076
       4162.0000       290.45573       98742.640       12570.867       2.2467500       3.3272500     0.090750000       342.09700       2.7815168     0.019818587
       4167.0000       290.39638       98723.250       12565.225       2.8595000       1.7397500      0.77700000       342.58800       3.0248634     0.016275140
       4172.0000       290.38876       98721.930       12587.804       2.7560000       2.1567500     -0.29500000       342.43000       3.0287731     0.018047753
       4177.0000       290.43441       98740.715       12648.759       2.8010000       1.9352500      0.51750000       342.98800       2.9160864     0.020425691
       4182.0000       290.45452       98742.461       12689.367       1.3605000       2.3750000     0.033000000       342.90100       3.5395879     0.018230325
       4187.0000       290.49033       98741.426       12742.857       1.9402500       1.9742500      0.21925000       342.85500       2.5657962     0.016375292
       4192.0000       290.50878       98742.051       12773.673      0.94675000       1.8527500     -0.78125010       343.04400       3.0693935     0.018744458
       4197.0000       290.52940       98724.651       12813.214       4.0865000       3.1540000     -0.80300000       342.41200       2.9334671     0.019233038
       4202.0000       290.50655       98721.547       12795.501       3.3090000       3.3870000     -0.54475000       341.78300       2.8269671     0.019723320
       4207.0000       290.41810       98736.066       12691.838       2.4527500       3.2140000      0.15675000       342.72600       2.7829544     0.019108377
       4212.0000       290.38948       98741.928       12657.858      0.95550010       2.1135000      0.78225000       342.99600       4.2212748     0.020249311
       4217.0000       290.32530       98748.335       12601.893       1.2610000       1.7100000      0.38975000       343.25700       3.9645231     0.022769710
       4222.0000       290.32982       98752.117       12588.530       2.7447500       4.0150000     -0.94375000       342.68300       2.7775663     0.020750426
       4227.0000       290.47324       98753.200       12687.191       2.0477500       2.0097500     -0.79625000       342.83000       2.6653033     0.014018533
       4232.0000       290.51994       98750.949       12712.933       2.1930000      0.84100000      0.73475000       343.06300       3.3377609     0.018777413
       4237.0000       290.51816       98744.931       12677.733       2.4337500       2.2125000      0.37100000       343.08300       2.6698664     0.013407032
       4242.0000       290.55798       98739.855       12697.622       2.0790000       2.3797500     -0.12100000       342.70300       3.4508161     0.017656733
       4248.0000       290.56607       98723.738       12724.741       2.3957500       2.4717500     -0.12900000       343.03600       2.9761028     0.018993367
       4253.0000       290.60387       98722.728       12756.974       2.3547500       1.7477500    -0.026500000       342.53100       2.7013445     0.017198942
       4258.0000       290.73910       98734.707       12855.472       2.9127500       1.5397500     0.033500000       342.43500       3.2002131     0.018644438
       4263.0000       290.77784       98736.276       12897.966       1.8625000       2.8497500     -0.54350000       342.18300       3.0913442     0.018790642
       4268.0000       290.74343       98741.067       12879.564       2.0302500       1.9290000     0.043250000       342.64700       3.0283931     0.019523460
       4273.0000       290.75327       98742.025       12912.285       2.7362500       1.9642500      0.59325000       342.14600       2.8614163     0.019454616
       4278.0000       290.75562       98728.582       12980.191       2.3890000       2.0665000      0.16400000       342.68600       3.9187772     0.024608937
       4283.0000       290.74555       98728.024       13001.984       1.3802500       2.4882500     0.098000000       342.76800       3.3182249     0.023242167
       4288.0000       290.75794       98741.791       13043.441       2.1382500       2.7347500    -0.053250000       343.25000       2.8431940     0.020398481
       4293.0000       290.75385       98741.611       13041.824       1.6135000       2.4552500      0.40350000       342.63000       3.0028546     0.016637614
       4298.0000       290.70610       98736.593       12978.010       2.5965000       2.9960000     -0.52575000       342.27000       2.5778832     0.016256016
       4303.0000       290.69012       98735.270       12930.811       1.6377500       1.9882500     -0.20825000       343.13600       2.7697859     0.017965402
       4308.0000       290.69986       98723.147       12878.492      0.99350010       2.1677500     -0.30625000       342.86000       2.7045017     0.016861380
       4313.0000       290.69970       98723.012       12822.437       1.2402500       2.1000000     -0.92325000       342.62600       2.6477692     0.018895427
       4318.0000       290.71298       98743.712       12750.679       1.8230000       2.1417500     -0.24025000       342.21600       3.2368518     0.025456076
       4323.0000       290.69924       98742.316       12691.967       1.3767500       1.4897500      0.14275000       342.85400       3.2100669     0.020692059
       4328.0000       290.67492       98726.370       12623.914       1.1327500       3.0660000     -0.52150010       342.57100       3.6756774     0.018048346
       4333.0000       290.64135       98723.712       12584.137      0.49325000       1.4277500    -0.074250010       342.97800       3.2763425     0.019805142
       4339.0000       290.54807       98710.581       12547.238       1.1712500       1.2585000    -0.093500000       343.03800       3.5795228     0.018794007
       4344.0000       290.53067       98713.003       12550.132       1.4622500       1.1135000      0.75125000       342.69500       3.0894818     0.023229164
       4349.0000       290.55383       98743.954       12608.348       1.6855000       1.1917500      0.31825000       342.23700       2.6866652     0.023320095
       4354.0000       290.54353       98744.059       12612.275      0.66750000      0.73200010      0.49550000       343.52900       3.1848183     0.034312227
       4359.0000       290.54531       98723.216       12594.418      0.81100000       1.9930000     -0.11725000       343.14500       2.9339411     0.018328040
       4364.0000       290.55525       98724.039       12617.654       1.3457500       2.4792500     -0.64125000       342.03600       2.8566337     0.017239756
       4369.0000       290.54302       98723.918       12631.247       1.3195000       1.7820000     -0.35475000       342.06100       3.3470209     0.027210352
       4374.0000       290.54919       98723.757       12660.563    -0.018250000       1.7595000    -0.093250010       342.27100       3.9299516     0.020353389
       4379.0000       290.58796       98745.157       12740.896      0.33325000       1.2070000      0.15650000       342.75200       3.8008573     0.020163070
       4384.0000       290.61805       98742.942       12794.987      0.82575010       1.9217500      0.20875000       343.44000       3.2479247     0.019170790
       4389.0000       290.64193       98712.471       12838.488       1.0520000       1.9045000     -0.70000000       343.22200       3.7595022     0.019759186
       4394.0000       290.66195       98711.942       12865.701       1.1452500       1.0637500      0.38500000       344.12400       2.8117160     0.021056434
       4399.0000       290.72249       98724.084       12914.153      0.55600010       1.4557500      0.38025000       342.42800       3.9879712     0.026208307
       4404.0000       290.70418       98726.711       12903.661      0.82425000       1.4395000      0.63475000       343.27200       3.5686216     0.017356984
       4409.0000       290.61554       98742.630       12825.477      0.46000000       1.0160000      0.78075000       343.99900       3.7560145     0.017887527
       4414.0000       290.57584       98743.786       12790.729       1.8730000       1.4132500     -0.12575000       342.89200       3.5749060     0.023184720
       4419.0000       290.50180       98722.816       12740.375       1.9782500       1.6130000     -0.50825000       342.79100       3.1190987     0.016619528
       4425.0000       290.47188       98723.591       12705.565       1.7702500      0.47150000     -0.11200000       343.07000       4.8447144     0.021238742
       4430.0000       290.50979       98735.260       12715.512      0.95500000       1.9587500   0.00050000000       342.82800       3.4941982     0.020116237
       4435.0000       290.49093       98736.357       12677.736      0.87125000       1.3705000      0.17875000       342.81000       3.6693339     0.021594285
       4440.0000       290.45409       98742.657       12612.222       1.1655000      0.18175000      0.38500000       344.16800       3.0323005     0.020613540
