MIRICO/SHELL project - Processed LDS file generated on
Mon Jul 10 20:20:00 2017
Time stamp for record start
05/11/2017  09:41:55.0000
Nb of points in the record
         879
Beam position index
       5.0000000
Beam angle (degrees)
       8.5390000
Open Path length (m)
       83.010000
****************** Temporal data record ************************
Elapsedtime_sec Temp_K Press_Pa Humidity_ppmv WindX_m/s WindY_m/s WindZ_m/s Speedofsound_m/s CH4vmr_ppmv CH4vmrerror_ppmv  
      0.00000000       288.64419       98743.998       11487.295     -0.53400000       1.7297500      0.36575000       341.57800       1.9955999    0.0077146364
       5.0000131       288.70012       98742.367       11496.301      -1.0137500       1.8995000    -0.070500000       341.63900       2.0319804    0.0083665829
       10.000026       288.71269       98745.389       11474.665   -0.0035000000       1.4437500  -0.00050000000       341.73700       2.0234810    0.0086489627
       14.999999       288.70068       98748.411       11432.494      0.21450000       3.0232500     -0.44600000       340.62700       2.0188307    0.0076435261
       20.000012       288.64438       98741.822       11349.769      0.10800000       3.0067500     -0.59750000       341.07200       2.0278657    0.0084934665
       25.000025       288.64565       98749.593       11315.193     -0.12475000       3.7317500     -0.26675000       341.18700       2.0272674    0.0088038087
       29.999998       288.64456       98773.185       11277.385     -0.27300000       2.9182500    -0.014250000       341.49300       1.9915413    0.0084597086
       35.000011       288.68502       98775.654       11292.214     -0.28625000       2.0150000     0.047000000       341.46700       2.0184950    0.0092607115
       40.000024       288.70663       98773.392       11303.051     -0.14550000       3.5997500     0.037000000       341.25700       2.0142716    0.0078388959
       44.999997       288.67023       98746.701       11304.721      0.48150000       1.7767500     -0.21600000       341.20500       2.0030276    0.0091647611
       50.000010       288.68786       98740.879       11336.470     -0.12375000       1.8615000     -0.27950000       341.27000       1.9931883     0.011126459
       56.000018       288.78137       98754.212       11403.935     -0.58625000       2.2807500     -0.52050000       340.89100       2.0216486    0.0095264796
       60.999991       288.81003       98755.227       11460.274     -0.10100000       1.5742500      0.17400000       341.69600       2.0371064    0.0089597280
       66.000004       288.87395       98767.854       11575.232     -0.42550000       3.2400000     -0.17575000       341.35200       2.0473488    0.0083529363
       71.000017       288.86880       98768.991       11623.767      0.19850000       2.2017500      0.86625000       342.06700       2.0399701    0.0091573945
       75.999990       288.75375       98739.073       11629.505      0.30650000       2.1255000     -0.65500000       341.69000       2.0273193    0.0097222000
       81.000003       288.68315       98734.901       11628.325      0.54200010       2.5210000     0.034000000       340.87900       2.0221991    0.0089642432
       86.000016       288.59858       98752.132       11583.349     -0.72125010       2.2970000     -0.68950000       340.57500       2.0536652    0.0091967698
       90.999989       288.53046       98756.064       11544.643     -0.74125000       2.8922500      0.14400000       341.23100       2.0310743    0.0082171293
       96.000002       288.47640       98772.852       11509.447      0.45400000       2.1170000      0.10775000       341.18800       2.0185353    0.0097455716
       101.00002       288.43820       98774.871       11460.942      0.13250000       2.1945000    -0.050250000       341.19500       2.0225956    0.0079132427
       106.00003       288.42472       98744.941       11398.095      -1.8247500       1.7257500      0.74000000       341.21300       2.0137126    0.0086559652
       111.00000       288.39476       98740.890       11332.857    -0.034250000       2.1882500     0.018500000       341.74900       2.0074247     0.010150043
       116.00001       288.36657       98750.390       11235.061     0.059000000       2.2982500      0.37400000       341.39100       2.0030057    0.0093222460
       121.00003       288.34677       98754.789       11178.675     -0.19800000       1.3672500      0.29950000       342.06500       2.0341678     0.010359268
       126.00000       288.30939       98782.465       11127.177     -0.69800000       1.3360000     0.085750010       341.63900       2.0408691     0.010420943
       131.00001       288.29023       98786.500       11105.191     0.027500000       1.3650000      0.81725000       341.82400       2.0065495     0.011185626
       136.00003       288.28565       98760.494       11128.871     -0.12250000       1.7335000     -0.20775000       341.15100       2.0055316     0.010967725
       141.00000       288.29679       98752.888       11150.418     -0.13575000       1.8237500     -0.62200000       340.92400       2.0159022     0.010689840
       147.00001       288.32397       98736.118       11196.499      0.25700000       1.3482500      0.87675010       341.75000       1.9901427     0.010226444
       152.00002       288.35793       98736.218       11238.456       1.7152500      0.96600000      0.81525000       341.21200       2.0280953    0.0085061030
       156.99999       288.41950       98763.249       11278.558      0.23225000       1.1920000     0.042500000       341.81800       2.0301403    0.0078171076
       162.00001       288.46961       98769.783       11342.335      0.59450000       1.3110000     0.035000000       341.90800       2.0143561    0.0088992529
       167.00002       288.50868       98774.976       11397.035     -0.15625000       1.5535000     -0.16900000       341.23600       1.9977974    0.0090316315
       171.99999       288.57277       98771.792       11511.174      0.66025000       1.2877500     -0.19525000       341.12000       2.0048006    0.0087901655
       177.00001       288.69720       98745.824       11755.330      0.10750000       1.6430000     0.041250000       342.46300       2.0158984    0.0087746829
       182.00002       288.72515       98740.728       11838.716      0.68600000       2.1150000      0.10100000       341.66200       2.0195216    0.0088322886
       186.99999       288.71402       98740.687       11894.955     -0.77075000      0.45450000     0.037000000       342.68700       2.0451163    0.0087514120
       192.00000       288.70680       98744.524       11903.548     -0.18825000       1.7465000      0.26325000       341.67100       2.0175408    0.0082130636
       197.00002       288.59683       98770.345       11744.251     -0.40225000       3.2610000      0.38875000       342.00700       2.0126949    0.0091015740
       201.99999       288.57849       98775.078       11682.113      0.19100000       1.9505000     -0.51700000       341.70100       2.0235003    0.0094810285
       207.00000       288.63782       98770.395       11670.266      0.66875000       1.9755000     -0.47450000       342.65100       2.0074362    0.0099320533
       212.00002       288.65780       98764.900       11627.759      0.58125000       2.1485000     0.034250000       341.32900       1.9822621     0.011455130
       216.99999       288.69509       98740.069       11584.905      0.56950000       2.8395000      0.21500000       341.61700       2.0331011    0.0077252301
       222.00000       288.71179       98735.161       11538.637      0.77200000       1.4242500    -0.037500000       341.50000       2.0212170    0.0080785226
       227.00002       288.69991       98739.986       11472.752      0.97350010       1.8942500      0.20575000       341.54800       2.0306157    0.0091570955
       233.00002       288.69978       98747.038       11414.086      0.39025000       2.5275000      0.15050000       341.50400       2.0029131    0.0081954522
       238.00000       288.72355       98770.648       11395.255      0.61250000       2.5752500     -0.44175000       341.02100       1.9985277     0.010010725
       243.00001       288.69060       98775.414       11328.170      0.88525000       1.9372500    -0.086000000       341.53300       2.0151025    0.0088428698
       248.00002       288.61599       98775.108       11224.096      0.73600010       1.3507500      0.19300000       341.68600       2.0158352    0.0085443918
       253.00000       288.57600       98769.039       11167.471       1.0322500       3.0515000     -0.87225000       341.31900       2.0175460    0.0092290878
       258.00001       288.48985       98747.515       11072.975     -0.73175000       2.6097500      0.35775000       342.28400       1.9967850    0.0099188593
       263.00002       288.47840       98738.706       11067.833     -0.16900000       1.9520000      0.66300000       342.16100       2.0210204    0.0082726126
       267.99999       288.56396       98727.141       11170.684     -0.57175000       2.4617500     -0.36925000       341.30800       1.9832949    0.0087460660
       273.00001       288.55115       98727.956       11188.105     -0.34650000       2.5430000     -0.40675000       341.14600       2.0116310    0.0086610626
       278.00002       288.50362       98740.513       11201.569      0.15275000       2.9987500     -0.29300000       340.58600       2.0235642    0.0089118280
       282.99999       288.49338       98749.610       11222.020     -0.38425000       1.1370000      0.12925000       341.14300       2.0053794     0.010300727
       288.00001       288.43112       98770.584       11187.570     -0.50775000       2.1935000      0.26975000       341.33300       2.0390233    0.0076919281
       293.00002       288.44030       98775.400       11220.119    0.0040000000       1.3760000      0.40725000       341.12000       2.0192510    0.0090684615
       297.99999       288.54065       98774.822       11325.084      0.91950010       1.0645000     -0.10750000       341.52700       2.0064908    0.0099738467
       303.00001       288.57464       98768.657       11373.385      0.48250000       1.4747500     -0.47175000       340.65800       2.0109724     0.010816895
       308.00002       288.58831       98748.616       11419.340      0.35275000       2.0797500     -0.36200000       340.72500       2.0194840     0.011530329
       312.99999       288.61841       98738.160       11450.861     -0.21100000       1.8992500     -0.17450000       340.63800       2.0048978    0.0080858162
       318.00001       288.63047       98722.864       11447.017      0.31400000       1.6165000     -0.10150000       341.01600       2.0306573     0.010818723
       324.00001       288.67476       98722.222       11470.248    0.0060000000       1.1345000     -0.27075000       341.10600       2.0395223    0.0087784606
       329.00003       288.75810       98730.554       11510.322      0.79925010       1.1067500     -0.25275000       341.22400       2.0304147    0.0095199048
       334.00000       288.77042       98741.148       11506.997      0.38475000      0.12975000      0.53025000       342.05100       2.0345923    0.0093402432
       339.00001       288.73999       98764.980       11477.931      0.30950000       1.2600000     -0.32775000       340.74700       2.0069057     0.010436785
       344.00003       288.76944       98774.441       11482.546      0.40875000       1.1262500     -0.22075000       340.84800       2.0317428     0.010131114
       349.00000       288.78182       98783.181       11464.631      0.85425000       1.1720000     0.065500010       341.64000       2.0589076    0.0089316011
       354.00001       288.82924       98782.872       11490.256      0.90325000      0.56900000    -0.057000000       341.60800       2.0084811    0.0095769623
       359.00002       288.95216       98771.783       11574.302       1.0472500      0.99375000      0.35075000       341.39600       1.9921347     0.010095776
       364.00000       288.99410       98765.886       11600.478      0.85850010       1.1752500     0.083500010       340.81300       2.0307695    0.0091163675
       369.00001       288.99391       98756.889       11609.521      0.74750010      0.80250000     -0.21250000       341.36200       2.0230414    0.0084777288
       374.00002       289.02358       98748.901       11631.188      0.54700010      0.73825000     -0.26375000       341.19500       2.0435150    0.0081698783
       379.00000       289.05446       98740.895       11656.410      0.12100000      0.10100000     0.019750000       341.13500       2.0147218    0.0088086864
       384.00001       289.05567       98735.676       11634.572    -0.062500000      0.52450000      0.14425000       340.75200       2.0255600    0.0090777215
       389.00002       289.06540       98728.054       11607.757     0.016000000      0.76250000      0.26200000       341.08800       2.0324673    0.0085364230
       394.00000       289.03797       98729.575       11557.449      0.90075000       2.1290000     -0.14000000       340.71400       2.0159016    0.0083237825
       399.00001       288.94145       98738.809       11430.837      0.11875000       1.2970000      0.53250000       341.98200       2.0402006    0.0093264224
       404.00002       288.92872       98744.680       11397.122      0.52475010       1.6020000    -0.033500000       341.22000       2.0023273    0.0094038886
       408.99999       288.95182       98753.699       11402.536     -0.29125000       1.6242500     -0.37550000       341.38400       2.0191895    0.0094418208
       415.00000       288.93997       98763.228       11401.472      0.53900000       1.4350000    -0.014250000       342.30400       2.0077997    0.0088652377
       420.00002       288.97008       98770.562       11443.651     -0.39000000       1.5925000    -0.082500000       341.49700       2.0299593    0.0088098605
       425.00003       288.91505       98775.430       11427.848    -0.074000000       1.9850000      0.17050000       341.33600       2.0298110     0.010442498
       430.00000       288.79406       98781.560       11387.925     -0.34400000       1.4722500      0.18900000       341.77600       2.0467753     0.010231281
       435.00001       288.72972       98780.274       11354.355    -0.066000000       1.3652500     0.023250000       341.62300       2.0225973    0.0088561974
       440.00003       288.68686       98780.285       11327.761     -0.34250000       1.5665000   -0.0085000000       341.47600       1.9849140    0.0085605975
       445.00000       288.70026       98780.366       11311.544      0.72625010      0.67400000     0.027250000       342.45900       2.0260616    0.0090829462
       450.00001       288.70026       98780.401       11302.074      0.73950000       1.3882500      0.23975000       342.13900       1.9846701    0.0095304572
       455.00003       288.68485       98783.236       11274.514       1.0242500       2.4595000     -0.52275000       341.42400       2.0213539     0.010919426
       460.00000       288.69330       98781.520       11283.106      0.52250000       1.4380000     -0.76525000       341.73800       2.0256578    0.0092529078
       465.00001       288.71398       98777.331       11314.464       1.3085000       1.1612500      0.18275000       342.26800       2.0646423     0.010431950
       470.00003       288.74233       98771.084       11371.052       1.4822500       1.5867500     -0.32850000       341.27900       2.0313116    0.0095836209
       475.00000       288.78410       98764.873       11427.005       1.0705000       2.0645000     -0.38550000       341.08800       2.0289202    0.0089622971
       480.00001       288.85021       98753.991       11506.869       1.3530000       1.6552500      0.13400000       341.33800       2.0212041    0.0080672325
       485.00002       288.90052       98754.658       11578.339      0.98600010       1.0722500      0.12150000       342.02400       2.0030102    0.0090962976
       490.00000       288.95084       98750.753       11663.704      0.59425000       3.6700000     -0.63100000       341.04900       2.0287473    0.0093095045
       495.00001       289.00011       98744.329       11807.172     0.043250000       3.6135000     -0.50750010       341.07600       2.0045360     0.010505092
       500.00002       289.04951       98740.383       11897.877   -0.0025000000       2.4922500      0.15650000       341.66000       2.0194357    0.0091228484
       505.99999       289.12386       98732.372       12011.379     -0.12500000       3.1600000     -0.13200000       341.30000       2.0191485     0.010754734
       511.00000       289.16248       98728.730       12039.215      0.13850000       1.9352500     0.045500000       341.46600       2.0335275     0.011067316
       516.00002       289.18992       98730.272       11978.408     -0.21700000       3.3862500     -0.50925000       341.49400       2.0420423    0.0096933644
       520.99999       289.20886       98730.250       11935.233    -0.038500000       2.9712500      0.10475000       341.33000       2.0338867    0.0090994844
       526.00000       289.25588       98730.145       11866.479      0.93725000       3.8755000     -0.34825000       340.92900       2.0195726     0.011632096
       531.00002       289.21108       98730.086       11781.215    -0.028500000       2.7167500     -0.52750000       341.23900       2.0186062    0.0099343522
       535.99999       289.07701       98730.239       11685.249       1.4552500       3.6337500     -0.26000000       341.10300       2.0432116     0.011047888
       541.00000       288.98641       98730.201       11591.052      0.97025010       1.5077500     0.062500000       341.19200       2.0409893     0.012312799
       546.00002       288.79120       98730.277       11425.382     -0.31325000       2.4012500     -0.65250000       341.32600       2.0287998    0.0098937216
       551.00003       288.70795       98730.298       11350.949     -0.10825000       3.0602500     -0.95900010       341.57200       2.0286377     0.010715566
       556.00000       288.77224       98730.112       11375.148      0.17925000       2.1560000     -0.24850000       340.99300       2.0414228    0.0086301498
       561.00001       288.75081       98730.053       11332.051      0.27475000       1.8642500     0.088250000       341.67500       2.0289315    0.0094283069
       566.00003       288.72220       98730.113       11288.252     -0.46925000       2.1755000     -0.33925000       341.41800       2.0107096    0.0095828159
       571.00000       288.70127       98730.070       11262.208     -0.10375000       2.5380000     -0.11925000       341.55000       2.0354216     0.010595559
       576.00001       288.61935       98730.146       11176.277     -0.16550000       1.4662500      0.28200000       341.81700       2.0284161    0.0091837306
       581.00003       288.58126       98730.086       11142.751     -0.41675000       2.5690000     -0.29825000       341.10200       2.0356693     0.010321705
       586.00000       288.59984       98730.239       11185.989      0.58625000       2.2887500    0.0037500000       341.06000       2.0222842    0.0087169858
       591.00001       288.59969       98730.201       11203.922      0.46825000       1.5350000     -0.35125000       341.58700       2.0424257     0.010427516
       597.00002       288.58735       98723.625       11212.300      0.67425000       1.0100000      0.55475000       342.64200       2.0485707     0.010136751
       601.99999       288.60157       98730.614       11245.152      0.65975000       1.6150000     0.081750010       341.72800       2.0287120    0.0092637584
       607.00001       288.65099       98755.644       11310.600       1.0507500       1.2577500      0.14650000       341.90000       2.0164465     0.010672912
       612.00002       288.65721       98758.704       11340.493      0.17300000       1.3127500      0.16525000       342.21500       2.0231706     0.011606253
       616.99999       288.65656       98759.697       11369.724      0.31025000      0.67125000     -0.14825000       341.57000       2.0550745    0.0096337337
       622.00001       288.65293       98756.460       11394.210      0.14550000       2.8242500     -0.19050000       341.15500       1.9967567     0.011120363
       627.00002       288.60491       98725.116       11387.567       1.1570000       2.5712500      0.36450000       341.41200       2.0113632    0.0098098492
       631.99999       288.58898       98719.319       11393.119       1.3915000       3.0445000     -0.28575000       341.53800       1.9897512    0.0087394151
       637.00000       288.59982       98730.940       11420.491       1.0307500       2.8067500     -0.26300000       341.39900       2.0453011    0.0092549701
       642.00002       288.59966       98736.645       11423.625       1.0675000       2.7275000     -0.22350000       341.48900       2.0216790     0.010315990
       646.99999       288.61415       98752.672       11422.897      0.22475000       2.1327500      0.73075000       341.80500       2.0087075    0.0085575933
       652.00000       288.60058       98759.596       11394.656    -0.021250000       2.1820000    -0.021500000       340.93000       2.0180942    0.0086872621
       657.00002       288.53637       98757.133       11309.166      0.74650000       2.4125000    -0.066000000       341.23600       2.0174862    0.0083433711
       661.99999       288.54392       98761.531       11291.203      0.51000010       1.5625000      0.50925000       341.29600       1.9962742     0.010309577
       667.00000       288.59460       98767.908       11297.809      0.36050000      0.85775010      0.26525000       341.96400       2.0180362    0.0098761304
       672.00002       288.60468       98771.895       11289.083    -0.046500000       1.0752500      0.27825000       341.81400       2.2954131    0.0087616168
       677.00003       288.62632       98779.324       11301.216     -0.36825000       2.7422500     -0.13650000       341.12800       2.3460653    0.0093538046
       682.00000       288.66602       98782.525       11332.028     -0.52100000       2.0487500     -0.46300000       341.37500       2.8985306     0.010448373
       688.00001       288.63647       98782.572       11329.254    -0.065500010       1.8930000     0.023000000       341.64000       2.5329824    0.0082470205
       693.00002       288.72912       98779.249       11402.280     0.087750000       1.8407500    0.0062500000       341.73100       2.2165251    0.0085891527
       698.00000       288.99923       98773.011       11582.839      0.70075010       1.4797500      0.21125000       342.47800       2.5264230     0.010535394
       703.00001       289.05791       98767.383       11672.094       1.2202500       2.1107500     -0.12450000       341.91300       2.1367581    0.0098918807
       708.00002       289.06965       98758.379       11764.054       2.0000000      0.78225000      0.65700000       341.57500       2.3430684    0.0097066482
       713.00000       289.06477       98750.417       11817.426       2.1317500       2.0832500     -0.12150000       341.33100       2.3675881    0.0091984202
       718.00001       288.91287       98742.063       11822.435       1.6097500       1.1125000    0.0042500000       341.93900       2.5415539     0.010730500
       723.00002       288.85612       98736.780       11810.145       2.0707500       2.0247500     0.031500000       341.28700       2.6188116     0.010864934
       727.99999       288.83551       98730.508       11760.425       2.1075000       1.5640000     -0.47025000       341.63100       3.0563725    0.0096632483
       733.00001       288.84764       98727.754       11742.651       2.6780000       3.5047500     -0.22025000       341.24600       2.5623577     0.011693059
       738.00002       288.90664       98728.145       11714.518       2.1330000       1.5412500      0.71400000       341.72600       4.2904761     0.012644081
       742.99999       288.90048       98731.507       11676.908       1.8462500       2.7097500     -0.40100000       341.08600       4.7609131     0.012208847
       748.00001       288.88074       98737.576       11639.179       1.7332500       2.4730000     -0.10375000       341.53500       3.3555924     0.010942625
       753.00002       288.91752       98743.237       11635.588       1.9010000       1.4525000      0.54025000       341.82800       5.1019922     0.014429674
       757.99999       288.94085       98752.000       11627.388      0.63025000       1.0695000      0.38625000       342.34700       2.8627965    0.0098564586
       763.00001       288.95724       98759.946       11626.099      0.59350000       1.9490000     -0.10350000       341.99400       2.4711294    0.0091527238
       768.00002       289.06744       98768.652       11687.950     -0.19175000       1.5920000      0.10775000       342.14100       3.4853157     0.012329974
       772.99999       289.07265       98773.975       11685.904       1.4455000       2.8010000    -0.090750000       341.75800       2.5816624     0.010884130
       779.00000       288.94267       98782.930       11614.297       1.7117500      0.47200000      0.25925000       341.69700       2.7616122    0.0097673705
       784.00001       288.93051       98781.338       11609.445       2.5372500       3.5382500     -0.74850000       341.20500       2.5112224    0.0089733152
       789.00003       288.96055       98771.963       11629.515       1.8752500       1.6520000      0.36450000       341.75800       2.4671496     0.010359779
       794.00000       288.93141       98766.036       11604.775      0.57675000       2.6187500     -0.27200000       341.57200       3.0073134     0.010558917
       799.00001       288.90959       98756.664       11581.064       2.3345000       1.3805000      0.44575000       341.71700       2.7178976     0.010679457
       804.00002       288.88093       98748.670       11560.280      0.97725000       1.8435000      0.33425000       341.09000       2.8661957     0.010876556
       809.00000       288.79363       98740.725       11494.415       1.6310000       1.1760000      0.23500000       342.02300       4.1653407     0.013373641
       814.00001       288.77137       98735.611       11483.479       1.4675000       2.9607500     -0.14025000       341.39500       2.8593309     0.010504090
       819.00002       288.80915       98727.139       11528.733       1.5605000       1.9500000     0.031750000       341.54900       3.7164789     0.014020708
       824.00000       288.79074       98730.474       11520.320       1.1965000       2.0125000      0.15450000       341.92700       3.2458848     0.011261394
       829.00001       288.75498       98742.118       11499.998      0.69475000       3.8247500     -0.96500000       341.19800       2.5748449     0.011092205
       834.00002       288.73473       98752.030       11478.846       1.4127500       2.8560000      0.28900000       341.37000       3.7762929     0.013641057
       839.00000       288.68873       98771.965       11429.583      0.63650000       2.0197500      0.42175000       341.61700       2.8412864     0.012058051
       844.00001       288.69613       98775.596       11420.409      0.73375000       2.2932500     -0.24250000       342.00800       2.4237082    0.0096883458
       849.00002       288.73773       98774.336       11425.965      0.30075000       1.4765000     -0.24275000       341.77100       4.2568174     0.012915569
       853.99999       288.77633       98767.064       11440.477       1.1782500       3.8712500     -0.28150000       340.88000       3.0308326     0.013168355
       859.00001       288.85820       98745.783       11474.149      0.94900010       3.1570000     -0.17975000       341.00700       2.6976291     0.010776251
       865.00002       288.87008       98736.185       11514.862     0.095000010       2.7755000     -0.11300000       341.44000       2.7758002     0.011537446
       870.00003       288.86307       98725.210       11565.898      0.72100000       2.6172500    -0.090000000       341.62900       2.5180670     0.010650869
       875.00000       288.82955       98733.439       11575.898      0.38225000       2.7827500    -0.088500000       341.16700       2.9705213     0.011869208
       880.00001       288.73823       98755.176       11576.542       1.0652500       2.2445000      0.19250000       341.79300       3.6765483     0.013133404
       885.00003       288.71578       98777.264       11534.882      0.54150000       1.8067500      0.32725000       341.82000       2.6543863     0.012131948
       890.00000       288.73186       98785.373       11545.635      0.46000000       2.0900000     -0.44425000       341.59300       2.9858523     0.012837058
       895.00001       288.86102       98775.775       11646.101     -0.68375000       2.0382500     -0.11125000       341.72400       3.7209140     0.012243448
       900.00003       288.91279       98767.192       11684.197     -0.25700000       4.8895000     0.056250000       341.06300       2.7105244     0.011125432
       905.00000       288.93992       98741.306       11713.675       1.5657500       3.3177500    0.0090000010       341.45900       2.5618811     0.012764132
       910.00001       288.96231       98731.593       11737.622   -0.0017500000       4.1622500     -0.57725000       341.25800       4.1097736     0.014484244
       915.00003       288.96006       98729.255       11739.687       1.2890000       3.6482500     -0.83200000       341.36100       2.2440010     0.010356287
       920.00000       288.88744       98730.889       11680.958       1.1565000       3.3295000     0.048500000       341.32900       2.2276191    0.0097683593
       925.00001       288.90031       98740.725       11683.714      0.97075000       2.3672500     -0.48575000       341.48500       2.3372086     0.010762478
       930.00003       288.95537       98768.187       11718.604       1.1460000       1.2687500     -0.20200000       341.64500       2.3708026     0.011173176
       935.00000       288.98396       98775.599       11725.276     0.070500000       1.9075000      0.52850000       341.52300       2.8413164     0.014575029
       940.00001       288.96819       98774.614       11705.384      0.76075010       2.5137500      0.22825000       342.07800       2.6081687     0.013660173
       945.00002       288.85425       98746.704       11633.412      0.67675000       1.9100000     -0.49875000       341.68700       2.4288706     0.010974403
       950.00000       288.79337       98737.166       11583.921       2.4425000       1.8367500       1.2292500       342.07800       2.7237572     0.010773212
       956.00000       288.71961       98729.641       11515.868      0.34200000       1.9920000      0.54425000       342.01700       2.6487771     0.010670089
       961.00002       288.68268       98731.611       11470.858      0.66325000       1.1075000     -0.68225000       341.71000       2.8624014     0.013743615
       965.99999       288.70052       98760.202       11429.940       1.6087500       2.6120000    -0.029000000       341.41700       2.4583649     0.011934696
       971.00000       288.70078       98769.568       11416.057      0.76725010       2.2657500     -0.12475000       341.82900       2.9468091     0.014630639
       976.00002       288.71425       98774.708       11422.078      0.98675010       1.5092500    0.0067500000       341.54400       2.8511532     0.011363409
       980.99999       288.70316       98772.990       11430.696      0.53225000       1.3740000      0.15325000       341.68000       3.9198408     0.013131055
       986.00000       288.66579       98749.095       11482.990      0.67650000       2.8605000    -0.023250000       341.22800       3.5459213     0.011354147
       991.00002       288.64596       98741.726       11500.173      0.56600000       1.6315000      0.32300000       341.46100       4.3446429     0.015354131
       996.00003       288.58119       98735.735       11482.339       1.2705000       1.0782500      0.24650000       342.21500       2.4516740     0.013589775
       1001.0000       288.58458       98737.393       11489.747       1.6417500       1.7327500      0.21775000       341.66700       2.7827135     0.014161542
       1006.0000       288.63671       98765.573       11478.627      0.58650000       2.1825000     -0.16650000       341.00400       3.0584640     0.012449704
       1011.0000       288.69929       98769.603       11501.301      0.64875000       1.6790000     -0.32675000       340.80900       2.6516110     0.014467689
       1016.0000       288.81916       98760.290       11556.357      0.29175000       1.9567500     -0.67300000       341.38000       3.5101364     0.012482011
       1021.0000       288.91985       98755.972       11618.916     0.099750000       1.6015000     -0.20425000       341.76800       2.2637493     0.012792217
       1026.0000       289.02180       98731.004       11712.452      0.57750000       1.9527500     -0.11650000       341.35200       2.6453565     0.014098881
       1031.0000       289.12240       98724.824       11793.693       1.6330000       2.8700000     -0.97675010       341.09600       2.6994535     0.011055488
       1036.0000       289.20618       98741.842       11876.284    -0.076250000       1.9550000      0.36050000       341.22000       3.7571570     0.014149118
       1041.0000       289.31637       98746.653       11963.343      0.97250000      0.95475010      0.41225000       342.22300       3.5585992     0.012450921
       1047.0000       289.51500       98757.835       12089.521      0.65675000       1.5667500      0.27200000       341.85400       3.4438210     0.014293806
       1052.0000       289.59319       98757.901       12150.951      0.10975000       1.6170000    -0.035250000       341.65800       2.5637894     0.014584402
       1057.0000       289.62030       98739.459       12189.253    -0.084250000       1.7740000      0.22075000       341.50700       2.9827926     0.011822917
       1062.0000       289.67706       98738.020       12231.305      0.20250000       1.5550000      0.15600000       342.38200       2.7754870     0.012612174
       1067.0000       289.73384       98742.840       12299.725      0.97000000       1.9147500     -0.21350000       341.07100       3.2088005     0.014472347
       1072.0000       289.70301       98745.562       12251.446      0.78725000       2.2747500    0.0017500000       341.42300       5.4277131     0.015401653
       1077.0000       289.65038       98762.819       12139.001      0.52950000       1.7267500     -0.20200000       342.27200       3.0296840     0.012413818
       1082.0000       289.58921       98763.497       12032.411       1.0325000       1.6402500     -0.18450000       341.89400       2.6898735     0.014330030
       1087.0000       289.35667       98744.957       11746.168      0.96575000       1.2547500     -0.17625000       342.08000       2.7294949     0.014377678
       1092.0000       289.29934       98743.066       11662.219      0.60100000       1.7285000    -0.014750000       341.90400       3.5033123     0.019103762
       1097.0000       289.35245       98744.292       11723.064      0.27250000       2.3250000     -0.60675000       341.57400       5.0517985     0.021861253
       1102.0000       289.40417       98744.106       11729.400      0.89450000       2.7942500     -0.53325000       341.38400       3.1074891     0.015437496
       1107.0000       289.60282       98757.422       11840.446       1.0837500       2.4057500      0.25225000       341.72100       3.2447647     0.020749714
       1112.0000       289.63419       98757.628       11848.919      0.29225000       2.1287500     -0.12225000       341.80400       3.2427878     0.020991919
       1117.0000       289.60078       98736.638       11762.001      0.59850000       3.1605000     -0.32650000       341.55900       3.3237326     0.015841322
       1122.0000       289.54644       98737.751       11717.541      0.17675000       1.8885000     0.061000000       341.65200       3.0672914     0.014565707
       1127.0000       289.35134       98757.929       11656.758      0.64175000       2.1487500     -0.48650000       341.58200       2.6789682     0.011516407
       1132.0000       289.24965       98756.372       11609.106     -0.10300000       1.4565000     0.034250000       342.80600       3.0222476     0.015515395
       1138.0000       289.14817       98751.675       11554.528     -0.70650010       1.4665000      0.24200000       341.98800       3.3122510     0.015025906
       1143.0000       289.11742       98751.306       11543.693      0.34175000       1.2590000     0.092500000       342.50600       3.1422980     0.019230991
       1148.0000       289.09936       98732.430       11520.241      0.83275000       1.1930000     0.088750000       342.43100       2.7309344     0.013774534
       1153.0000       289.17135       98731.826       11575.222     0.034000000       2.6640000      0.71975000       342.06300       2.4829883     0.015203328
       1158.0000       289.39350       98758.842       11742.449      0.15025000       1.9865000     -0.46150000       341.99800       2.7027161     0.018084940
       1163.0000       289.45539       98758.525       11801.452      0.82350000       2.3697500      0.39125000       342.40900       2.8391006     0.015246875
       1168.0000       289.50258       98736.771       11861.118      0.41825000       2.2427500     -0.33350000       341.80500       3.0760019     0.018064821
       1173.0000       289.53339       98739.966       11892.680       1.1780000       1.7050000     0.042000000       342.01800       2.6628507     0.016473516
       1178.0000       289.43209       98751.435       11823.815      0.76150010      0.75475000      0.42725000       343.22400       4.0717449     0.019285826
       1183.0000       289.44045       98749.835       11840.640       1.9130000       2.2297500      0.27975000       341.42100       2.7518879     0.019884463
       1188.0000       289.50474       98756.758       11908.661       1.4695000       2.5205000     -0.16050000       341.07000       3.2775485     0.019015795
       1193.0000       289.58757       98758.097       11948.791       1.3327500       2.3540000     0.064500000       341.96700       2.8698655     0.019939363
       1198.0000       289.71356       98739.255       11989.475       1.7245000       1.9707500      0.23825000       341.45400       2.6734379     0.014216227
       1203.0000       289.80412       98736.337       12045.979      0.96250000       2.8402500     -0.35725000       341.22200       2.8945879     0.017465036
       1208.0000       290.00852       98752.288       12170.436      0.39500000       2.0042500      0.14025000       342.15600       2.9727259     0.021694311
       1213.0000       289.97415       98751.852       12135.414      0.61425000       1.2202500    -0.065250000       341.55600       4.1455039     0.015139437
       1218.0000       289.76933       98738.673       12030.509      0.35875000       1.3825000      0.40225000       342.94200       3.5402307     0.018862222
       1223.0000       289.63164       98739.562       11933.633      0.69725000       1.8830000      0.11450000       341.19500       2.7490111     0.015081766
       1229.0000       289.30085       98746.127       11666.131       1.0277500       1.0507500     -0.57850000       341.37500       2.9030509     0.010432444
       1234.0000       289.17530       98744.264       11559.265       1.1142500       1.6032500     -0.41675000       341.52700       2.5954705     0.017989059
       1239.0000       289.14030       98744.673       11528.211       1.3870000       1.3560000     -0.32300000       340.90700       3.0176057     0.017078614
       1244.0000       289.11683       98747.742       11470.574       1.1132500       1.4220000   -0.0055000000       341.43400       3.1584055     0.016139085
       1249.0000       289.12617       98744.299       11410.186      0.72300000      0.91625010     0.041750000       342.16900       2.9240089     0.014102979
       1254.0000       289.17239       98745.096       11390.019      0.92700000      0.74500010     0.075000000       342.54300       2.7758452     0.019051791
       1259.0000       289.26027       98755.838       11370.709      0.43475000      0.89175000      0.54600000       343.48700       3.2445104     0.019388714
       1264.0000       289.38586       98759.084       11430.504      0.46175000       1.4345000    -0.088000010       341.52600       2.7220752     0.011481693
       1269.0000       289.58047       98754.615       11558.177      0.20375000       1.1930000      0.22600000       342.16300       2.2282723     0.013806640
       1274.0000       289.70100       98755.501       11662.620      0.10600000      0.51925000      0.14050000       342.99100       2.9339541     0.019730256
       1279.0000       289.87661       98763.442       11848.413     -0.17450000       1.3522500      0.72300000       343.83700       2.7020787     0.018422140
       1284.0000       289.90381       98758.936       11914.598    -0.031250000       1.0070000      0.16625000       343.03400       3.1570832     0.019303609
       1289.0000       289.80243       98743.916       11902.259     0.092000010       1.6245000      0.12950000       341.76200       2.9481401     0.015151673
       1294.0000       289.79283       98743.584       11957.733      0.51900010       1.5545000     -0.14075000       342.39600       4.4963858     0.022818142
       1299.0000       289.74015       98745.989       11994.413      0.95850000       1.0962500      0.45375000       342.55600       3.1032294     0.015318275
       1304.0000       289.73732       98743.007       12035.106     -0.31425000       2.9955000     -0.47925000       342.37700       4.0977912     0.016513692
       1309.0000       289.81202       98744.809       12147.946      0.18125000       3.2845000     -0.39500000       341.97800       3.2303433     0.016595068
       1314.0000       289.80461       98747.831       12133.825      0.43100000       3.2477500     -0.44950000       342.08500       2.5469278     0.023942777
       1320.0000       289.76412       98745.823       12029.602      0.99625000       1.9947500     -0.45475000       341.99700       3.7369188     0.015864969
       1325.0000       289.70077       98740.696       11940.940       1.2330000       2.0425000    -0.010500000       342.95900       2.8305934     0.016533293
       1330.0000       289.59961       98739.762       11801.512      0.69075010       3.5185000     -0.46700000       341.56100       2.7312938     0.015606139
       1335.0000       289.49883       98744.358       11674.458       1.5795000       3.6577500      0.17250000       341.18100       2.8349573     0.017207472
       1340.0000       289.43546       98740.426       11581.118      -1.9460000       2.0502500      0.79150000       343.88800       2.7937369     0.013465930
       1345.0000       289.36979       98736.431       11482.415      0.10575000       3.2302500      0.25675000       341.97700       3.9027940     0.016277392
       1350.0000       289.37543       98740.461       11431.142       1.9127500       3.7937500     -0.85800000       341.80400       3.0032973     0.016723865
       1355.0000       289.44507       98744.361       11424.030      0.56875000       1.5187500      0.65875010       342.64000       7.4282424     0.032055693
       1360.0000       289.53043       98740.414       11439.411      0.44625000       1.4660000   -0.0040000000       343.28900       3.5260043     0.015067329
       1365.0000       289.65267       98736.454       11484.193     -0.21375000      0.97100010      0.30650000       343.19500       3.2593841     0.013620372
       1370.0000       289.86609       98740.581       11575.559      0.61075000       2.6095000     0.041500000       342.13800       2.1118015     0.010938270
       1375.0000       289.95289       98744.592       11641.356      0.10075000       2.0700000     -0.40175000       342.30300       2.3377504     0.017477408
       1380.0000       289.99382       98740.334       11707.248      0.77100000       1.9865000      0.19075000       342.89000       2.8624343     0.017091827
       1385.0000       290.12201       98736.038       11857.069       1.0827500       2.5890000     -0.34900000       342.85700       2.6495327     0.015189935
       1390.0000       290.20304       98739.945       11982.121    -0.046250000       2.3530000      0.19800000       343.18700       2.5656141     0.016736120
       1395.0000       290.34087       98744.418       12207.417     -0.60675000       2.6550000     -0.43900000       341.17900       2.9377934     0.023201001
       1400.0000       290.42498       98740.531       12325.259      0.41575000       1.9592500     -0.15600000       342.39500       2.6805759     0.027018440
       1405.0000       290.45987       98736.629       12377.087       1.1730000       2.6855000    -0.020750000       342.13300       2.3865204     0.021365154
       1411.0000       290.40011       98741.299       12350.079      0.14150000       2.7005000   -0.0022500000       341.72200       2.3386981     0.017055087
       1416.0000       290.39990       98739.333       12260.183      0.87225000       2.5410000      0.11675000       342.22100       3.7477919     0.018855399
       1421.0000       290.39987       98738.682       12207.325       2.5440000       1.3457500      0.52200000       341.34200       4.4767846     0.017605482
       1426.0000       290.41464       98752.788       12137.086     -0.10550000      0.71875010      0.14950000       343.38800       3.0980559     0.018084837
       1431.0000       290.40382       98758.295       12110.371     -0.38375000       1.4447500     -0.42925000       342.23900       3.4748977     0.023197975
       1436.0000       290.42268       98751.109       12170.178      0.20250000       3.8487500    0.0057500000       341.49500       2.4191054     0.023411514
       1441.0000       290.35777       98749.156       12134.918     -0.50600000       2.9282500      0.59500000       342.23300       2.9152952     0.020854038
       1446.0000       290.20231       98753.119       12083.705     -0.17225000       2.9425000      0.79475000       342.74900       2.2731513     0.014230751
       1451.0000       290.08198       98750.887       12008.078     -0.31275000       3.7082500     -0.26250000       341.74400       2.8034296     0.019410144
       1456.0000       289.85840       98739.318       11808.723      -1.9190000       3.0002500      0.17200000       340.93600       2.3595338     0.017329855
       1461.0000       289.75509       98738.740       11695.733       1.0775000       3.0855000     -0.44100000       341.25200       2.3811439     0.022651690
       1466.0000       289.78282       98748.272       11629.050     -0.12775000       2.2145000      0.23875000       342.27900       2.3195192     0.023077071
       1471.0000       289.74254       98746.065       11563.573     -0.64775000       3.4687500     -0.68925010       341.98200       2.3622570     0.016041056
       1476.0000       289.72148       98735.027       11519.766      -1.1575000       3.0025000    -0.038500000       341.67800       2.9388638     0.021068958
       1481.0000       289.70027       98739.267       11495.822     -0.13525000       2.4190000     -0.44850000       341.88400       2.9765500     0.019441424
       1486.0000       289.59080       98751.857       11468.662     -0.42275000       3.0330000     -0.24725000       342.72100       2.6606590     0.018483678
       1491.0000       289.57600       98750.818       11480.157       1.1212500       3.4720000     -0.19825000       341.64300       3.9053501     0.024374954
       1497.0000       289.67473       98754.612       11566.521     -0.55075000       2.8180000     -0.21650000       341.05600       2.5538869     0.020384199
       1502.0000       289.71495       98758.327       11610.941     -0.13625000       3.2122500     -0.41325000       341.45400       2.8043421     0.017630264
       1507.0000       289.78880       98745.645       11658.381    -0.078500000       2.1682500      0.58400010       343.12200       2.5535336     0.032128771
       1512.0000       289.82122       98742.092       11710.201       1.1012500      0.51275000      0.39100000       343.47800       3.0542807     0.022971309
       1517.0000       289.77408       98757.612       11721.463       1.0230000       2.3002500     0.068250000       342.83700       3.0072645     0.014634249
       1522.0000       289.80138       98757.825       11794.949      0.62825000       1.8762500      0.43425000       342.73400       2.5091232     0.022101232
       1527.0000       289.91552       98739.292       11974.054       1.3490000       1.5140000      0.26375000       342.58000       2.3329772     0.019350415
       1532.0000       289.91396       98737.843       12030.888       1.5155000       1.5147500     0.034250000       341.97400       3.5232007     0.024997980
       1537.0000       289.87622       98748.012       12062.936      0.36325000       1.2425000   -0.0085000000       343.38800       2.2530714     0.014793350
       1542.0000       289.84922       98745.348       12071.108       1.5582500      0.60800000     -0.17800000       342.52300       2.2238217     0.018551399
       1547.0000       289.70166       98738.589       11955.387       1.0617500       1.0650000      0.20300000       342.93700       2.8731985     0.022004958
       1552.0000       289.66694       98740.963       11924.636      0.36925000       2.7320000     -0.34650000       342.02700       3.5024294     0.022178276
       1557.0000       289.75052       98738.916       11960.863      0.37475000       1.8190000      0.38625000       343.02400       4.0986626     0.029116576
       1562.0000       289.75660       98738.988       11943.107    -0.064750000       2.8512500      0.16850000       341.04500       2.6149386     0.021745792
       1567.0000       289.76939       98757.021       11913.235     -0.67625000       2.5680000      0.34300000       341.85600       2.3050513     0.020606052
       1572.0000       289.75214       98758.893       11886.818     -0.67600010       3.0282500     -0.43950000       341.24600       3.6297677     0.021835235
       1577.0000       289.66732       98739.323       11809.702     -0.30150000       1.7072500      0.23850000       341.81900       2.1194194     0.022166084
       1582.0000       289.63161       98737.835       11794.341      0.63900010       2.2605000     -0.26200000       341.59000       2.4005377     0.023404950
       1588.0000       289.57709       98746.351       11834.087      0.54150000       1.0292500      0.68175010       341.81000       2.5154576     0.015238627
       1593.0000       289.59632       98744.702       11844.933       2.4727500       2.2220000     -0.25475000       341.89500       3.9571663     0.024801623
       1598.0000       289.68442       98747.272       11880.485      0.61800000       3.3272500     0.033250000       341.35300       2.5243630     0.028044024
       1603.0000       289.72452       98745.394       11886.442     -0.27725000       1.4690000      0.71050010       342.65100       2.9837347     0.022037884
       1608.0000       289.79971       98727.246       11855.723      0.13900000       2.5472500      0.47725000       343.02100       2.2482719     0.020752518
       1613.0000       289.82753       98727.973       11854.736     0.088250000       3.7407500      0.23350000       342.20400       3.1425243     0.031604524
       1618.0000       289.81090       98747.287       11870.959      0.96925000       3.3770000     0.081250000       342.78600       3.2262710     0.015608660
       1623.0000       289.79463       98746.747       11863.737       1.6800000       2.1817500      0.28575000       342.30600       2.3639209     0.025716288
       1628.0000       289.75785       98739.972       11846.966      0.28750000       3.4997500      0.27850000       341.86000       2.4736879     0.021118226
       1633.0000       289.73778       98740.979       11846.322      0.16375000       2.3655000      0.19925000       341.96500       3.6181769     0.021546177
       1638.0000       289.70108       98731.800       11838.047     -0.72575000       4.1637500     -0.40750000       341.22300       2.3353154     0.020968356
       1643.0000       289.68748       98733.985       11836.001     -0.97925010       3.5542500     -0.16575000       341.83700       3.3566433     0.022542917
       1648.0000       289.69953       98758.340       11859.127      0.82225010       4.0760000     -0.56950000       341.27500       2.7140402     0.020398852
       1653.0000       289.69924       98757.932       11860.011      0.19175000       2.3260000     -0.23850000       341.77400       3.0527572     0.020168967
       1658.0000       289.69978       98741.921       11838.122      0.42500000       2.6912500      0.74900000       342.42300       2.4054789     0.018876554
       1663.0000       289.69966       98736.874       11835.146      0.59150000       2.3517500      0.37150000       342.53100       2.6616993     0.020890023
       1668.0000       289.71167       98721.413       11857.691      0.25425000       3.4970000     -0.53250000       341.64500       3.4430341     0.024019303
       1673.0000       289.69567       98722.728       11833.951      0.79025010       2.8297500      0.63200000       342.05400       2.8736800     0.015721137
       1679.0000       289.60760       98745.141       11763.465      0.47750000       3.8950000     -0.25800000       341.35600       3.0543476     0.023538330
       1684.0000       289.68237       98750.389       11765.167       1.0232500       3.6277500  -0.00050000000       341.21400       2.4114075     0.019614687
       1689.0000       289.81063       98756.430       11746.080      0.75050000       3.0235000      0.33675000       341.91700       2.6522419     0.016577901
       1694.0000       289.93761       98757.819       11800.746      0.82750000       2.6852500      0.15425000       341.73400       2.2792345     0.018620894
       1699.0000       290.21147       98749.039       11956.518      0.78350000       1.7730000     -0.37525000       342.45700       2.3069148     0.014377205
       1704.0000       290.30816       98749.750       12029.066      0.38925000       2.5007500      0.31925000       342.87000       2.6909576     0.018438729
       1709.0000       290.30602       98755.621       12083.932      0.20175000       2.7825000      -1.1167500       341.62200       2.3638422     0.016350623
       1714.0000       290.32817       98755.697       12161.692     -0.59400000       1.8777500     -0.21700000       341.78100       2.8026489     0.018493927
       1719.0000       290.29993       98758.879       12231.785     -0.11975000       2.9237500     -0.44050000       341.14700       3.9424133     0.017027365
       1724.0000       290.29993       98752.532       12287.503       1.0935000       1.9217500     -0.13475000       342.28400       2.2274067     0.014582068
       1729.0000       290.29069       98733.705       12379.653     0.099250000       2.7582500     -0.70550000       341.30200       3.6100237     0.017319709
       1734.0000       290.30961       98732.231       12393.090      0.47850000       2.4782500    -0.030500000       341.78600       2.6430581     0.016446954
       1739.0000       290.38998       98732.365       12361.025      0.25550000       2.5687500     -0.49825000       341.56600       2.4518164     0.013419794
       1744.0000       290.31598       98736.850       12298.495       1.2372500       2.2305000      0.18725000       342.34400       4.5505836     0.024146587
       1749.0000       290.18798       98759.742       12191.126      0.91275010       2.0692500     -0.16225000       342.72600       2.4692235     0.017685432
       1754.0000       290.06222       98757.798       12088.217       1.0357500       3.3795000     -0.26775000       342.74000       2.4181031     0.015935266
       1759.0000       289.79231       98741.178       11946.072       1.6295000       2.6160000      0.19675000       343.05600       2.3266618     0.018711582
       1764.0000       289.69653       98736.166       11833.184      0.66875000       1.2487500      0.73150000       343.31100       2.6671396     0.015865541
       1770.0000       289.68092       98720.808       11691.001      0.83700000       1.8115000      0.77900000       342.25900       2.4663011     0.015483170
       1775.0000       289.68549       98725.936       11631.080       1.3702500       2.4990000     -0.46150000       341.68000       3.0126313     0.018037978
       1780.0000       289.74436       98745.846       11586.513       2.1165000       2.0092500     -0.15425000       342.59500       4.3649908     0.019887904
       1785.0000       289.81572       98760.263       11611.451      0.76325010       3.3247500     -0.13650000       341.47400       3.2889919     0.018599304
       1790.0000       289.85736       98764.095       11632.232       1.9792500       1.9465000     -0.10225000       341.17300       2.4747797     0.015537300
       1795.0000       289.84084       98746.724       11650.814      0.83600000       1.6487500     -0.36325000       342.47900       2.3708070     0.015766990
       1800.0000       289.88829       98743.420       11696.604      0.49550000       2.8775000      0.12475000       341.56900       2.5508121     0.021392585
       1805.0000       289.98993       98749.618       11776.360       1.3940000       2.1962500     -0.17450000       342.55600       2.7309545     0.015330910
       1810.0000       290.04940       98745.714       11845.137       1.7390000       2.8315000     -0.56100000       341.16600       2.3832359     0.014000269
       1815.0000       290.10881       98740.587       11919.295       1.3365000       2.6042500     -0.25200000       342.25700       2.5787017     0.012046273
       1820.0000       290.21812       98740.357       12013.449       1.6030000       2.1787500     -0.71400000       341.53100       2.2268115     0.018352667
       1825.0000       290.24394       98741.247       12095.170       1.3280000       1.7432500     -0.40025000       341.95800       3.5914036     0.017222544
       1830.0000       290.20609       98732.810       12177.852       1.1910000       2.2112500     -0.31500000       341.63200       3.2740683     0.021894721
       1835.0000       290.19880       98748.718       12232.678      0.58375000       1.7465000     -0.32950000       341.21600       2.6265152     0.020717427
       1840.0000       290.16130       98753.479       12238.328      0.62375000       1.1890000    -0.070250000       341.59800       2.6235794     0.015271718
       1845.0000       290.05455       98739.905       12148.065       1.2690000       1.4557500     -0.29325000       341.98400       2.4274052     0.016105052
       1850.0000       289.99392       98738.587       12082.696      0.68800000       3.0100000     0.050750000       343.09000       4.6637058     0.022808118
       1855.0000       289.94565       98740.948       12012.072     -0.22525000       1.5857500      0.56225000       343.54300       3.0377265     0.016558453
       1861.0000       289.87263       98744.493       11897.565       1.1185000       2.9967500     -0.55975000       341.16200       2.4682859     0.019182373
       1866.0000       290.00203       98758.715       11940.140    -0.099750000       2.1297500      0.33475000       342.05900       3.4754483     0.015170210
       1871.0000       290.06213       98763.247       11924.877     0.087500010       3.0077500     -0.39075000       342.27000       3.3455447     0.016969908
       1876.0000       290.17108       98761.017       11925.502      0.61250000       1.8437500     -0.15100000       341.51600       2.5597906     0.018815799
       1881.0000       290.22775       98755.641       11915.583    -0.027750000       1.9327500     -0.21100000       341.31700       2.3965327     0.016421829
       1886.0000       290.17186       98736.805       11819.854      0.21525000       1.4377500     -0.12375000       341.44900       2.7344390     0.016097343
       1891.0000       290.19449       98732.438       11803.777     -0.58650000       1.2545000    -0.034000000       342.84000       2.5194177     0.018367657
       1896.0000       290.25390       98731.888       11862.030     -0.58150010       1.8827500     -0.18525000       341.92900       2.7759962     0.017420541
       1901.0000       290.30476       98733.329       11892.284     -0.63125000       1.6635000      0.37375000       341.50100       2.8687559     0.014360617
       1906.0000       290.38360       98750.551       11910.404      0.75075010       1.5172500    -0.062500000       342.25100       2.8312881     0.018424455
       1911.0000       290.46332       98758.122       11983.097      0.51425000       1.7752500     -0.26275000       342.12600       2.4059820     0.013566269
       1916.0000       290.55753       98760.683       12106.438      0.86925010       2.4845000     -0.28000000       341.26000       3.1704636     0.021574559
       1921.0000       290.61669       98761.477       12184.108      0.93950000       2.2077500     -0.36175000       342.50300       2.7974838     0.019739113
       1926.0000       290.68057       98761.045       12307.538      0.14650000       1.8602500     -0.54850000       342.20400       3.7769021     0.024105745
       1931.0000       290.71873       98755.699       12382.799     0.036000000       1.9532500     -0.23600000       342.25800       5.0733395     0.025269007
       1936.0000       290.67191       98739.665       12356.192      0.28375000       2.5540000     -0.35300000       341.51700       2.3441421     0.022837361
       1941.0000       290.69449       98732.990       12384.689      0.96225010       2.4160000     -0.70950000       342.17000       3.5783264     0.016144926
       1946.0000       290.75254       98722.162       12453.211    -0.058250000       1.9257500     -0.21675000       343.74100       2.6532759     0.019961027
       1952.0000       290.81612       98722.950       12491.508      0.38725000       1.8792500     -0.57775000       342.38300       2.4396727     0.019478346
       1957.0000       290.92731       98738.693       12539.608      0.18100000       2.1815000      0.18375000       342.44700       3.0574794     0.021159820
       1962.0000       290.97995       98749.186       12540.951     -0.58800000       1.3325000      0.44000000       344.10300       2.8722575     0.020588484
       1967.0000       291.03402       98770.558       12512.506       1.0157500       1.7205000      0.38125000       343.98900       2.8716843     0.033917612
       1972.0000       291.00948       98775.466       12444.849      0.32400000      0.57650000     0.095250000       343.59500       3.1586689     0.020913354
       1977.0000       290.91101       98770.487       12320.559     -0.55025010       1.6257500    -0.036750000       343.45300       4.0273733     0.020624025
       1982.0000       290.82396       98764.979       12220.826     -0.64775000       1.7195000    -0.049250000       341.82100       2.7071412     0.021085287
       1987.0000       290.62652       98745.705       12061.947     -0.86500010       2.5042500     0.096000000       341.73000       3.8737683     0.021654736
       1992.0000       290.55175       98735.569       11980.369      0.59700000       2.7025000      0.16175000       342.36500       2.6761778     0.016462420
       1997.0000       290.56103       98727.782       11940.855      0.87525000       2.7065000     -0.43600000       341.02900       2.3265779     0.020954187
       2002.0000       290.53507       98722.647       11918.950      0.44800000       1.4430000     -0.46200000       342.68500       2.9726740     0.025592519
       2007.0000       290.56927       98716.948       11963.623      0.17875000       3.0305000      0.11025000       343.05800       3.3799383     0.019767893
       2012.0000       290.55178       98719.421       11961.207      0.35725000       1.8310000    -0.093250010       342.01500       2.1579229     0.031671593
       2017.0000       290.44010       98730.483       11921.378      0.84975000       1.6795000      0.58600000       343.64900       3.4546514     0.023097738
       2022.0000       290.43057       98737.816       11941.790       1.7187500       3.2040000     0.092500000       342.19400       2.5472030     0.015968175
       2027.0000       290.46819       98752.656       11961.537      0.93300000       3.7752500     -0.65275000       342.43500       3.0092726     0.023034295
       2032.0000       290.50551       98759.495       12018.361      0.59125000       3.7877500     -0.27025000       341.60300       2.4097908     0.027623033
       2037.0000       290.62739       98759.676       12169.835       1.1397500       2.3000000     -0.33900000       342.37900       2.7696573     0.021087044
       2043.0000       290.68703       98761.421       12272.509     0.028500000       4.6355000     -0.25600000       341.81400       2.7197328     0.018900415
       2048.0000       290.70996       98761.487       12351.269      0.24150000       2.2782500      0.40675000       343.12000       2.5166232     0.019851164
       2053.0000       290.70742       98759.889       12397.166      0.75575010       2.9832500     -0.43775000       341.78200       2.8226582     0.020155568
       2058.0000       290.69065       98758.362       12428.118      0.75450000       2.8027500     -0.25500000       342.22500       2.4188770     0.016993168
       2063.0000       290.62218       98753.187       12405.960       1.4617500       1.0080000      0.45650000       343.60700       2.2550279     0.018257528
       2068.0000       290.48535       98743.025       12323.429      0.16650000       1.5575000      0.91500000       343.95200       2.4103453     0.020543140
       2073.0000       290.39611       98736.092       12272.526     0.090750000      0.98950000     -0.17725000       343.70500       2.4677055     0.021685479
       2078.0000       290.24931       98725.139       12172.513     -0.25825000       2.3170000    -0.056000000       343.81500       2.1603700     0.021700040
       2083.0000       290.20417       98721.969       12131.581     -0.12950000       2.3585000     0.022500000       342.35900       2.4926759     0.019182745
       2088.0000       290.21849       98722.246       12151.425      -1.7462500       1.9707500     -0.17425000       343.15600       3.3210402     0.022313074
       2093.0000       290.25770       98726.193       12121.522      -1.1107500       2.9575000      0.15550000       342.31300       2.5224618     0.023302482
       2098.0000       290.36065       98737.530       12063.153     -0.15325000       2.2025000      0.14625000       342.88200       2.8129375     0.019007748
       2103.0000       290.44749       98744.610       12057.270      0.27400000       3.6790000     -0.81150000       342.62100       2.9035896     0.030501492
       2108.0000       290.60635       98754.396       12061.809      0.15925000       3.0237500    -0.067500000       343.19400       2.8713370     0.017289506
       2113.0000       290.64216       98759.191       12060.851      -1.1930000       2.7357500      0.11250000       342.21400       3.0894395     0.023750107
       2118.0000       290.61420       98760.233       12106.648     -0.70500000       4.0457500     -0.67250000       342.42800       3.4329071     0.020305754
       2123.0000       290.60176       98761.587       12117.888     -0.66475000       3.2617500     -0.26050000       341.59300       2.9452903     0.018838962
       2129.0000       290.49362       98760.385       12081.926     -0.59550010       2.9902500    -0.059750000       342.43300       2.9462066     0.025500579
       2134.0000       290.47136       98760.398       12091.903      -1.2157500       1.6805000     -0.21950000       343.56500       2.4841874     0.028411473
       2139.0000       290.50813       98761.134       12130.572     -0.94700000       2.8282500      0.98875000       343.09200       2.6580032     0.030090165
       2144.0000       290.48898       98759.224       12142.308    0.0077500000       2.2465000      0.31950000       342.68400       3.0667100     0.029430620
       2149.0000       290.45311       98757.408       12157.223       1.6840000       3.0657500     0.078250010       342.53900       2.7178852     0.020226472
       2154.0000       290.43312       98751.692       12161.618       2.2185000       2.4567500     -0.21850000       341.56900       3.0766990     0.018867666
       2159.0000       290.38798       98741.719       12140.940       1.0077500       2.5420000     -0.40875000       342.47900       3.7518994     0.017947222
       2164.0000       290.39540       98734.798       12154.365       1.9632500       3.1610000     -0.20425000       341.83400       3.0347412     0.015815154
       2169.0000       290.44607       98725.286       12186.310       1.9440000       3.8530000     -0.51125000       341.15200       2.9052722     0.018162164
       2174.0000       290.46598       98721.065       12202.379      0.92550000       4.1435000     -0.11650000       341.18400       2.2351231     0.019968436
       2179.0000       290.47464       98720.136       12217.008       1.8190000       2.7997500     -0.35175000       341.96900       4.1189198     0.021976963
       2184.0000       290.54270       98719.046       12254.847       2.1005000       2.8385000     -0.97800000       341.92500       2.6939644     0.016095404
       2189.0000       290.62869       98720.268       12292.086       1.6772500       2.1182500     -0.18725000       342.23900       2.3844153     0.027438203
       2194.0000       290.70756       98720.235       12337.496       1.1962500       1.6137500     -0.36175000       342.12800       3.3423857     0.018466331
       2199.0000       290.85677       98720.133       12422.387      0.38250000       1.9742500     -0.39425000       342.41500       2.9321610     0.028250424
       2204.0000       290.91123       98720.119       12459.927       1.1697500       1.6147500      0.16275000       342.86900       2.5903403     0.030822330
       2209.0000       290.93901       98720.336       12471.724      0.54025000       2.8287500    -0.077000010       342.19800       2.6639125     0.016547726
       2214.0000       290.87574       98720.336       12488.249       1.2750000       3.5410000     -0.10500000       341.63200       3.2191473     0.024455406
       2220.0000       290.71661       98720.305       12508.193       1.9387500       2.1817500      -1.0130000       342.07500       2.9828410     0.022057896
       2225.0000       290.59254       98720.305       12460.337      0.65625010       3.2745000     -0.48750000       341.34600       2.3731708     0.020282328
       2230.0000       290.38160       98719.809       12384.353       2.6677500       2.1415000      0.48425000       342.80700       3.0741070     0.015950870
       2235.0000       290.31356       98720.237       12275.177       1.7322500       2.4885000     -0.78350000       341.99500       3.0616460     0.018235863
       2240.0000       290.24179       98723.929       12179.963       2.6630000       2.1210000     -0.27275000       342.06400       2.8674197     0.019729031
       2245.0000       290.21417       98737.874       12104.331       1.4452500       2.9817500     0.066750000       342.16400       2.8127086     0.030287325
       2250.0000       290.15573       98742.150       12025.935       1.6282500       2.7042500     -0.66775010       342.39700       2.9029297     0.018047101
       2255.0000       290.05519       98738.427       11915.073       2.3942500       1.8360000     -0.33125000       342.44500       3.4029357     0.017193687
       2260.0000       289.99459       98740.477       11849.241       1.8740000       4.8475000     -0.24925000       341.09400       3.2174024     0.026273405
       2265.0000       289.94633       98742.541       11807.713       1.5192500       4.0585000    -0.096000000       341.87000       3.5058042     0.014603396
       2270.0000       289.88117       98738.878       11779.081       1.1832500       3.4635000     -0.59700000       342.01700       2.6321415     0.014065537
       2275.0000       289.88544       98741.178       11790.283       2.0112500       2.2112500      0.14075000       341.71800       2.5370606     0.017602890
       2280.0000       289.94989       98751.431       11852.180       1.0177500       3.3345000     -0.30275000       341.35500       2.5831621     0.020351862
       2285.0000       289.97022       98753.089       11870.315      0.64100000       2.4412500    -0.078250010       341.90300       2.6307515     0.020696075
       2290.0000       290.00038       98751.328       11899.550      0.76425000       2.5447500      0.18650000       341.80100       2.9582994     0.020865008
       2295.0000       290.04503       98741.280       11931.946     -0.82850000       3.1642500     -0.30050000       341.80400       3.2296478     0.016367662
       2300.0000       290.05600       98739.034       11949.819    -0.096500000       3.5582500     -0.43975000       341.81800       2.9858233     0.018142045
       2305.0000       290.05462       98739.232       11965.300      0.61025010       3.5110000     -0.33450000       341.73000       2.7297915     0.016386296
       2311.0000       290.05923       98739.144       11995.879    0.0022500000       2.8477500     -0.55725000       341.73700       2.7723565     0.027957249
       2316.0000       289.97615       98748.293       11998.208       1.0575000       2.5552500     -0.32375000       341.27400       4.1927956     0.031058316
       2321.0000       289.93729       98752.072       12000.623      0.11000000       3.9615000    -0.029500000       341.47200       2.5210455     0.012975026
       2326.0000       289.90979       98750.338       12013.112      0.22400000       2.9222500     -0.88900010       341.54800       2.6896173     0.017658122
       2331.0000       289.89093       98750.360       12014.828     -0.32400000       2.4010000    -0.038250000       342.07800       2.9665223     0.017893293
       2336.0000       289.82936       98753.040       11958.226      0.47875000       3.8647500     -0.28775000       341.88400       2.2808751     0.019797705
       2341.0000       289.88595       98750.768       11981.135      0.23025000       2.7335000      0.22900000       342.40600       2.7109429     0.013473121
       2346.0000       290.12724       98744.996       12093.450      0.28225000       2.0207500     -0.28300000       342.25000       2.7649281     0.015592101
       2351.0000       290.18222       98739.942       12129.183      0.13850000       1.8262500      0.10075000       342.36400       2.7544386     0.013920270
       2356.0000       290.24791       98728.910       12199.484      0.71550010       3.2317500     -0.55575000       342.01900       2.4258954     0.021252815
       2361.0000       290.23862       98723.141       12211.242     0.026750000       1.6985000     -0.39575000       342.27700       2.2621424     0.019369313
       2366.0000       289.95942       98721.527       12102.080      0.42075000       2.1955000     -0.42475000       342.16400       3.5908315     0.020595829
       2371.0000       289.85491       98719.727       12049.417    -0.087250000       2.3105000     -0.26775000       342.62600       2.7911423     0.014380589
       2376.0000       289.84011       98720.307       11990.036     -0.35825000       2.1887500     -0.30525000       341.95600       2.6839203     0.016161302
       2381.0000       289.83336       98720.329       11970.648     -0.80100010       2.6977500      0.47550000       341.93900       4.0320984     0.026903964
       2386.0000       289.89608       98720.208       11988.790     -0.39675000       3.1922500    -0.038500000       341.38100       3.0705377     0.017837375
       2391.0000       289.95691       98720.170       12010.899     -0.44450000       2.6557500     -0.20025000       341.50400       2.8031101     0.017403650
       2396.0000       290.08630       98714.354       12108.153     -0.25875000       1.9020000     0.068750000       342.11900       3.3612918     0.018786251
       2402.0000       290.12469       98720.442       12126.973      0.39375000       1.4152500      0.26475000       343.05100       3.4503169     0.015693157
       2407.0000       290.11309       98740.633       12077.969      0.30875000       2.6397500      0.44175000       342.59100       4.7584138     0.023229906
       2412.0000       290.10566       98743.120       12076.049     -0.10075000       2.1430000     -0.19250000       341.52500       2.6069522     0.016001398
       2417.0000       290.00945       98742.723       12045.715      0.21850000       1.7902500      0.11800000       342.04800       2.3934268     0.012016056
       2422.0000       289.97677       98741.165       12040.655     -0.62075000       1.3877500      0.27325000       342.97500       2.8513884     0.014418097
       2427.0000       289.98737       98718.327       12103.265     -0.46525000       1.3520000     -0.23225000       341.25700       2.6272042     0.014776578
       2432.0000       290.00123       98716.059       12113.847     -0.48300000       1.5065000      0.50675000       342.11200       2.7186821     0.018217363
       2437.0000       290.01234       98731.662       12070.119      0.59225000       1.4060000      0.26375000       342.42400       2.5809562     0.016357708
       2442.0000       290.05953       98737.606       12076.797     -0.48375000       1.1170000      0.19525000       343.40200       3.3596430     0.012425954
       2447.0000       290.18239       98748.732       12092.380      0.21175000       1.4522500     0.066000000       342.24000       2.8680683     0.015149420
       2452.0000       290.22472       98753.578       12116.535     -0.25200000       2.0070000    -0.044500000       342.31800       2.8317636     0.014956520
       2457.0000       290.25127       98748.967       12178.961     -0.97225000       1.5627500      0.29525000       342.78400       2.2440379     0.013670508
       2462.0000       290.26423       98750.361       12221.894     -0.49100000       2.1452500      0.11000000       341.86700       2.9151028     0.012597874
       2467.0000       290.21796       98754.246       12262.072     -0.69650000       2.9325000     -0.57725000       341.72900       3.1497303     0.010812706
       2472.0000       290.18779       98756.278       12288.555      -1.1407500       3.1022500     0.079250000       341.65200       2.7816210     0.012451207
       2477.0000       290.20099       98759.752       12344.244      -1.1907500       2.7942500   -0.0087500000       341.29200       2.9029463     0.010561451
       2482.0000       290.14023       98761.352       12322.167      -1.1310000      0.98350010      0.60325000       342.08700       2.7465723     0.014435057
       2487.0000       289.99322       98761.633       12227.751     -0.91275010       2.7482500     -0.27150000       341.25100       3.0169769     0.014889827
       2493.0000       289.90307       98759.793       12155.782      -1.7105000       2.6000000     -0.73075000       341.61300       4.0542468     0.014467584
       2498.0000       289.81417       98756.055       12060.351     -0.76300000       2.1420000     -0.25750000       341.76700       2.7426692     0.014208062
       2503.0000       289.75628       98754.068       11981.939     -0.49175000       1.3537500      0.20675000       342.80200       3.4349103     0.014311952
       2508.0000       289.75707       98750.398       11921.683      -1.2790000       1.5267500      0.35750000       342.82200       4.0673211     0.017630110
       2513.0000       289.73702       98749.056       11871.610      -1.5805000       1.7690000     -0.51175000       341.77300       3.8740158     0.015932734
       2518.0000       289.67810       98753.714       11779.652     -0.86200000       2.4720000    -0.050500000       342.55500       2.6464434     0.013643801
       2523.0000       289.69682       98748.884       11781.034     -0.97075000       2.2085000     0.024750000       342.33700       2.9871109     0.011508775
       2528.0000       289.79486       98737.820       11872.782     -0.43775000       2.1070000      0.28875000       342.38700       3.2990113     0.013786802
       2533.0000       289.81848       98731.938       11906.106      -1.3127500       1.3057500     -0.61675000       342.27200       2.9173423     0.013448960
       2538.0000       289.85762       98720.577       11971.725      -1.9412500       1.0935000      0.62750010       342.21100       3.3194071     0.012516050
       2543.0000       289.86492       98716.484       12001.633     -0.90225010       1.1257500      0.35000000       341.49100       2.9975539     0.012347592
       2548.0000       289.79078       98719.144       11965.149      -1.1227500       1.2905000      0.19025000       341.87800       2.8204380     0.012332857
       2553.0000       289.79352       98720.791       11999.202     -0.92350010       1.4475000      0.38750000       341.80300       3.5151088     0.013978684
       2558.0000       289.84239       98722.416       12076.448     -0.85275010       2.1127500      0.14625000       341.72600       2.6085499     0.010871571
       2563.0000       289.86238       98727.674       12122.994     -0.51900010      0.76125000     -0.48775000       342.78200       2.4817385     0.012116428
       2568.0000       289.87694       98737.698       12183.081      -1.8000000       1.2892500     -0.40050000       342.41100       3.4574393     0.015448471
       2573.0000       289.92274       98744.706       12233.146      -1.0902500       2.5797500     -0.33825000       342.32400       2.3696043     0.010776758
       2578.0000       289.99436       98754.415       12278.206     -0.38975000       2.6060000     -0.14950000       342.05800       3.2472306     0.013253869
       2584.0000       290.02158       98759.832       12290.999     -0.67400000       2.4505000    -0.020750000       342.09100       3.7036124     0.012934011
       2589.0000       290.04205       98761.556       12282.615     -0.60450010       2.4087500      0.12975000       342.09800       3.6553500     0.013426871
       2594.0000       290.08251       98760.837       12298.532      0.32800000       2.4000000     -0.11950000       342.05700       2.9791094     0.015890194
       2599.0000       290.09926       98757.360       12292.113     -0.17350000       1.9047500    -0.013250000       342.52700       3.5335669     0.013609718
       2604.0000       290.10921       98751.631       12297.898     -0.78600000       1.4280000      0.65200000       343.01700       2.7511805     0.015117930
       2609.0000       290.16949       98741.639       12358.801     0.015250000       1.6275000      0.92875000       342.74200       3.1628552     0.012936258
       2614.0000       290.15334       98734.705       12331.627       1.1980000       3.8765000     -0.18625000       343.01100       2.1143297     0.012664433
       2619.0000       290.03329       98725.095       12224.346      0.86675010       2.5377500     -0.26575000       341.59400       2.3615492     0.015582921
       2624.0000       290.03919       98720.848       12210.525      0.96950010       1.4490000     0.062500000       341.91400       2.5255890     0.012790687
       2629.0000       290.08766       98717.199       12193.263      0.52075000      0.95100000      0.38875000       342.78700       4.0680678     0.016417130
       2634.0000       290.11706       98721.785       12211.897      0.16950000       1.2192500      0.24725000       342.86000       4.9114006     0.026890844
       2639.0000       290.21368       98734.085       12311.481      0.57425000       2.8412500     -0.43600000       341.89200       2.5629486     0.012599188
       2644.0000       290.21763       98740.116       12331.289      0.40375000       2.0650000     -0.33150000       341.86600       2.4302574     0.013529555
       2649.0000       290.15297       98750.253       12315.377     -0.99400000       2.1162500    -0.087500010       342.81200       3.4410053     0.014908014
       2654.0000       290.13293       98755.515       12321.256       1.1220000       1.8515000     -0.90575000       342.43700       2.3366365     0.011031644
       2659.0000       290.10592       98755.894       12320.257     -0.14875000       2.7882500      0.16900000       342.66000       2.5602919     0.010666182
       2664.0000       290.07606       98756.052       12309.067     0.049500000       2.7077500    -0.097250010       342.00900       3.3271578     0.014905410
       2670.0000       290.05752       98758.044       12307.247     -0.71175000       3.1367500     -0.47275000       341.41300       3.4934134     0.015579782
       2675.0000       290.01572       98750.409       12270.008    -0.068750000       2.2867500     -0.28700000       341.40800       2.7544944     0.013262945
       2680.0000       289.94414       98736.039       12198.017     -0.41900000       2.2112500     -0.33050000       341.62200       2.8386357     0.014103638
       2685.0000       289.92957       98715.625       12172.469     -0.84850000       2.4940000     0.014250000       341.53300       2.6370296     0.012351085
       2690.0000       289.89940       98706.857       12126.620     -0.75625000       1.9667500     -0.30600000       341.84900       2.8182115     0.011490905
       2695.0000       289.83991       98703.311       12046.898     -0.98325000       2.0312500     -0.11425000       341.91900       3.1404161     0.014921393
       2700.0000       289.83782       98706.647       12017.494     -0.72975000       1.9090000    -0.087750000       342.22300       2.7362210     0.015467356
       2705.0000       289.89023       98729.313       12010.014     -0.39325000       2.1370000     -0.51650000       341.52500       3.0643201     0.015505289
       2710.0000       289.90033       98741.499       11995.159     -0.34600000       2.2877500     -0.17025000       341.83700       3.2476363     0.014403188
       2715.0000       289.91047       98751.227       11995.238      0.26350000       1.8697500     -0.24525000       342.11000       2.5283506     0.013222191
       2720.0000       289.96337       98763.678       12040.348     -0.14175000       1.0210000     -0.30000000       342.41800       3.3940051     0.012635056
       2725.0000       289.96045       98765.061       12059.610     0.079750000       1.1285000     -0.51625000       342.68300       2.7416912     0.013217331
       2730.0000       289.89979       98757.077       12055.803      0.87075010       1.3647500     0.016000000       342.63000       2.3705236     0.015515474
       2735.0000       289.88448       98742.676       12101.307      0.56625000       1.2905000     -0.20100000       342.19700       2.3349588     0.012127691
       2740.0000       289.85580       98734.458       12120.426       1.1917500      0.55925000      0.13550000       342.60700       3.2077698     0.014142109
       2745.0000       289.75501       98720.221       12092.635       1.3582500       1.4587500     0.083250000       341.55200       2.8569658     0.015290384
       2750.0000       289.73180       98716.529       12099.980      0.94450000       1.2837500     -0.15900000       341.70400       2.5740336     0.012291700
       2755.0000       289.74558       98720.226       12118.340      0.53625010      0.84075000      0.10175000       342.18000       2.4153768     0.014321837
       2761.0000       289.79729       98735.919       12143.598      0.62225000      0.97800000     -0.19025000       341.77200       3.7495953     0.019751031
       2766.0000       289.87959       98752.100       12173.269      0.18700000      0.87075010      0.10825000       342.53500       4.9465546     0.029420707
       2771.0000       289.91718       98758.631       12186.500     -0.39275000      0.95125000      0.26125000       342.32500       3.4231985     0.015970624
       2776.0000       289.87225       98760.001       12143.027     0.080000010      0.47900000      0.27550000       342.47900       2.8273632     0.012639092
       2781.0000       289.89486       98756.500       12151.426     -0.62725000      0.61900000      0.20175000       342.15500       3.5990717     0.016709407
       2786.0000       289.95469       98741.084       12196.556     -0.58550000      0.40575000     0.048750000       341.82800       3.1698654     0.015052002
       2791.0000       290.00575       98733.341       12233.654     -0.73150000       1.2975000     0.013250000       342.29500       5.2601158     0.052167782
       2796.0000       290.08560       98718.939       12291.159     -0.62900000       2.1167500      0.24425000       342.11500       4.2635759     0.022907638
       2801.0000       290.16492       98716.666       12350.439     -0.32075000       2.2657500     -0.64375000       341.95500       3.7805603     0.012992480
       2806.0000       290.25659       98728.695       12402.674     -0.94350000      0.96575000     -0.16425000       342.30700       3.0084501     0.015016187
       2811.0000       290.31541       98735.811       12464.745     -0.46300000       1.2002500      0.20025000       342.29900       3.3345340     0.014401539
       2816.0000       290.37983       98754.803       12555.666     -0.67700000       2.3385000    -0.063500000       342.23000       3.8565274     0.014243146
       2821.0000       290.41797       98759.107       12623.829     -0.44575000       2.7330000     -0.33125000       342.40000       3.7282385     0.017891730
       2826.0000       290.37167       98750.419       12675.694    -0.021000000       2.0735000      0.61775000       342.70700       2.8986583     0.011855087
       2831.0000       290.39372       98745.218       12733.537      0.70125000       3.3630000     -0.76525000       342.51900       2.4481157     0.011270717
       2836.0000       290.48264       98725.543       12832.834      0.35800000      0.84875010      0.44225000       343.02100       2.8760893     0.017204966
       2841.0000       290.51119       98721.373       12845.566      0.84725000       2.5022500     0.022500000       342.86900       2.9319588     0.016177123
       2846.0000       290.54731       98729.877       12800.838      0.82175000       2.1957500     -0.66050000       342.10100       2.4436844     0.015543588
       2852.0000       290.56472       98736.571       12756.440       1.0737500       2.0482500     -0.37125000       342.32800       2.6087503     0.014555123
       2857.0000       290.51758       98753.808       12648.708      0.74650000       2.9397500     -0.45300000       342.67800       3.6640531     0.016226549
       2862.0000       290.48710       98759.335       12569.782     -0.71725000       1.9587500     -0.29900000       342.34900       2.5605475     0.016466838
       2867.0000       290.47395       98759.703       12523.672      0.63375000       2.6357500     -0.33625000       342.48400       3.3967293     0.016180517
       2872.0000       290.44010       98755.196       12458.039     -0.24475000       3.6132500    -0.051500000       342.01700       3.1553444     0.016431178
       2877.0000       290.36611       98738.003       12353.779    0.0085000000       3.4225000     -0.56875000       341.83300       2.8618397     0.018288095
       2882.0000       290.33004       98731.794       12292.044      0.22900000       2.1962500     -0.26200000       342.35300       2.4521007     0.015674042
       2887.0000       290.30530       98721.905       12242.480     -0.24100000       1.8892500      0.44125000       342.68500       3.6821565     0.018810767
       2892.0000       290.28906       98723.183       12217.155       1.0567500       3.1047500     -0.40500000       342.94100       3.0169847     0.015347089
       2897.0000       290.30011       98742.298       12216.301     0.066750000       2.0040000      0.56875000       343.09700       3.6932487     0.018346451
       2902.0000       290.30011       98748.543       12231.162      0.47625000       3.6645000     -0.67400000       342.28400       2.8854081     0.015293494
       2907.0000       290.28766       98758.516       12280.413     -0.76725010       2.9772500    -0.057250000       342.58300       2.2818927     0.011977963
       2912.0000       290.30163       98757.206       12315.798      0.63325010       1.1092500     -0.45200000       342.46000       2.3774220     0.013318671
       2917.0000       290.32548       98739.029       12370.568       1.4335000       1.8710000     -0.11100000       342.41200       2.3480823     0.013548440
       2922.0000       290.35907       98731.343       12402.627       1.2487500       2.7652500     -0.23925000       342.45200       3.1026511     0.012218749
       2927.0000       290.43334       98716.592       12397.396       1.0607500       1.5730000      0.27050000       342.24500       2.5143380     0.013623234
       2932.0000       290.46923       98717.195       12435.542       1.2755000       1.4475000     -0.21600000       342.15800       2.8759392     0.017015375
       2937.0000       290.54888       98736.573       12524.422       1.3565000       1.3760000     0.048500000       342.25500       4.0290064     0.023341883
       2943.0000       290.49354       98744.413       12539.093       2.0805000       2.2855000     -0.24325000       341.65300       3.0396865     0.015991519
       2948.0000       290.35449       98761.097       12562.334       1.6792500      0.85100000     -0.66425000       342.20600       2.8989107     0.016512884
       2953.0000       290.24188       98756.384       12516.173       1.1845000      0.89000000      0.15525000       341.79300       2.5957897     0.014770975
       2958.0000       289.99419       98723.329       12334.386       1.2390000      0.98325000      0.53875010       342.03800       3.9371115     0.017829207
       2963.0000       289.93114       98719.985       12285.812      0.99975000       2.0007500     -0.58175000       341.87500       4.1673642     0.018007377
       2968.0000       289.96334       98720.622       12273.562      0.25500000       1.8707500     0.098500010       342.61700       3.9522390     0.019871527
       2973.0000       290.00829       98725.408       12266.594       1.0395000       1.3775000     -0.16950000       342.48500       2.6912627     0.015733447
       2978.0000       290.17069       98757.332       12322.469       1.0762500       2.6357500     0.041000000       342.02900       2.6547319     0.013561364
       2983.0000       290.25375       98761.316       12353.344     -0.14250000       2.2812500      0.45200000       342.31500       3.2448316     0.018295240
       2988.0000       290.36335       98749.122       12381.647      0.68500010       2.4930000    -0.022500000       342.34400       2.5478532     0.013993958
       2993.0000       290.37820       98742.832       12392.764      0.64825000       2.4472500    -0.013500000       342.12100       2.8256524     0.016133449
       2998.0000       290.31511       98722.934       12413.892       1.5942500       2.1882500      0.10375000       342.02600       2.6216929     0.014299371
       3003.0000       290.28898       98721.550       12413.146       1.6325000       2.3965000      0.31125000       342.75000       2.5543648     0.014405932
       3008.0000       290.22306       98736.453       12384.389       1.8250000       2.5447500    -0.048500000       342.09700       3.8376789     0.020822183
       3013.0000       290.16279       98736.244       12349.857      0.48775000       1.6297500      0.16150000       342.47000       3.3353682     0.023246482
       3018.0000       290.10481       98736.383       12286.159       1.1460000       1.9772500     -0.55325000       341.65900       4.7966619     0.039063532
       3023.0000       290.08128       98736.098       12275.339     -0.22500000       1.8502500      0.14125000       342.17000       3.6138182     0.030926327
       3028.0000       290.03125       98724.601       12266.625      0.77925000       2.3007500     -0.17625000       341.56800       2.6245979     0.014536814
       3034.0000       290.04736       98722.561       12283.672      0.51850000       1.9057500     -0.42250000       341.86200       2.8644615     0.017820764
       3039.0000       290.14003       98727.930       12346.917      0.43375000       2.5152500     -0.34100000       341.53600       2.5801466     0.014415491
       3044.0000       290.19045       98734.772       12397.830       1.3375000       2.1777500     -0.18825000       341.96100       3.1294823     0.021038485
       3049.0000       290.25028       98745.283       12454.793       1.2515000       1.2567500      0.27300000       341.87600       2.4351000     0.017183248
       3054.0000       290.28158       98749.412       12487.127      0.45975000       1.3690000     -0.37300000       342.06200       5.2629634     0.034423533
       3059.0000       290.29397       98759.321       12518.401      0.82300000      0.97225000      0.28575000       342.21400       4.0902632     0.023487888
       3064.0000       290.32378       98755.122       12559.266      0.96175000       1.0787500      0.18975000       342.13600       3.2567002     0.017169682
       3069.0000       290.35505       98733.600       12593.906       1.0127500       1.0280000      0.20100000       342.35700       2.7541482     0.015236961
       3074.0000       290.35635       98732.066       12597.470    -0.042750000       2.3240000      0.25400000       342.13900       2.9265614     0.015466357
       3079.0000       290.35840       98732.834       12612.021      0.79750000       1.8590000      0.17450000       342.39500       7.2233861     0.066542651
       3084.0000       290.34952       98735.507       12599.226      0.49600000       1.0465000     -0.16300000       342.89000       4.6828483     0.050264647
       3089.0000       290.30623       98753.709       12530.835      0.20825000       1.2445000      0.57050000       342.54500       2.8105655     0.016685630
       3094.0000       290.27609       98751.489       12498.232       2.3245000       1.3265000     -0.23550000       343.00600       2.5701520     0.014558551
       3099.0000       290.25369       98733.690       12484.332       1.6347500       2.6205000     -0.67225000       342.20900       3.5983145     0.020547279
       3104.0000       290.23375       98733.290       12458.602       1.0315000       3.1095000     -0.34375000       341.69600       2.7971695     0.015489044
       3109.0000       290.18779       98732.178       12413.930       1.0437500       2.7565000     -0.58750000       342.09400       3.0927563     0.015352518
       3114.0000       290.19515       98736.609       12403.731       1.6312500       2.1455000    -0.078500000       341.98500       2.7636200     0.018073373
       3119.0000       290.23592       98759.369       12413.285      0.56125000       1.2615000      0.54225000       342.23400       2.8886042     0.017009973
       3125.0000       290.28451       98755.564       12413.173       1.1910000      0.53125000      0.18600000       342.83300       2.3463447     0.015951064
       3130.0000       290.35642       98739.098       12428.126       1.4245000       1.4227500    -0.042750000       342.11600       3.1534864     0.014351024
       3135.0000       290.37036       98733.890       12382.353       1.6447500       1.7552500     0.027250000       342.40300       2.8135246     0.016337268
       3140.0000       290.40053       98732.206       12398.693      0.43575000       1.4955000    -0.071500000       342.65800       2.9403018     0.014862549
       3145.0000       290.43012       98755.035       12455.278      0.47200000      0.51200000      0.38925000       342.81300       4.5436068     0.028603572
       3150.0000       290.44977       98759.816       12520.998     0.027750000       1.2435000      0.66575000       342.75300       2.6432912     0.015024852
       3155.0000       290.48470       98742.155       12679.733      0.13250000       1.9657500      0.44100000       342.34500       3.2744306     0.021542576
       3160.0000       290.50574       98738.858       12774.680       1.3807500      0.89425000      0.13225000       342.58100       2.2910039     0.013968926
       3165.0000       290.51449       98738.019       12841.688       1.9360000       1.1615000     -0.15525000       341.81400       2.7231650     0.019899876
       3170.0000       290.50648       98731.974       12907.274       1.3415000       1.2047500     -0.24950000       341.68200       2.4841140     0.017420919
       3175.0000       290.48492       98736.753       12866.575      0.86575000      0.27850000     0.045000000       342.31300       2.8345688     0.017672606
       3180.0000       290.44425       98758.858       12736.566       1.1287500      0.81675000    -0.046750000       342.26400       3.7001695     0.032784268
       3185.0000       290.46002       98749.573       12666.955       1.1037500      0.99100010     -0.26925000       341.65700       3.4511802     0.020409590
       3190.0000       290.45001       98745.629       12612.674      0.96700010       1.2307500    -0.062750000       341.81200       2.8575044     0.017880299
       3195.0000       290.47025       98730.224       12666.470      0.85625000      0.87675010     -0.38675000       341.76300       2.8987293     0.016118019
       3200.0000       290.46286       98726.496       12648.177      0.65200000      0.85500000     -0.29300000       341.69700       2.6581467     0.014864874
       3205.0000       290.43094       98730.143       12593.997      0.91775010       1.0342500     -0.17900000       342.21200       3.5931915     0.021120018
       3210.0000       290.33208       98749.131       12476.036      0.13500000      0.73850010      0.26850000       342.53400       3.6975505     0.017897721
       3216.0000       290.43379       98732.459       12466.331      0.64575000      0.84550010    -0.028750000       343.07100       4.0454589     0.023877873
       3221.0000       290.40914       98729.416       12425.902      0.24650000       1.4517500    0.0022500000       342.17600       4.3837909     0.027434399
       3226.0000       290.35616       98713.620       12429.050      0.31175000       2.2440000     -0.50650000       342.05200       3.3090002     0.019858248
       3231.0000       290.30218       98710.570       12403.418      0.45200000       1.5340000    -0.040000000       341.98900       2.6204890     0.017160191
       3236.0000       290.08930       98738.631       12284.013      0.47525000       1.8097500     -0.35025000       342.26800       3.7804232     0.018128234
       3241.0000       290.00688       98744.795       12235.974       1.0415000       1.4610000     -0.16575000       342.06400       2.7358063     0.019648294
       3246.0000       290.02965       98733.819       12232.511      0.62325000       1.8025000     -0.42450000       342.17900       2.9984437     0.021185378
       3251.0000       290.04205       98734.924       12231.973      0.75525000       2.8250000     -0.89375010       341.96400       2.9759863     0.015844722
       3256.0000       290.09396       98736.199       12236.060      0.20525000       1.8555000     -0.10525000       342.32100       2.3577630     0.017393759
       3261.0000       290.15533       98734.372       12284.416     0.024000000       1.9675000     -0.14225000       342.53400       3.3913176     0.029585271
       3266.0000       290.27173       98741.733       12398.172     -0.52625000      0.77825000     -0.19200000       342.83700       3.5449364     0.016826538
       3271.0000       290.31965       98742.275       12462.013     -0.30325000      0.34900000      0.75475000       343.28300       3.2349700     0.015274566
       3276.0000       290.37380       98723.016       12568.457     -0.36075000       2.1825000     -0.34250000       341.79500       3.0057696     0.015503134
       3281.0000       290.36936       98721.580       12607.746     -0.79000000       1.8377500      0.31175000       342.46200       3.6149716     0.018495008
       3286.0000       290.24143       98740.601       12552.939     -0.78850000       3.1980000     0.022500000       342.27400       3.3968462     0.018710349
       3291.0000       290.18313       98742.212       12526.073      0.46375000       1.8410000     -0.64175000       342.49100       3.8925374     0.018801013
       3296.0000       290.11968       98738.687       12474.377     -0.42825000       1.3650000      0.21675000       342.79600       3.1958607     0.019421057
       3302.0000       290.07829       98741.917       12432.815      0.59350000       1.7840000     -0.87425010       342.66700       2.4943434     0.016533614
       3307.0000       290.07511       98733.985       12402.352      0.12750000       2.4060000      0.52025000       342.73800       2.6767231     0.014539095
       3312.0000       290.10322       98733.536       12390.188      0.35525000       2.5305000     -0.14400000       342.88300       2.8425972     0.017202823
       3317.0000       290.17781       98752.673       12403.775      0.17400000       1.9282500     0.053000000       343.01600       3.0711374     0.019082107
       3322.0000       290.21824       98753.476       12393.832     -0.24750000       3.0362500     -0.40025000       342.22600       2.6112463     0.021917549
       3327.0000       290.32926       98733.856       12399.062     -0.35275000       2.9645000    -0.068500000       341.76800       2.7104923     0.014456398
       3332.0000       290.32010       98733.497       12372.930      0.32975000       3.0082500     -0.25650000       341.70300       2.5441562     0.016592571
       3337.0000       290.19934       98742.316       12307.866     -0.19550000       2.1895000     -0.13150000       342.12800       4.3156138     0.036036167
       3342.0000       290.12624       98740.015       12258.717     -0.34950000       1.5235000     -0.21350000       342.50900       2.3145974     0.012804334
       3347.0000       289.97819       98739.331       12188.736      0.10900000       1.4432500     -0.19250000       342.11300       3.0328092     0.017446310
       3352.0000       289.90967       98741.902       12150.102      0.12075000       1.2217500      0.13950000       342.47600       2.8511229     0.016001892
       3357.0000       289.90586       98734.009       12122.451      0.72825000       2.0335000   -0.0072500000       342.46100       2.3276475     0.017624158
       3362.0000       289.88960       98733.520       12112.071       1.0262500       1.4915000     0.021000000       342.55600       2.4433413     0.014143031
       3367.0000       289.88709       98752.636       12129.835       1.2245000       1.7620000     -0.32275000       343.16700       2.5120570     0.016756849
       3372.0000       289.90071       98753.500       12142.957      0.96350000       2.0075000    -0.089250010       341.91400       4.0002520     0.016189206
       3377.0000       289.88618       98735.021       12130.924      0.38650000       2.9530000      0.12425000       342.10000       4.3058225     0.022608650
       3382.0000       289.96065       98733.160       12190.603      0.64375000       1.8275000     0.096250010       342.43700       4.4493843     0.036543101
       3387.0000       290.14387       98736.907       12300.711      0.27150000       1.3557500      0.31225000       342.78600       2.8571901     0.018176655
       3393.0000       290.25813       98733.371       12418.951      0.78925000       1.0292500      0.13475000       342.45700       3.6742707     0.018189561
       3398.0000       290.41784       98736.392       12620.271      0.60900000       1.1865000      0.33250000       343.32600       2.3478697     0.014969018
       3403.0000       290.44039       98736.175       12674.275      0.35100000       2.7560000   -0.0095000010       343.00600       2.7727109     0.014265405
       3408.0000       290.31401       98724.696       12627.371      0.36975000       2.4562500    -0.046000000       342.98100       2.6772269     0.015831479
       3413.0000       290.27374       98722.554       12624.131      0.60275000       2.3457500     0.052500000       342.78500       3.4429859     0.015332653
       3418.0000       290.20124       98730.187       12569.091     -0.12025000      0.97550000      0.10325000       343.64000       2.4255382     0.012785024
       3423.0000       290.17424       98731.530       12538.822      0.19150000       1.9552500     -0.53350000       342.39300       2.9213296     0.016060455
       3428.0000       290.19989       98726.960       12544.713      0.81900010       2.4040000      0.26575000       342.55200       2.7871783     0.013569793
       3433.0000       290.19978       98731.775       12519.834       1.1625000       2.3145000     -0.28450000       342.77000       2.9514278     0.014045696
       3438.0000       290.17727       98749.749       12443.994      0.41850000       2.5945000      0.23875000       343.00000       2.5697267     0.013450293
       3443.0000       290.21037       98746.008       12431.703     0.028750000       4.4225000    -0.096250010       342.66000       2.2738262     0.017441370
       3448.0000       290.27331       98728.242       12441.999     -0.66475000       3.4817500     -0.39825000       341.61100       2.2641479     0.013946807
       3453.0000       290.33005       98730.236       12465.593      0.24050000       3.3975000     -0.83875010       341.86700       2.3295136     0.018734911
       3458.0000       290.41920       98730.660       12519.376    -0.089250010       1.7847500      0.77650000       343.11800       3.2414021     0.019888482
       3463.0000       290.49935       98727.879       12580.092    -0.078750010       2.6262500      0.14675000       342.66600       2.8427183     0.017314557
       3468.0000       290.59458       98739.578       12691.182      0.86675010       2.3975000     -0.25250000       342.17300       3.0308563     0.016564247
       3473.0000       290.63174       98744.586       12714.310       1.5690000       1.5502500      0.68275000       343.75200       2.6980965     0.014035173
       3478.0000       290.65776       98735.184       12709.156       1.6502500       2.3262500     -0.20150000       341.67700       2.4504915     0.013026856
       3484.0000       290.66315       98732.263       12701.292      0.52025000       2.9327500     -0.23650000       342.35300       2.6737355     0.014830071
       3489.0000       290.58007       98741.822       12602.947      0.73650000       1.8602500     -0.14475000       342.51600       2.5316052     0.014911512
       3494.0000       290.60663       98741.209       12627.076      0.80075000       1.8060000     0.041750000       342.35100       3.2441845     0.017109971
       3499.0000       290.70254       98727.747       12735.685      0.64500000       2.7455000     -0.19750000       341.71100       3.0249357     0.017017406
       3504.0000       290.72374       98729.202       12775.187      0.71375000       1.3285000     -0.49625000       341.97100       2.9416930     0.017702199
       3509.0000       290.76015       98742.111       12843.775     -0.14900000       2.0235000    -0.068000000       342.25800       2.3940841     0.013694606
       3514.0000       290.76244       98740.422       12851.253       1.2727500       2.4430000     -0.51000010       342.59100       2.6077943     0.023959703
       3519.0000       290.70682       98734.309       12810.456      0.71450000       2.2057500     -0.43675000       342.38200       3.5139957     0.016508240
       3524.0000       290.67737       98736.110       12761.565      0.20825000       1.9450000     0.080750000       342.68500       3.3911909     0.022880264
       3529.0000       290.67394       98737.597       12683.469      0.21825000       2.0130000     -0.22350000       342.60300       4.4068593     0.035333956
       3534.0000       290.61581       98730.781       12621.204      0.87400000      0.68275000      0.55525000       343.74300       2.4134565     0.013682481
       3539.0000       290.51396       98723.615       12541.894       1.2105000       1.3870000      0.62725000       342.83800       2.8604970     0.015349408
       3544.0000       290.44341       98726.387       12466.322       1.7277500       2.5167500     -0.23275000       342.09700       2.9067622     0.014683395
       3549.0000       290.34682       98726.501       12392.841      0.50750010       2.8407500      -1.0077500       342.11200       2.7301857     0.013096229
       3554.0000       290.30407       98721.499       12338.658       1.0132500       3.6210000     -0.13350000       342.07600       3.4110535     0.016641090
       3559.0000       290.27033       98724.139       12251.179      0.74575000       2.3680000     -0.22850000       341.97000       3.3287155     0.019720662
       3564.0000       290.31489       98729.011       12266.171      0.57700000       2.2455000      0.15275000       343.06000       3.0963240     0.026481445
       3569.0000       290.42686       98724.243       12352.512     0.074000000       1.8080000      0.11750000       342.40000       2.9141665     0.017358117
       3575.0000       290.52426       98723.195       12430.101      0.65975000       2.7445000      0.28200000       342.36200       3.0853541     0.016549147
       3580.0000       290.67342       98737.687       12547.424      0.93225000       1.5942500     0.061000000       342.76000       3.4957622     0.015820705
       3585.0000       290.66912       98724.689       12611.877      0.53325000       2.3217500     0.099750000       342.65700       2.4452685     0.015174518
       3590.0000       290.66158       98721.959       12671.307      0.35550000       2.3360000      -1.3117500       342.23500       2.8941282     0.015787886
       3595.0000       290.58411       98734.978       12741.429       2.1725000       1.4490000      0.18650000       342.43600       3.0138541     0.019442030
       3600.0000       290.54326       98741.057       12789.464      0.18275000       2.5877500      0.89675000       342.66300       4.3075201     0.031135468
       3605.0000       290.53017       98747.365       12846.987       1.6502500       1.9077500    -0.071250010       341.69400       2.3816739     0.015318775
       3610.0000       290.50054       98751.633       12850.301      0.89725010       1.9340000    -0.018000000       342.11800       2.6923257     0.014413314
       3615.0000       290.47091       98753.430       12818.492       1.3320000       1.6760000      0.64025000       342.59900       2.5459271     0.014559883
       3620.0000       290.45134       98752.266       12749.832      0.67800000       2.7220000     -0.21350000       342.33800       2.8870466     0.013778082
       3625.0000       290.43121       98745.817       12689.093      0.80100010       3.0212500       1.2455000       342.82300       2.8293955     0.019494736
       3630.0000       290.40025       98733.391       12584.310      0.96500000       2.9950000      0.18275000       342.16100       3.8506632     0.026213191
       3635.0000       290.36944       98738.286       12521.426      0.82000010       3.1707500     -0.20575000       342.27000       3.5600436     0.016905861
       3640.0000       290.34933       98735.303       12471.950       1.2405000       1.2210000    -0.035250000       342.30200       2.7488539     0.019074747
       3645.0000       290.31466       98732.334       12419.452      0.97250000       2.7852500     0.050500000       341.71600       3.1651087     0.014387855
       3650.0000       290.29362       98735.296       12387.515      0.62850000       2.0995000     -0.38775000       342.16000       2.5624128     0.016109409
       3655.0000       290.28492       98738.259       12372.911       1.6810000       1.0850000     -0.20100000       342.56800       3.2837703     0.018644949
       3660.0000       290.30011       98736.387       12379.481      0.71675000       1.4062500     0.080500010       343.16600       3.1792999     0.021631012
       3666.0000       290.32835       98723.114       12433.518       2.2020000       1.7387500    -0.041750000       342.43300       2.5324989     0.022142115
       3671.0000       290.30570       98724.431       12436.014      0.68125000       1.2962500     -0.19600000       343.26500       3.6394972     0.016166056
       3676.0000       290.24517       98726.696       12408.757       1.2075000       1.4625000     -0.25150000       342.92500       3.7550786     0.028161066
       3681.0000       290.19380       98723.998       12399.136       1.6852500       1.8375000      0.15075000       342.63800       3.0964010     0.024297633
       3686.0000       290.06999       98729.662       12348.929       1.7227500       1.6247500      0.19500000       342.48300       3.4223511     0.020260809
       3691.0000       290.02431       98737.485       12336.683       1.8032500       1.7277500      0.35375000       342.92100       2.7394952     0.012730031
       3696.0000       290.04382       98742.559       12373.702       2.0855000       2.8067500     -0.15675000       342.22800       2.5375328     0.017662185
       3701.0000       290.04488       98740.446       12391.710       2.6810000       2.7722500      0.15375000       342.38400       3.7568729     0.021271055
       3706.0000       290.06098       98737.267       12398.983       2.4025000       1.8567500      0.26775000       341.85200       3.3219159     0.014928989
       3711.0000       290.10232       98741.268       12429.433       1.8117500      0.32900000      0.44700000       342.89400       2.7313404     0.015483891
       3716.0000       290.15379       98743.596       12477.571       2.9662500       1.9227500      0.18150000       341.95200       2.7655315     0.018308742
       3721.0000       290.20519       98739.545       12514.530       2.7735000       1.1225000     -0.19675000       341.91500       3.3925786     0.019058268
       3726.0000       290.27312       98737.005       12530.933       2.3962500       1.0222500     0.020000000       342.28900       3.4455565     0.017610931
       3731.0000       290.36464       98740.969       12603.307       2.0390000       1.5090000      0.33300000       342.20900       3.8189084     0.019908748
       3736.0000       290.52087       98743.382       12743.571       1.8310000       2.3842500     -0.39525000       342.05800       2.7837610     0.017368506
       3741.0000       290.57642       98739.428       12811.564       1.7095000      0.81075010     -0.54525000       342.24500       2.8135461     0.031480535
       3746.0000       290.61947       98738.658       12921.704      0.51725000      0.87225000      0.55800000       342.70600       2.3957218     0.014160831
       3751.0000       290.62388       98741.504       12958.482      0.56375000       1.1640000     -0.23500000       342.02400       4.5021212     0.025178231
       3757.0000       290.44702       98737.733       12842.401      0.91275010      0.96550010      0.18500000       342.73300       4.1045606     0.033622258
       3762.0000       290.42214       98733.093       12817.577      0.56300000      0.59650000     0.043750000       342.56400       2.9467565     0.020165228
       3767.0000       290.49483       98733.309       12835.203       1.0010000      0.89750000      0.26975000       342.44900       3.4773397     0.012549698
       3772.0000       290.50491       98736.296       12804.937       1.3617500       2.0010000     -0.35950000       342.16500       3.0982632     0.018867883
       3777.0000       290.52694       98737.171       12765.195       1.1482500       1.7617500     -0.37375000       342.27500       3.1771323     0.015470478
       3782.0000       290.56676       98734.226       12744.048      0.48725000       1.1810000    -0.052750000       342.87600       2.9883241     0.022942478
       3787.0000       290.58102       98733.433       12686.046      0.75800000       1.6875000    -0.032000000       343.16800       3.0321206     0.017314613
       3792.0000       290.60443       98736.395       12660.427       1.2455000       1.7370000     -0.19050000       343.00500       2.6883939     0.014871164
       3797.0000       290.71715       98735.728       12701.120       1.0380000       1.6970000     0.017500000       342.75600       3.0146105     0.015840131
       3802.0000       290.72187       98734.165       12689.394       1.2722500       1.7952500      0.13950000       342.86300       3.5273610     0.017263344
       3807.0000       290.62444       98741.097       12639.125     -0.50150000       1.9577500     -0.63700000       342.17700       3.0862114     0.016639950
       3812.0000       290.58444       98742.055       12615.748     -0.29825000       1.5057500     -0.18025000       342.61100       2.5905556     0.014238938
       3817.0000       290.52275       98728.676       12582.369      0.47825000      0.84125010     0.022750000       343.10400       2.4797946     0.015841310
       3822.0000       290.47619       98728.087       12566.323     -0.17575000       1.4667500      0.37750000       342.07900       3.0847613     0.016650112
       3827.0000       290.44916       98740.450       12561.205      0.19625000       1.6930000     -0.12325000       342.45700       2.7189270     0.016828523
       3832.0000       290.44308       98741.677       12578.022     -0.30950000       2.0740000     -0.10725000       342.39100       2.5162271     0.017970395
       3837.0000       290.42876       98739.085       12615.020     -0.29175000       1.9300000     -0.16675000       342.26000       2.5564364     0.017845744
       3843.0000       290.45354       98741.452       12655.484     -0.11200000       1.1507500      0.59575000       343.17900       3.8923164     0.020762599
       3848.0000       290.54116       98742.283       12721.505     -0.18825000      0.85150000      0.23300000       343.69400       3.3228280     0.016168150
       3853.0000       290.57521       98738.654       12754.714     -0.51925000       2.0160000     0.076000010       342.80900       2.5764702     0.017884066
       3858.0000       290.57777       98733.978       12749.775     -0.99675010       2.5265000     -0.31950000       342.22400       2.6395624     0.017200649
       3863.0000       290.62423       98735.593       12792.167     -0.30850000       1.9652500    -0.076500010       342.46300       3.4719330     0.021202453
       3868.0000       290.70682       98738.846       12873.037     -0.72250000       3.2420000    -0.071250010       342.04300       3.2007837     0.018629868
       3873.0000       290.71409       98732.688       12893.566     -0.64700000       2.4022500     -0.10750000       342.04000       5.8946226     0.041020776
       3878.0000       290.71509       98722.262       12927.945     -0.49325000       1.7910000      0.15350000       341.85600       3.8183677     0.015977804
       3883.0000       290.70319       98726.070       12912.054     -0.92575000       1.5402500      0.10850000       341.83000       3.5175645     0.020906086
       3888.0000       290.60114       98732.295       12812.131     -0.92225000       1.6082500     -0.16700000       341.91600       3.2614281     0.017968942
       3893.0000       290.57361       98727.658       12761.453     -0.20575000       1.6180000     -0.10075000       342.19500       2.5860471     0.021233189
       3898.0000       290.60034       98728.941       12705.767     -0.22450000       2.0085000     -0.11775000       342.51300       3.4571901     0.015135176
       3903.0000       290.60051       98733.441       12677.657     -0.14075000       1.5075000   -0.0032500000       342.60100       4.1288829     0.018445623
       3908.0000       290.61174       98725.265       12689.304      0.46750000       2.2645000     -0.34925000       341.77400       2.8277685     0.018912132
       3913.0000       290.59593       98722.081       12652.842     -0.24875000       2.6617500     -0.48200000       342.03500       3.1690216     0.017633484
       3918.0000       290.55830       98736.260       12605.433     -0.56575000       2.0347500      0.14225000       342.47000       4.3900076     0.031180543
       3923.0000       290.53850       98738.754       12564.873      0.14025000       1.0810000      0.44950000       343.11600       3.3977490     0.016269384
       3928.0000       290.47809       98724.914       12457.312    -0.063000000       1.7210000      0.27475000       342.08000       3.6468356     0.016468745
       3934.0000       290.50628       98723.053       12463.678      0.76975010       2.3422500     -0.18850000       342.09500       3.6860879     0.035856906
       3939.0000       290.58358       98731.327       12533.247      0.72650000       1.5995000     -0.28300000       342.44300       2.7309190     0.026915887
       3944.0000       290.64266       98730.550       12596.209      0.99775000       1.7310000      0.27750000       342.09300       2.4361584     0.013652796
       3949.0000       290.75315       98721.979       12719.897      0.48275000       1.9245000    -0.050500000       342.55000       2.9445877     0.017105763
       3954.0000       290.79558       98727.451       12794.560      0.38275000       2.1440000     -0.34450000       342.20600       2.7212714     0.018206458
       3959.0000       290.79475       98744.005       12841.122      0.90500000       2.5090000     -0.67175000       342.29700       3.6472587     0.016421309
       3964.0000       290.82479       98739.730       12925.829      0.77100000       1.7587500     0.018750000       342.36500       2.5558901     0.014987107
       3969.0000       290.86423       98728.734       13050.675       1.5202500       3.3990000      0.14150000       342.33100       3.7388738     0.020202057
       3974.0000       290.84718       98732.500       13079.463      0.29975000       1.8405000     -0.44875000       342.29000       2.8447111     0.018009109
       3979.0000       290.82255       98729.487       13096.205       1.1895000       2.5632500     -0.48900000       342.63500       3.2272036     0.026941136
       3984.0000       290.77447       98727.390       13072.672       2.7027500       2.9742500      0.33200000       342.70000       3.8224634     0.033898153
       3989.0000       290.64900       98742.573       12954.757       1.7407500       3.5357500    -0.020750000       342.94100       2.5021211     0.016813949
       3994.0000       290.60618       98743.307       12899.701     0.070250000       2.0892500     -0.45700000       342.97700       2.8371004     0.014361085
       3999.0000       290.58779       98723.593       12858.521      0.99775000       2.1460000      0.44975000       342.97000       2.5201331     0.027690603
       4004.0000       290.59499       98721.024       12824.823      0.27475000      0.91850010      0.12625000       343.17600       2.7208916     0.016967841
       4009.0000       290.64592       98731.620       12799.058       1.2325000       2.4602500      0.25950000       342.56400       3.6380457     0.030580359
       4014.0000       290.66571       98730.916       12763.769     -0.35850000       3.5272500      -1.3777500       342.72000       2.8361617     0.025880932
       4019.0000       290.71322       98722.298       12746.514       1.1460000       2.6302500     0.027500000       343.23600       3.8966060     0.027377836
       4025.0000       290.70097       98729.694       12687.880      0.23700000       4.1852500    -0.045000000       342.56600       2.9317377     0.023605319
       4030.0000       290.65073       98743.241       12608.377       1.6642500       1.8432500     -0.13925000       342.33400       2.4679626     0.022998677
       4035.0000       290.60004       98728.450       12554.944       1.5377500       2.8910000     -0.49250000       342.35900       2.4773498     0.017295796
       4040.0000       290.58720       98729.132       12539.236      0.80900000       4.0905000     -0.30325000       342.58900       2.6619118     0.028081300
       4045.0000       290.63036       98727.255       12579.644      0.86900000       2.9740000      -1.0807500       342.72200       4.6676303     0.036795855
       4050.0000       290.65026       98722.909       12611.813       1.5852500       1.7217500     -0.23800000       342.79900       3.3582703     0.018177580
       4055.0000       290.71512       98736.804       12678.929       1.7680000       2.9550000     -0.92825000       342.75000       2.9394338     0.028811869
       4060.0000       290.71899       98743.393       12722.792      0.91600010       2.0732500    -0.066250000       342.77200       3.1030809     0.030376260
       4065.0000       290.68599       98743.815       12755.353       1.2365000       2.4002500     -0.13400000       342.63800       3.6594176     0.026301406
       4070.0000       290.58245       98727.821       12758.764       2.5217500       1.8207500     -0.19775000       342.98300       2.2830006     0.018390283
       4075.0000       290.60655       98730.409       12831.966       1.0597500       1.6605000      0.19100000       343.45000       3.8071296     0.030009888
       4080.0000       290.63802       98743.286       12922.930       2.9772500       2.3435000    -0.078250010       342.52100       2.7938174     0.023321534
       4085.0000       290.76940       98724.576       13076.537       2.4662500       2.9017500     -0.27000000       342.65500       4.3309080     0.035847939
       4090.0000       290.82541       98723.013       13136.528       2.6200000       2.1165000      0.40150000       342.25200       3.5171286     0.022945123
       4095.0000       290.76994       98725.833       13070.401       1.7555000       2.9667500     -0.30775000       342.95500       3.8738742     0.024950732
       4100.0000       290.75015       98723.542       13046.637       1.6905000       2.0525000     -0.13000000       342.66200       2.7877718     0.021738959
       4105.0000       290.73036       98724.946       13014.704       1.8805000       1.8500000      0.14300000       343.16400       2.5303984     0.023774658
       4110.0000       290.70673       98744.383       12947.796       1.1092500       2.0490000   -0.0090000010       343.46300       2.6184868     0.025808916
       4116.0000       290.63156       98724.416       12889.614       2.2812500       2.7710000     -0.44150000       342.71700       2.8256434     0.027851200
       4121.0000       290.59128       98721.946       12838.996       2.7137500       2.2660000     -0.12825000       343.44100       3.2308995     0.027502532
       4126.0000       290.53258       98735.826       12754.850       1.8555000       3.1280000   -0.0067500000       342.75000       3.1484014     0.021236678
       4131.0000       290.48338       98736.636       12681.069       2.4780000       3.5217500     -0.25025000       342.79200       3.5635243     0.027185702
       4136.0000       290.45172       98732.950       12599.927       1.9190000       3.2150000      0.17525000       342.71200       3.4912428     0.027200139
       4141.0000       290.44313       98735.913       12561.203       3.0665000       2.8710000     -0.63775000       342.72600       2.3757701     0.019763416
       4146.0000       290.45844       98736.481       12542.496       1.3245000       2.2747500      0.19950000       343.25800       2.8063369     0.023267393
       4151.0000       290.44875       98734.721       12526.451       2.5600000       2.3785000     -0.60600000       343.01600       3.1093375     0.022342799
       4156.0000       290.45695       98742.164       12552.631       3.2625000       4.9322500     -0.53125000       341.98400       2.7070746     0.019453080
       4161.0000       290.45573       98742.640       12570.867       2.6970000       3.8187500    -0.025750000       341.75100       3.1488484     0.022995656
       4166.0000       290.39638       98723.250       12565.225       2.0990000       2.0010000      0.31925000       342.72400       3.1174610     0.026644628
       4171.0000       290.38876       98721.930       12587.804       2.3755000       2.0285000     -0.15450000       342.66700       2.7592388     0.025922083
       4176.0000       290.43441       98740.715       12648.759       1.2465000       3.3917500      -1.0692500       342.70400       3.7697181     0.022963794
       4181.0000       290.45452       98742.461       12689.367       2.2515000       2.4390000      0.37575000       342.89000       3.3268364     0.025498603
       4186.0000       290.49033       98741.426       12742.857       1.5855000       2.1690000      0.28325000       342.68900       2.4808334     0.018005773
       4191.0000       290.50878       98742.051       12773.673      0.52150010       1.8087500     -0.71175000       343.05500       2.5257728     0.022295927
       4196.0000       290.52940       98724.651       12813.214       2.6432500       3.6285000     -0.55125000       342.39700       2.6991993     0.029687320
       4201.0000       290.50655       98721.547       12795.501       3.2317500       3.6065000     -0.31575000       341.87200       2.5934704     0.021657906
       4207.0000       290.41138       98737.340       12684.008       2.7775000       3.6452500     -0.58400010       342.62600       3.1327267     0.020632390
       4212.0000       290.38525       98742.947       12652.610       1.4602500       1.1960000      0.76100000       343.02000       3.7566772     0.024137009
       4217.0000       290.32218       98749.293       12596.151       1.6887500       2.6020000     0.066500000       342.59000       3.3884459     0.017394393
       4222.0000       290.33675       98752.570       12590.457       3.1277500       2.2267500     -0.47350000       342.26300       3.2808236     0.022638286
       4227.0000       290.48455       98752.947       12694.116       1.6445000       1.5770000     0.086500000       342.84800       3.7916169     0.026674455
       4232.0000       290.52632       98750.202       12715.412       1.8475000       1.6242500     0.076500010       342.38500       3.4439110     0.027920386
       4237.0000       290.52612       98744.014       12680.683       1.7895000       2.1905000     0.027000000       343.22700       2.8579488     0.020733992
       4242.0000       290.56594       98738.691       12703.145       2.1295000       2.3947500     -0.48100000       342.48300       3.1586649     0.030064899
       4247.0000       290.56607       98723.738       12724.741       1.7927500       3.0087500     0.097500000       342.98100       2.6909054     0.023426450
       4252.0000       290.60387       98722.728       12756.974       1.9460000       2.0272500     -0.29525000       342.63000       2.9894177     0.020189585
       4257.0000       290.73910       98734.707       12855.472       2.6277500       2.4080000      0.13875000       342.37600       2.6909527     0.032155124
       4262.0000       290.77784       98736.276       12897.966       1.9360000       2.1352500    -0.096500000       342.50400       2.6075365     0.021712887
       4267.0000       290.74343       98741.067       12879.564       2.0240000       2.3865000    -0.053000000       342.64600       2.9400530     0.026434572
       4272.0000       290.75327       98742.025       12912.285       2.9247500       2.7412500     -0.19950000       342.33300       2.6721338     0.020981726
       4277.0000       290.75562       98728.582       12980.191       2.3275000       2.4977500     -0.19375000       342.63200       3.3773209     0.029779651
       4282.0000       290.74555       98728.024       13001.984       2.1712500       1.6787500      0.25850000       342.75900       2.5325275     0.029860638
       4287.0000       290.75794       98741.791       13043.441       1.3242500       2.6017500      0.52100000       342.91800       2.4994893     0.022018261
       4292.0000       290.75385       98741.611       13041.824       2.2302500       3.3430000     -0.20450000       342.67300       3.0255285     0.025547059
       4298.0000       290.70190       98736.427       12968.970       1.4075000       2.4382500     -0.61375000       342.22300       3.1666847     0.023412194
       4303.0000       290.68843       98734.857       12920.768       1.7092500       2.4627500      0.18925000       343.01200       3.0181839     0.028113458
       4308.0000       290.69983       98722.617       12867.729       1.2085000       1.6300000      0.30850000       343.08700       3.3773901     0.025779756
       4313.0000       290.69966       98723.739       12810.554       1.9770000       1.3535000    -0.017000000       342.57000       2.6255426     0.024539047
       4318.0000       290.71122       98744.024       12738.630       1.3012500       2.2362500     0.075000000       342.43500       3.4545872     0.029636144
       4323.0000       290.69501       98741.150       12680.688       1.2772500       1.6235000    -0.018250000       342.69100       4.0801807     0.030013937
       4328.0000       290.66919       98725.741       12614.713      0.95200000       2.0347500     -0.67825000       342.61800       2.9125322     0.029427374
       4333.0000       290.63315       98723.326       12578.047      0.17250000       2.2482500      0.20075000       342.98200       3.0906955     0.019954408
       4338.0000       290.54807       98710.581       12547.238       1.0312500       2.3202500     -0.28550000       343.21000       2.4641455     0.023680915
       4343.0000       290.53067       98713.003       12550.132       2.0207500       1.8117500   -0.0067500000       342.26800       2.7824970     0.023954912
       4348.0000       290.55383       98743.954       12608.348       2.5210000       1.6947500      0.42550000       342.98600       2.5175552     0.026265499
       4353.0000       290.54353       98744.059       12612.275      0.47500000       1.1375000      0.39850000       343.76300       2.8223021     0.023304894
       4358.0000       290.54531       98723.216       12594.418       1.2305000       2.0542500     -0.40975000       342.65800       2.3847171     0.024360939
       4363.0000       290.55525       98724.039       12617.654       1.1692500       1.7337500     0.089250010       342.22000       3.1027393     0.028129423
       4368.0000       290.54302       98723.918       12631.247       1.3967500       1.9110000     -0.55050000       342.06700       3.9428991     0.028075908
       4373.0000       290.54919       98723.757       12660.563      0.34875000       1.6507500     -0.21350000       342.68100       3.7172418     0.025315144
       4378.0000       290.58796       98745.157       12740.896      0.12975000      0.94375000      0.43475000       342.98700       2.6881998     0.022164103
       4383.0000       290.61805       98742.942       12794.987      0.82250010       2.0562500     0.028250000       342.38800       3.9638778     0.022788631
       4389.0000       290.64593       98711.663       12844.644      0.73825000       1.6372500     -0.46275000       343.46600       3.3780600     0.026083212
       4394.0000       290.66595       98712.890       12870.073      0.85875000      0.87525000      0.25375000       343.93700       3.0590450     0.024657958
       4399.0000       290.72186       98724.520       12914.776      0.19300000       1.5385000      0.52600000       342.90300       3.2465454     0.026580032
       4404.0000       290.69598       98727.371       12897.484      0.65650000       1.1692500      0.36700000       343.44400       3.9464032     0.026613191
       4409.0000       290.60760       98743.452       12818.442       2.4865000       1.9257500     -0.12750000       342.69700       2.4016759     0.020628084
       4414.0000       290.56791       98743.130       12783.906       1.8110000       1.5557500     -0.30525000       342.38400       3.6816358     0.027001194
       4419.0000       290.49435       98722.330       12733.399       1.5105000       1.1237500     -0.46875000       343.05800       3.6649312     0.029762210
       4424.0000       290.47188       98723.591       12705.565       1.3667500      0.61925010      0.20325000       343.21800       4.1983377     0.025618202
       4429.0000       290.50979       98735.260       12715.512       1.1842500       1.5127500     -0.70775000       342.53300       3.3900662     0.023442428
       4434.0000       290.49093       98736.357       12677.736      0.83400010       1.5747500      0.11275000       343.15500       2.6450379     0.021307305
       4439.0000       290.45409       98742.657       12612.222       1.3285000      0.66800000      0.58800000       344.14500       4.4523224     0.023860412
