MIRICO/SHELL project - Processed LDS file generated on
Mon Jul 10 20:29:07 2017
Time stamp for record start
05/11/2017  09:41:55.0000
Nb of points in the record
         879
Beam position index
       6.0000000
Beam angle (degrees)
       13.609000
Open Path length (m)
       58.300000
****************** Temporal data record ************************
Elapsedtime_sec Temp_K Press_Pa Humidity_ppmv WindX_m/s WindY_m/s WindZ_m/s Speedofsound_m/s CH4vmr_ppmv CH4vmrerror_ppmv  
      0.00000000       288.64419       98743.998       11487.295     -0.49075000       1.7512500    -0.033500000       341.36400       2.0634386     0.013681601
       5.0000131       288.70012       98742.367       11496.301     -0.20675000       1.5757500     -0.10300000       341.82200       2.0721403     0.011315277
       10.000026       288.71269       98745.389       11474.665     -0.31500000       2.1135000     -0.36100000       341.75000       2.1033994    0.0092000440
       15.999994       288.65229       98740.227       11384.943      0.21400000       2.8420000     -0.29800000       340.62200       2.0910750    0.0086258198
       21.000007       288.64364       98742.863       11342.021      0.40050000       2.6785000     -0.36900000       341.24500       2.0915263    0.0098224093
       26.000020       288.64449       98766.765       11295.666      0.22750000       3.8342500     -0.24225000       340.91000       2.0979201    0.0094829827
       30.999993       288.64584       98774.165       11274.952    -0.098000000       2.5647500   -0.0037500000       341.36400       2.0998414    0.0085797268
       36.000006       288.69035       98775.699       11293.965    -0.032500000       3.2227500    -0.050750000       341.20500       2.1093042    0.0093487909
       41.000019       288.70943       98772.193       11305.845     -0.26850000       2.6932500      0.36175000       341.15300       2.1009161     0.010746012
       45.999992       288.67179       98744.848       11309.700       1.4200000       1.6110000     0.057000000       341.79100       2.0557301     0.010580250
       51.000005       288.69434       98740.747       11344.882      0.75125000       2.7977500     -0.61125000       340.77400       2.0666010     0.013409236
       56.000018       288.78137       98754.212       11403.935     -0.53275000       3.1645000     -0.46775000       340.89800       2.0744463     0.011719667
       60.999991       288.81003       98755.227       11460.274     -0.33425000       1.9320000      0.26025000       341.57700       2.0900915     0.012216825
       66.000004       288.87395       98767.854       11575.232      0.25425000       3.3002500     -0.74075000       341.18300       2.0778263     0.010388834
       71.000017       288.86880       98768.991       11623.767      0.35775000       1.8192500      0.59600000       342.08300       2.0990598    0.0097819705
       75.999990       288.75375       98739.073       11629.505      0.28725000       1.4835000      0.59100000       342.25700       2.0671060     0.014688179
       81.000003       288.68315       98734.901       11628.325       1.6205000       2.8362500      0.21550000       341.24500       2.1099757     0.011077222
       86.000016       288.59858       98752.132       11583.349     -0.41025000       2.2070000     -0.98175010       340.70900       2.0748349     0.010824571
       90.999989       288.53046       98756.064       11544.643      -1.4122500       2.4852500      0.37350000       341.27400       2.1047456    0.0097976127
       96.000002       288.47640       98772.852       11509.447      0.50400000       2.1355000     -0.44350000       341.22300       2.0882717     0.011519896
       101.00002       288.43820       98774.871       11460.942     -0.28475000       2.4037500     -0.10250000       340.93400       2.0966023     0.011129356
       107.00002       288.41874       98743.427       11385.529      -1.2340000       2.7402500     -0.46850000       341.26500       2.0543042     0.012076608
       112.00000       288.38875       98741.135       11319.090     -0.10875000       1.9730000     -0.30400000       341.37300       2.0531476     0.015086550
       117.00001       288.36261       98750.971       11222.372      0.32825000       2.3032500     0.063750010       341.25000       2.0898042     0.011534761
       122.00002       288.34282       98756.117       11169.513     0.024500000       1.8557500     -0.19525000       341.51700       2.0778881     0.012165831
       127.00000       288.30454       98784.281       11120.663     -0.63000010       1.1405000     -0.31950000       341.78300       2.0589556     0.014717683
       132.00001       288.28793       98785.793       11103.965     -0.32125000       1.9387500     -0.14125000       341.16400       2.0384281     0.012910518
       137.00002       288.28689       98758.775       11132.314     -0.25925000       1.9237500     -0.14325000       341.04200       2.0700066     0.012937726
       141.99999       288.30049       98751.663       11156.030     -0.37775000       1.8972500      0.35975000       341.15900       2.0556081     0.016587509
       147.00001       288.32397       98736.118       11196.499      0.46175000       2.1477500      0.15800000       341.79300       2.0805626     0.013405832
       152.00002       288.35793       98736.218       11238.456       1.4125000       1.3760000      0.42975000       341.29900       2.0585100     0.011759933
       156.99999       288.41950       98763.249       11278.558      0.29500000       1.6017500     -0.15450000       341.08300       2.0178117     0.014934922
       162.00001       288.46961       98769.783       11342.335      0.47525000       1.8240000    -0.093750010       341.83600       2.1005821     0.011623145
       167.00002       288.50868       98774.976       11397.035     0.010500000       1.6065000     -0.35775000       341.30800       2.0554501     0.014243335
       171.99999       288.57277       98771.792       11511.174      0.51200000       1.3797500     -0.61075000       341.25700       2.0555011     0.013796682
       177.00001       288.69720       98745.824       11755.330      0.62925000       1.7645000     -0.13300000       341.84300       2.0619248     0.010552938
       182.00002       288.72515       98740.728       11838.716      0.64850000       2.3837500      0.32200000       341.60500       2.0671394     0.010688336
       186.99999       288.71402       98740.687       11894.955     -0.59375000      0.90225010      0.10800000       342.25900       2.0726987     0.013004382
       192.00000       288.70680       98744.524       11903.548     -0.98700000       2.2250000     -0.18100000       342.13800       2.0551114     0.015193168
       198.00001       288.59013       98771.895       11730.018    -0.043250000       2.1725000     -0.49400000       341.97700       2.0679356     0.010419533
       203.00003       288.57937       98775.119       11672.376      0.49600000       1.8925000     -0.56250000       341.50300       2.0628894     0.013448483
       208.00000       288.64182       98769.698       11662.096      0.21250000       2.9975000      0.14600000       342.35200       2.0479942     0.012666943
       213.00001       288.66179       98763.197       11618.759      0.37775000       2.8535000      0.83225010       341.34000       2.0286348     0.013910599
       218.00002       288.69944       98738.474       11576.077      0.19850000       2.5842500      0.31450000       341.41200       2.0835263     0.013595975
       223.00000       288.71362       98735.100       11528.751      0.80275010       1.5627500     0.072500010       341.85700       2.0570445     0.011607743
       228.00001       288.69989       98740.671       11462.355      0.47850000       1.7870000      0.20125000       341.59900       2.0483793     0.014773809
       233.00002       288.69978       98747.038       11414.086   -0.0087500000       2.4375000      0.34250000       341.54400       2.0204865     0.014420979
       238.00000       288.72355       98770.648       11395.255      0.54675000       2.4955000     -0.63550000       341.47700       2.0689487     0.013680321
       243.00001       288.69060       98775.414       11328.170       1.2405000       2.4872500     -0.28950000       341.23400       2.0628218     0.012416465
       248.00002       288.61599       98775.108       11224.096      0.66175000       1.4840000      0.43650000       341.80600       2.0333293     0.013315851
       253.00000       288.57600       98769.039       11167.471      0.23925000       2.6265000     -0.27375000       341.38800       2.0564694     0.016588206
       258.00001       288.48985       98747.515       11072.975      -1.1232500       2.1315000     -0.20125000       341.09200       2.0403573     0.015623872
       263.00002       288.47840       98738.706       11067.833      0.29150000       3.0832500     -0.44475000       340.68400       2.0307593     0.014567699
       267.99999       288.56396       98727.141       11170.684     0.032750000       3.0987500     -0.56375000       340.98600       2.0441560     0.012899367
       273.00001       288.55115       98727.956       11188.105     -0.27075000       2.1822500     -0.22525000       341.34400       2.0692392     0.015557074
       278.00002       288.50362       98740.513       11201.569      0.18350000       2.8240000     -0.26050000       340.78100       2.0617723     0.021276189
       282.99999       288.49338       98749.610       11222.020     -0.11975000       1.3705000     0.060250000       341.16000       2.0383953     0.012854919
       289.00000       288.42990       98772.049       11191.603     -0.26450000       1.6440000      0.34850000       341.51000       2.0383018     0.015385928
       294.00001       288.44672       98775.612       11230.354      0.13425000       1.3515000     0.018500000       341.23300       2.1250799     0.011675040
       299.00003       288.54845       98774.090       11335.592      0.82650010      0.73550000     0.074000000       341.59200       2.0881805    0.0097018866
       304.00000       288.57993       98766.672       11381.770      0.39250000       1.6175000     -0.28150000       341.12000       2.0745945     0.011024032
       309.00001       288.59434       98746.416       11426.767      0.42750000       1.9675000     -0.36150000       340.89400       2.0573920     0.016328506
       314.00003       288.62442       98736.232       11455.478     -0.10350000       2.0667500    -0.026000000       340.66800       2.0584768     0.013523121
       319.00000       288.63663       98722.018       11450.513      0.22675000       1.4922500     0.095000010       341.07900       2.0646444     0.025120117
       324.00001       288.67476       98722.222       11470.248      0.26775000       1.0072500     -0.23975000       341.23200       2.0634064     0.015883158
       329.00003       288.75810       98730.554       11510.322      0.75600000      0.80825000     -0.30500000       340.96100       2.1022003     0.014976517
       334.00000       288.77042       98741.148       11506.997      0.62775000      0.47575000      0.61525010       341.55700       2.0420533     0.014844940
       339.00001       288.73999       98764.980       11477.931      0.54650000       1.2722500     -0.17600000       340.63500       2.0767098     0.023195330
       344.00003       288.76944       98774.441       11482.546      0.50150000       1.1257500     -0.21125000       340.69400       2.0827972     0.014768633
       349.00000       288.78182       98783.181       11464.631      0.76775000      0.89150010      0.24425000       341.76900       2.0661812     0.019611642
       354.00001       288.82924       98782.872       11490.256       1.1877500      0.39800000     0.072250000       341.57800       2.0688040     0.029854425
       359.00002       288.95216       98771.783       11574.302       1.1227500       1.0577500     -0.26950000       341.29100       2.0588701     0.025210099
       364.00000       288.99410       98765.886       11600.478       1.2090000       1.2945000     -0.23775000       341.10500       2.0743971     0.016752702
       369.00001       288.99391       98756.889       11609.521      0.49775000      0.93525000     -0.28675000       341.24500       2.0995331     0.012206585
       375.00002       289.02951       98747.302       11635.244      0.65850000      0.59800000     -0.19100000       341.28100       2.0639829     0.011816419
       379.99999       289.05569       98739.758       11653.756     0.015750000      0.16950000    -0.023250000       341.10000       2.0721655     0.012104025
       385.00000       289.05442       98734.772       11627.636     -0.10425000      0.54550000      0.12875000       340.78900       2.1299332     0.011152013
       390.00002       289.06191       98727.956       11599.609      0.32375000      0.67175000      0.19200000       341.23800       2.0967495     0.011041926
       394.99999       288.97005       98734.962       11480.027      0.86700000       1.9877500    -0.093500000       340.89700       2.0751889     0.013533218
       400.00000       288.93686       98739.888       11421.632     0.087500010       1.4685000    -0.046250000       341.66500       2.0752859     0.010542883
       405.00002       288.95977       98747.346       11414.263      0.86775000       1.8930000    -0.054250000       340.91600       2.0753924     0.013158179
       410.00003       288.94984       98755.287       11400.982      0.33300000       1.4962500    -0.047500000       341.23300       2.0889085     0.012092496
       415.00000       288.93997       98763.228       11401.472      0.58450000       1.2807500      0.14875000       342.40600       2.0706851     0.013517804
       420.00002       288.97008       98770.562       11443.651     -0.11700000       1.6812500      0.28550000       341.76400       2.0766337     0.026036410
       425.00003       288.91505       98775.430       11427.848    -0.057250000       1.6155000     0.050250000       341.34300       2.0748385     0.013187123
       430.00000       288.79406       98781.560       11387.925     -0.49650000       1.5440000     -0.12550000       341.13800       2.1321651     0.013131955
       435.00001       288.72972       98780.274       11354.355     -0.48700000       1.3037500    -0.082000000       341.37100       2.0934629     0.013400825
       440.00003       288.68686       98780.285       11327.761     -0.50850000       1.2577500    -0.071500000       341.60800       2.0848676     0.015305004
       445.00000       288.70026       98780.366       11311.544      0.22250000      0.89225010     0.059500000       342.21200       2.0336995     0.018732111
       450.00001       288.70026       98780.401       11302.074      0.22200000       1.5330000     -0.40675000       341.97800       2.0671923     0.014149481
       455.00003       288.68485       98783.236       11274.514      0.70100000       1.7990000     -0.39325000       341.59000       2.0617123     0.011286216
       460.00000       288.69330       98781.520       11283.106      0.67825000       1.5467500     -0.38050000       341.93300       2.1006139     0.011898140
       466.00001       288.71832       98775.093       11335.327       1.0085000      0.95275000      0.15150000       341.95300       2.0693726     0.012257947
       471.00002       288.74964       98769.949       11381.235       1.7300000       2.0782500    -0.014250000       341.55900       2.0902711     0.013506685
       475.99999       288.80980       98758.862       11447.982       1.1792500       1.9075000     -0.41000000       340.99900       2.0588532     0.013648340
       481.00001       288.86032       98753.026       11522.299       1.5312500       1.4997500     0.016250000       341.57300       2.0696227     0.012270220
       486.00002       288.91061       98753.975       11594.306      0.95500000       1.3432500      0.15575000       342.10800       2.0620749     0.025863053
       490.99999       288.96086       98749.826       11682.441    -0.031000000       3.0285000     -0.48175000       341.19100       2.0540449     0.015169107
       496.00001       289.01000       98743.541       11827.118      0.81200000       2.7257500     -0.84025000       341.33200       2.0882770     0.016208300
       501.00002       289.05939       98739.592       11913.301      0.62050000       2.7730000   -0.0072500000       341.35500       2.0855238     0.016714208
       505.99999       289.12386       98732.372       12011.379    0.0020000000       2.9405000    -0.083750000       341.34000       2.0467700     0.017501761
       511.00000       289.16248       98728.730       12039.215     -0.83150010       2.5842500      0.11450000       341.59100       2.0480844     0.016887062
       516.00002       289.18992       98730.272       11978.408      0.18325000       1.9437500     0.049750000       341.58500       2.1047197     0.013268796
       520.99999       289.20886       98730.250       11935.233     -0.28050000       3.4637500     -0.41200000       340.88600       2.0941560     0.013020015
       526.00000       289.25588       98730.145       11866.479      0.93600000       3.9392500     -0.33475000       341.09200       2.1097616     0.014769799
       531.00002       289.21108       98730.086       11781.215      0.36600000       2.5820000      0.35375000       341.26700       2.0815080     0.018578906
       535.99999       289.07701       98730.239       11685.249       1.1912500       3.4565000    -0.040000000       341.15100       2.1078101     0.014809519
       541.00000       288.98641       98730.201       11591.052      0.23750000       1.7965000     -0.79000000       341.44100       2.0627117     0.021811355
       546.00002       288.79120       98730.277       11425.382     -0.38950000       1.8980000     -0.44000000       341.56800       2.0810476     0.013739273
       551.00003       288.70795       98730.298       11350.949     -0.18400000       2.3982500     -0.79000000       341.39500       2.0809350     0.017677919
       557.00000       288.76896       98730.101       11367.082    -0.087750000       2.3592500     0.084500010       341.23600       2.0853846     0.020676413
       562.00001       288.74502       98730.041       11322.606    -0.092000010       1.3555000     0.057500000       341.46900       2.0756462     0.015030981
       567.00002       288.71901       98730.103       11283.585     -0.54425000       2.8975000     -0.44800000       341.23800       2.0986112     0.012076798
       572.00000       288.69559       98730.065       11256.188     -0.19250000       1.9767500     -0.12825000       341.38300       2.0757018     0.013456419
       577.00001       288.60970       98730.134       11166.807     -0.23750000       1.9915000      0.14800000       342.31200       2.0605679     0.021989892
       582.00002       288.57670       98730.074       11140.182     -0.49125000       2.1810000     -0.22875000       341.31300       2.0942045     0.021984966
       586.99999       288.59981       98730.233       11189.578      0.58900000       2.3265000     -0.27225000       341.13900       2.0351017     0.014187739
       592.00001       288.59965       98730.192       11207.504      0.13425000      0.98925010   -0.0052500000       341.62800       2.0722557     0.014253392
       597.00002       288.58735       98723.625       11212.300     0.024750000       2.3957500     -0.36025000       341.32300       2.0822381     0.015356149
       601.99999       288.60157       98730.614       11245.152      0.31825000       1.4125000     0.030000000       341.88800       2.0731701     0.015565605
       607.00001       288.65099       98755.644       11310.600      0.78225000      0.83600000      0.15075000       342.11000       2.1365788     0.020590634
       612.00002       288.65721       98758.704       11340.493      0.26525000       2.3340000      0.31825000       342.36800       2.0522220     0.020515407
       616.99999       288.65656       98759.697       11369.724    -0.040250000      0.94000010    -0.081000000       341.54600       2.0663526     0.028206699
       622.00001       288.65293       98756.460       11394.210     -0.31825000       1.9450000     -0.44425000       341.45300       2.0530867     0.021783433
       627.00002       288.60491       98725.116       11387.567      0.76400010       2.6267500       1.0697500       341.70900       2.0548729     0.012691499
       631.99999       288.58898       98719.319       11393.119      0.86175010       2.9040000     -0.13175000       341.37400       2.0847318     0.021416764
       637.00000       288.59982       98730.940       11420.491       1.0927500       3.0355000     -0.30775000       341.44400       2.0636455     0.011985678
       642.00002       288.59966       98736.645       11423.625       1.4002500       1.8370000      0.19075000       341.41200       2.0590772     0.026009927
       648.00003       288.61244       98754.354       11418.707     0.037500000       1.8735000      0.33025000       341.98800       2.0831578     0.024310141
       653.00000       288.59635       98760.534       11386.823     -0.21400000       1.8232500     -0.22275000       340.97100       2.0773818     0.013108956
       658.00001       288.53587       98757.910       11303.929      0.26775000       2.4180000   -0.0077500000       341.25600       2.0844672     0.018870692
       663.00002       288.54844       98762.564       11290.074      0.46300000       1.3447500      0.52175000       341.20400       2.0971414     0.022385758
       668.00000       288.59665       98768.710       11295.346      0.70325010       1.0040000     -0.15825000       341.73300       2.5207400     0.018507986
       673.00001       288.60665       98772.686       11288.414      0.10350000      0.95200000      0.41400000       341.68600       2.4293135     0.014404659
       678.00002       288.63426       98780.162       11306.811     -0.10100000       2.3947500     -0.50000000       340.88300       2.5921403     0.013295310
       683.00000       288.67396       98782.868       11339.043     -0.77125000       2.0065000     -0.51500000       341.51200       2.2625286     0.016864109
       688.00001       288.63647       98782.572       11329.254     0.070000000       1.7122500      0.13350000       341.80800       3.3573606     0.025826171
       693.00002       288.72912       98779.249       11402.280     -0.19475000       1.6745000    -0.029500000       341.72800       3.9415013     0.020080375
       698.00000       288.99923       98773.011       11582.839      0.69825010       1.5622500     -0.18000000       341.97500       2.8561362     0.013226920
       703.00001       289.05791       98767.383       11672.094       1.4270000       1.4932500     -0.32275000       341.81600       2.5465299     0.027911707
       708.00002       289.06965       98758.379       11764.054       3.1247500       1.4295000      0.10800000       341.23500       3.2313836     0.015225839
       713.00000       289.06477       98750.417       11817.426       1.5007500       1.8647500     -0.12425000       341.61100       4.1374584     0.015388208
       718.00001       288.91287       98742.063       11822.435       1.3060000       1.3300000      0.89225010       342.07000       4.3264436     0.023925800
       723.00002       288.85612       98736.780       11810.145       2.2042500       2.1982500     -0.23350000       341.32600       6.0985281     0.023865890
       727.99999       288.83551       98730.508       11760.425       2.0662500       1.1005000     -0.17525000       341.83300       6.0624693     0.018801515
       733.00001       288.84764       98727.754       11742.651       2.6427500       3.4662500     -0.44425000       341.13500       7.0811543     0.029256358
       739.00001       288.90638       98728.613       11707.039       1.9845000       2.2907500      0.43525000       341.66300       5.8624414     0.030752370
       744.00003       288.89778       98732.486       11669.325       2.6917500       1.7350000      0.26875000       341.83900       3.2661825     0.015383012
       749.00000       288.88709       98738.606       11637.536       1.7007500       1.8150000      0.27975000       341.64900       8.0759116     0.024705535
       754.00001       288.92638       98744.522       11636.256       1.8567500       2.4410000   -0.0050000000       341.64500       7.0252226     0.030387788
       759.00003       288.94318       98753.593       11626.016      0.33325000       1.5535000     -0.21525000       342.34600       4.5372660     0.028371980
       764.00000       288.96195       98761.528       11627.513    -0.070750010       1.6575000    -0.097750010       342.42400       3.4084950     0.017565210
       769.00001       289.07241       98769.815       11689.580      0.28975000       1.0477500      0.28925000       342.35200       2.4166031     0.013219097
       774.00003       289.06779       98774.892       11682.437       1.3415000       2.5232500     -0.56700000       341.58000       2.3168059     0.018756495
       779.00000       288.94267       98782.930       11614.297      0.87275000       1.7665000      0.13250000       341.90600       2.6902493     0.016507805
       784.00001       288.93051       98781.338       11609.445       1.8390000       2.5522500     -0.72250000       341.49200       3.7546693     0.029488930
       789.00003       288.96055       98771.963       11629.515     0.097500000       2.2157500      0.74175010       342.14600       3.5079378     0.015979633
       794.00000       288.93141       98766.036       11604.775       1.0442500       2.5877500     -0.38975000       341.97400       5.0224007     0.018157917
       799.00001       288.90959       98756.664       11581.064      0.66625010       1.9187500      0.96875010       342.09400       3.0106890     0.016602694
       804.00002       288.88093       98748.670       11560.280       1.7337500       1.2922500      0.12725000       341.62600       2.5936870     0.018217380
       809.00000       288.79363       98740.725       11494.415      0.72350000       1.3615000     -0.44825000       341.78200       6.1774846     0.029700721
       814.00001       288.77137       98735.611       11483.479       2.0502500       3.1222500     -0.85975000       341.44000       6.7066363     0.034996352
       819.00002       288.80915       98727.139       11528.733       1.1375000       2.6807500    -0.080000010       341.66400       5.5376117     0.028207259
       824.00000       288.79074       98730.474       11520.320       1.2025000       1.2825000      0.96775010       342.24400       2.6580801     0.011749887
       830.00000       288.75096       98743.890       11496.371       1.3842500       3.6532500      -1.3562500       341.20400       2.6645713     0.019768335
       835.00002       288.73063       98754.328       11473.713      0.19750000       2.8040000      0.23575000       341.40800       4.3262684     0.015991468
       839.99999       288.68821       98773.195       11426.573      0.48450000       2.1957500     -0.15975000       341.30400       6.2459519     0.031390923
       845.00000       288.71566       98775.653       11423.177       1.1910000       2.6347500     -0.65575000       341.44800       3.2789869     0.021799178
       850.00002       288.74447       98773.382       11427.886      0.48325000       1.5530000     -0.31975000       341.68700       4.5643726     0.017674142
       854.99999       288.83052       98754.148       11452.152      0.39575000       3.6835000     -0.31200000       340.88800       2.8286853     0.021255662
       860.00000       288.86265       98743.938       11480.293       1.1760000       2.6437500     -0.29950000       341.37800       3.3606047     0.026016877
       865.00002       288.87008       98736.185       11514.862      0.30175000       3.2900000     -0.16550000       340.94600       3.5560206     0.024130637
       870.00003       288.86307       98725.210       11565.898     -0.29825000       2.1617500      0.21900000       341.71800       4.5486192     0.017793572
       875.00000       288.82955       98733.439       11575.898       1.1750000       2.9030000     -0.22325000       341.04000       3.7959237     0.016732720
       880.00001       288.73823       98755.176       11576.542      0.35275000       1.7980000      0.10800000       341.62400       3.1664215     0.016177882
       885.00003       288.71578       98777.264       11534.882      0.65725000       2.3410000      0.38800000       341.56900       3.9028087     0.016008331
       890.00000       288.73186       98785.373       11545.635      0.97875010       2.2480000      0.14650000       341.70300       3.0179436     0.015976857
       895.00001       288.86102       98775.775       11646.101      -1.4795000       1.5295000     -0.29550000       341.53200       2.8584607     0.016603933
       900.00003       288.91279       98767.192       11684.197     -0.29600000       6.0480000     -0.25400000       341.06900       4.3598300     0.016455864
       905.00000       288.93992       98741.306       11713.675       1.8000000       3.7745000     -0.45725000       341.25700       3.6313625     0.020579614
       910.00001       288.96231       98731.593       11737.622      0.17275000       4.6022500     -0.55250000       341.38900       2.2037603     0.024917672
       915.00003       288.96006       98729.255       11739.687       1.1555000       3.3247500   -0.0085000000       342.10500       2.8345794     0.015074808
       920.99999       288.88799       98732.243       11680.241       1.6775000       4.0120000     -0.52675000       341.22000       2.2107850     0.019304506
       926.00001       288.94755       98760.136       11716.608       1.8127500       2.5580000      0.71750000       341.71100       4.6479773     0.019980842
       931.00002       288.95607       98769.573       11717.991     -0.10075000       1.7135000      0.79425000       341.82900       3.6940783     0.014674086
       935.99999       288.98381       98776.105       11723.111       1.9875000       2.7770000      0.94075010       341.38300       3.2354477     0.020523395
       941.00001       288.96053       98773.363       11698.692      0.96250000       2.3475000    -0.035250000       341.90000       2.6771325     0.021237163
       946.00002       288.84109       98744.304       11623.362       1.1572500       3.2740000      0.18950000       341.71600       4.0995496     0.024620044
       950.99999       288.78267       98735.996       11574.249       1.4385000       2.0345000       1.0297500       341.66900       5.9033823     0.030730645
       956.00000       288.71961       98729.641       11515.868      0.97025010       1.4495000     0.021750000       341.88500       6.3198175     0.021163714
       961.00002       288.68268       98731.611       11470.858      0.52450000       1.3235000     -0.56450000       341.42700       3.8481925     0.015020726
       965.99999       288.70052       98760.202       11429.940       2.2977500       3.1587500    -0.048750000       341.41800       3.4551928     0.022502226
       971.00000       288.70078       98769.568       11416.057       1.8540000       3.1487500     -0.23400000       341.30500       6.8836884     0.019769725
       976.00002       288.71425       98774.708       11422.078       1.7230000       2.0532500     -0.41700000       341.54200       6.1441605     0.034910354
       980.99999       288.70316       98772.990       11430.696       1.0550000       1.4565000     0.089250010       341.47100       3.9807599     0.025569249
       986.00000       288.66579       98749.095       11482.990       1.3160000       2.2902500     0.071750000       341.44500       11.463791     0.054840477
       991.00002       288.64596       98741.726       11500.173      0.27950000       1.8135000      0.18300000       341.10900       3.6146335     0.023461766
       996.00003       288.58119       98735.735       11482.339       1.6720000       1.5417500     -0.72700010       340.98000       4.7900453     0.024580101
       1001.0000       288.58458       98737.393       11489.747      0.97325000       1.7330000      0.56550000       341.57300       5.6299917     0.021852993
       1007.0000       288.64715       98767.081       11481.368      0.78000000       2.6127500     -0.21675000       341.02400       3.2217211     0.021306651
       1012.0000       288.71493       98769.355       11508.531      0.52175000       1.6887500     0.025250000       340.85100       5.0680087     0.029286718
       1017.0000       288.83930       98759.726       11567.701     -0.18250000       1.7127500     -0.14350000       341.42700       2.3484670     0.026959810
       1022.0000       288.93999       98754.658       11633.191    -0.070000000       1.4560000    -0.099250000       341.63700       4.4291394     0.018139504
       1027.0000       289.04200       98728.960       11728.636      0.51275000       1.8620000     0.032000000       341.44300       6.5830293     0.019185369
       1032.0000       289.14241       98724.800       11810.037       1.5132500       3.2945000     -0.39150000       341.19900       2.6326655     0.021470624
       1037.0000       289.22724       98742.903       11893.632      0.21250000       2.6347500    -0.010500000       341.40400       5.0515302     0.032969540
       1042.0000       289.33987       98747.466       11980.849      0.84950010      0.65525000       1.1735000       342.42100       4.6043362     0.024347507
       1047.0000       289.51500       98757.835       12089.521      0.66475000       1.9697500     -0.17550000       341.83300       2.7282254     0.014535724
       1052.0000       289.59319       98757.901       12150.951     0.011250000       1.2570000      0.21300000       341.85700       3.9455117     0.022537279
       1057.0000       289.62030       98739.459       12189.253     0.097000000       1.3507500      0.18025000       341.60400       2.8090183     0.026071832
       1062.0000       289.67706       98738.020       12231.305      0.20350000       1.7062500     -0.16600000       341.18200       3.4858512     0.032817505
       1067.0000       289.73384       98742.840       12299.725      0.69900010       1.6927500     0.018500000       341.13800       4.7309531     0.030443467
       1072.0000       289.70301       98745.562       12251.446       1.0627500       2.4572500     -0.14150000       341.40800       5.1444905     0.026536275
       1077.0000       289.65038       98762.819       12139.001      0.46650000       1.9252500      0.38150000       342.13700       4.5611854     0.028927209
       1082.0000       289.58921       98763.497       12032.411       1.0827500       1.7520000     -0.42300000       341.76400       4.5560598     0.032592607
       1087.0000       289.35667       98744.957       11746.168      0.55500000       2.0360000      0.74350010       342.19900       3.3377048     0.014826825
       1092.0000       289.29934       98743.066       11662.219      0.33575000       2.2375000      0.11475000       342.51300       4.6212023     0.023603096
       1098.0000       289.35971       98744.046       11722.604      0.69075010       2.1157500     -0.16000000       341.59300       3.0758652     0.022876390
       1103.0000       289.41915       98744.382       11733.256      0.20675000       2.1705000    -0.054000000       341.42100       2.5663750     0.023820428
       1108.0000       289.61410       98757.962       11845.903      0.99725000       2.1732500      0.65125000       342.18000       2.6077170     0.029171194
       1113.0000       289.63295       98756.921       11844.969     -0.26650000       2.3302500     -0.31425000       341.87000       2.5278622     0.025989291
       1118.0000       289.59388       98736.252       11753.252     0.012750000       2.8650000     -0.22100000       341.28200       6.1021999     0.028076026
       1123.0000       289.52961       98738.885       11708.432    -0.019000000       1.9730000    -0.087750000       341.79100       3.4058239     0.030329647
       1128.0000       289.32903       98758.012       11646.632      0.36300000       2.0172500     -0.43300000       341.93900       6.1397350     0.029408676
       1133.0000       289.23227       98755.469       11600.471     -0.35225000       1.1050000      0.21550000       342.36800       4.1510919     0.031806448
       1138.0000       289.14817       98751.675       11554.528     -0.71200000       1.2835000      0.27500000       342.11700       4.0895878     0.032873326
       1143.0000       289.11742       98751.306       11543.693      0.21175000       1.3990000     -0.18925000       342.57500       4.1262135     0.023373441
       1148.0000       289.09936       98732.430       11520.241      0.57525000       1.1270000      0.32125000       342.44100       5.2018544     0.032236999
       1153.0000       289.17135       98731.826       11575.222       1.1572500       3.7390000      0.73650000       342.39600       4.8066536     0.027704012
       1158.0000       289.39350       98758.842       11742.449      0.11650000       3.1872500     0.022750000       342.04800       3.5938743     0.026389521
       1163.0000       289.45539       98758.525       11801.452       1.0582500       2.2600000     0.067750010       342.40300       4.6847223     0.031265218
       1168.0000       289.50258       98736.771       11861.118       1.1052500       1.8732500    0.0052500000       341.94800       5.4012655     0.025530123
       1173.0000       289.53339       98739.966       11892.680      0.37675000       1.7290000     -0.12100000       342.17800       5.9470396     0.031579930
       1178.0000       289.43209       98751.435       11823.815       1.1485000       1.1237500      0.23400000       343.26000       3.0946453     0.030376414
       1183.0000       289.44045       98749.835       11840.640       2.3650000       2.4230000    -0.083500010       341.62100       6.1514420     0.031637397
       1189.0000       289.51924       98757.440       11916.603       1.6045000       1.6812500     0.062500000       341.34200       2.9627657     0.025260932
       1194.0000       289.60725       98757.744       11956.938       1.3767500       2.0552500     -0.10900000       341.82800       2.8609291     0.024834575
       1199.0000       289.73167       98738.169       12000.230       2.1037500       2.4430000     -0.14375000       341.41900       5.2434975     0.025227682
       1204.0000       289.82224       98736.507       12058.105       1.4260000       2.5342500     -0.84475000       340.86700       3.8504559     0.039560322
       1209.0000       290.01076       98752.603       12168.897      0.71925000       2.4222500     -0.21475000       341.14700       4.0066652     0.022175114
       1214.0000       289.95361       98751.162       12120.238      0.77100000       1.0460000     0.029250000       341.77400       2.8909174     0.027657782
       1219.0000       289.74475       98738.556       12014.364      0.33775000       2.0782500      0.68325000       343.00700       2.5413464     0.023636032
       1224.0000       289.59966       98740.182       11909.450      0.48425000       2.0812500     0.024750000       341.05100       5.0094286     0.037307688
       1229.0000       289.30085       98746.127       11666.131       1.1130000       1.5290000     -0.71300010       341.56300       2.3103248     0.030780539
       1234.0000       289.17530       98744.264       11559.265      0.83825000      0.99050000     0.040750000       341.74700       5.1398154     0.043084324
       1239.0000       289.14030       98744.673       11528.211       1.4135000       1.4857500     -0.28825000       340.86100       5.8804160     0.038297864
       1244.0000       289.11683       98747.742       11470.574      0.86875000       1.4717500     -0.29150000       341.26100       2.4841081     0.029920897
       1249.0000       289.12617       98744.299       11410.186      0.73750000      0.40900000     0.017250000       342.09100       5.6916179     0.022945778
       1254.0000       289.17239       98745.096       11390.019       1.0830000       1.3330000     -0.77025000       341.45100       6.8969157     0.033653720
       1259.0000       289.26027       98755.838       11370.709      0.47525000      0.55075000      0.53675000       343.38400       7.0645901     0.053033061
       1264.0000       289.38586       98759.084       11430.504      0.43475000       1.5207500      0.16575000       341.99700       3.1463808     0.035471944
       1269.0000       289.58047       98754.615       11558.177      0.17350000      0.95400010     0.075500000       342.62300       4.2556325     0.036244160
       1274.0000       289.70100       98755.501       11662.620    -0.091000010      0.71600000      0.42225000       343.32100       4.5523154     0.041787632
       1280.0000       289.88808       98762.943       11865.346    -0.041500000       1.1322500      0.26500000       343.62300       6.2777786     0.029924537
       1285.0000       289.90021       98757.431       11922.259     -0.14075000       1.1320000      0.33000000       343.14000       4.7659809     0.029847675
       1290.0000       289.80050       98743.547       11912.995      0.16150000       1.1697500      0.16875000       341.71600       7.5203602     0.032165360
       1295.0000       289.76050       98748.345       11966.464      0.93125000       1.2360000     -0.41100000       342.49500       5.3583031     0.025917669
       1300.0000       289.73757       98745.396       12002.034       1.3495000       1.0312500      0.50025000       342.42400       3.0976084     0.025670941
       1305.0000       289.80024       98742.391       12119.286     -0.10800000       3.7975000     -0.18600000       342.04400       2.8594003     0.022070259
       1310.0000       289.81250       98745.413       12149.562      0.40900000       3.3527500     -0.40900000       341.81200       2.9423061     0.037450222
       1315.0000       289.80018       98748.435       12124.346      0.42000000       2.9180000     -0.93275000       342.23500       4.4062028     0.028723182
       1320.0000       289.76412       98745.823       12029.602       1.1497500       2.3765000     -0.52925000       341.66000       4.8963430     0.023847891
       1325.0000       289.70077       98740.696       11940.940      0.78450010       2.4307500      0.46300000       343.09700       3.3804689     0.036100990
       1330.0000       289.59961       98739.762       11801.512      0.70700000       3.3705000      0.26200000       341.95400       3.6575589     0.024549642
       1335.0000       289.49883       98744.358       11674.458      0.96875010       3.6737500     -0.39050000       342.26600       3.1373917     0.037558292
       1340.0000       289.43546       98740.426       11581.118     -0.36725000       1.6362500      0.54550000       342.49600       6.5133594     0.020993221
       1345.0000       289.36979       98736.431       11482.415      0.40325000       2.4912500      0.18225000       342.12300       7.0239503     0.025650247
       1350.0000       289.37543       98740.461       11431.142       2.5202500       2.1402500     -0.60125010       341.97100       4.0388210     0.018125474
       1355.0000       289.44507       98744.361       11424.030       1.3785000       2.1100000    -0.040250000       342.27000       6.0137948     0.026456237
       1360.0000       289.53043       98740.414       11439.411       1.1640000       2.4225000     -0.14250000       341.59500       3.0163838     0.022684816
       1365.0000       289.65267       98736.454       11484.193     -0.29075000       1.1710000      0.55300000       343.25400       2.5915292     0.040274288
       1371.0000       289.88638       98741.388       11588.299      0.73725000       2.8972500     -0.46375000       342.21900       2.6390477     0.033886610
       1376.0000       289.91312       98743.594       11628.901    -0.082000000       2.1675000     -0.42450000       342.23400       3.1321665     0.019699372
       1381.0000       290.01525       98739.521       11729.851      0.55950000       2.6520000      0.27625000       343.26800       3.2401391     0.023517235
       1386.0000       290.13832       98736.814       11881.311      0.65800010       2.9975000     -0.48750000       342.04700       3.8439220     0.032917638
       1391.0000       290.21910       98740.735       12008.288      0.38200000       2.2225000      0.52525000       343.55800       2.6744847     0.022874918
       1396.0000       290.36163       98743.642       12236.206     0.099750000       2.3832500     -0.45625000       342.12800       2.2240686     0.030077766
       1401.0000       290.43590       98739.751       12340.939      0.78975000       2.0872500     0.028750000       342.40800       2.9229545     0.030794624
       1406.0000       290.40015       98737.299       12348.812      0.35600000       2.1537500     -0.28275000       342.27700       3.9847400     0.035543917
       1411.0000       290.40011       98741.299       12350.079      0.16900000       1.9557500    -0.060250000       341.77600       2.8435089     0.038517934
       1416.0000       290.39990       98739.333       12260.183      0.96875010       2.1447500      0.17850000       342.80400       8.0333261     0.060482340
       1421.0000       290.39987       98738.682       12207.325       2.1517500       1.3930000      0.24925000       341.32600       4.2096491     0.038687870
       1426.0000       290.41464       98752.788       12137.086     0.033250000       1.1405000     0.086000000       342.78600       3.6487240     0.026604850
       1431.0000       290.40382       98758.295       12110.371     -0.46100000      0.68150000     -0.42100000       342.61700       3.5324467     0.025829902
       1436.0000       290.42268       98751.109       12170.178      0.29100000       4.3897500     -0.20000000       340.92700       3.4407564     0.022106019
       1441.0000       290.35777       98749.156       12134.918      0.40650000       3.8345000      0.35975000       341.99600       4.5904444     0.037571081
       1446.0000       290.20231       98753.119       12083.705     -0.85125010       3.2542500     -0.27325000       342.71200       7.0774210     0.037714454
       1451.0000       290.08198       98750.887       12008.078     0.080750000       3.9602500     -0.35000000       340.97900       2.5213467     0.039287137
       1456.0000       289.85840       98739.318       11808.723      -1.0635000       3.1927500     -0.90250000       340.95700       3.0976723     0.034239179
       1462.0000       289.74191       98739.073       11676.995      0.81375000       2.4797500     -0.36100000       341.43000       3.0869485     0.028535695
       1467.0000       289.77477       98748.031       11614.535     0.077500000       2.5965000      0.53275000       342.24700       9.3100051     0.038854168
       1472.0000       289.73449       98745.324       11552.601      0.14125000       3.3080000     -0.44950000       341.21100       2.1874414     0.024168841
       1477.0000       289.71821       98735.565       11513.762     -0.57200000       3.1307500      0.22000000       341.53000       3.1902758     0.024156979
       1482.0000       289.69458       98740.580       11492.854      0.20400000       3.0465000      0.11700000       342.30700       3.6994240     0.025496342
       1487.0000       289.58391       98751.746       11468.619     -0.70575000       2.4640000      0.28475000       343.00800       3.4499106     0.023493617
       1492.0000       289.57894       98750.466       11485.976     -0.55575000       2.5192500     -0.24325000       341.74100       2.4641032     0.020627783
       1497.0000       289.67473       98754.612       11566.521     -0.70175000       2.6205000      0.12075000       341.45600       2.6748702     0.048730302
       1502.0000       289.71495       98758.327       11610.941     -0.46275000       2.6862500     -0.33275000       341.92900       3.9976423     0.033813524
       1507.0000       289.78880       98745.645       11658.381     -0.45125000       2.4262500     -0.28775000       341.98400       2.8116745     0.023908129
       1512.0000       289.82122       98742.092       11710.201     0.041500000       1.0902500      0.14675000       343.48000       2.7441982     0.039234139
       1517.0000       289.77408       98757.612       11721.463       1.3585000       2.1795000     -0.32775000       342.40000       3.0155547     0.032182202
       1522.0000       289.80138       98757.825       11794.949      0.79550000       2.1520000    0.0052500000       341.75900       4.3323757     0.036327701
       1527.0000       289.91552       98739.292       11974.054       1.5835000       1.4310000      0.28800000       342.83900       6.4711170     0.057093444
       1532.0000       289.91396       98737.843       12030.888       1.5245000       1.8542500     0.067250010       341.33300       2.5634817     0.031625699
       1537.0000       289.87622       98748.012       12062.936     0.034000000       1.2987500      0.10250000       343.25700       3.0008173     0.033725777
       1542.0000       289.84922       98745.348       12071.108       1.7347500       2.0860000    -0.016500000       342.73200       4.1089112     0.041896763
       1548.0000       289.69068       98738.970       11947.138       1.0745000       1.2980000     -0.52925000       343.24900       3.4419094     0.040154691
       1553.0000       289.66605       98741.577       11921.626      0.59200000       2.3157500     -0.12400000       342.02100       5.6881337     0.050366191
       1558.0000       289.75275       98738.629       11958.323      0.26025000      0.74700000      0.48750000       343.11600       3.3363290     0.035863857
       1563.0000       289.75630       98739.454       11938.040     -0.12025000       2.6255000    -0.040250000       340.74800       3.1719647     0.030288062
       1568.0000       289.76794       98758.001       11908.600    -0.088750000       2.0180000      0.62425010       342.92600       4.4947204     0.046867925
       1573.0000       289.74569       98758.358       11880.566     -0.71775000       2.3482500     -0.20525000       341.14000       2.0376282     0.044350895
       1578.0000       289.65919       98738.634       11804.396     -0.24000000       2.1775000      0.17050000       341.97600       3.8200921     0.040071629
       1583.0000       289.62594       98738.126       11794.613      0.29300000       2.0962500    -0.066500000       341.91400       3.2330800     0.041621903
       1588.0000       289.57709       98746.351       11834.087     -0.32525000       1.5687500      0.51300000       343.01700       3.7161025     0.028864651
       1593.0000       289.59632       98744.702       11844.933       2.4707500       2.2980000     -0.32100000       342.31100       3.9346342     0.025362066
       1598.0000       289.68442       98747.272       11880.485       1.5412500       3.3440000     -0.18900000       341.63500       5.4692834     0.037692924
       1603.0000       289.72452       98745.394       11886.442      0.31800000       1.6172500      0.14025000       342.78200       3.4032233     0.048696152
       1608.0000       289.79971       98727.246       11855.723       1.0087500       3.6257500     -0.81950000       341.05600       2.9744722     0.021255009
       1613.0000       289.82753       98727.973       11854.736      0.13500000       3.5532500     -0.36700000       342.05800       2.4553317     0.028155045
       1618.0000       289.81090       98747.287       11870.959       1.1440000       3.5240000     -0.44450000       340.95000       2.7116800     0.037626648
       1623.0000       289.79463       98746.747       11863.737       1.0020000       2.5675000     -0.20050000       342.06800       2.6815293     0.034491817
       1628.0000       289.75785       98739.972       11846.966      0.51575010       3.9675000     -0.15125000       341.35900       2.9806016     0.034312367
       1633.0000       289.73778       98740.979       11846.322    0.0030000000       2.4532500      0.36100000       341.98400       2.6677417     0.035383087
       1639.0000       289.69735       98731.728       11837.118      -1.1857500       4.3140000    -0.055000000       341.35000       3.0186548     0.038898892
       1644.0000       289.68627       98735.186       11836.372     -0.60925000       3.6407500     -0.29175000       341.46300       4.6265613     0.034722699
       1649.0000       289.69948       98758.961       11860.005     -0.17750000       3.5957500     -0.30825000       341.89700       7.0386641     0.051223632
       1654.0000       289.69918       98756.797       11859.137     -0.37750000       2.1947500     -0.20675000       342.09400       7.2888253     0.045988870
       1659.0000       289.69975       98740.903       11837.128      0.19475000       4.0142500   -0.0097500000       341.39400       2.8501976     0.019227831
       1664.0000       289.69964       98735.877       11835.149    -0.088500000       2.7542500     -0.24500000       341.74200       3.9661807     0.035663014
       1669.0000       289.70945       98720.988       11854.354      0.73125000       2.9220000     -0.78050010       341.59900       3.0852354     0.039221976
       1674.0000       289.69099       98724.022       11827.089     -0.46300000       2.9785000     -0.24475000       341.90500       2.7184849     0.030246511
       1679.0000       289.60760       98745.141       11763.465       1.1462500       2.9317500      0.42100000       342.26800       4.6941746     0.026891400
       1684.0000       289.68237       98750.389       11765.167       1.2320000       3.1827500     -0.26400000       341.25600       3.0356632     0.035806850
       1689.0000       289.81063       98756.430       11746.080      0.82350000       2.9715000     -0.15425000       341.55900       3.1706902     0.034356452
       1694.0000       289.93761       98757.819       11800.746      0.85950010       2.6520000     -0.44950000       341.35600       2.4038526     0.022789287
       1699.0000       290.21147       98749.039       11956.518      0.60800000       2.7482500      0.23625000       342.35000       2.6659626     0.029496825
       1704.0000       290.30816       98749.750       12029.066      0.52125000       2.0240000     -0.18375000       342.84500       2.1916940     0.021119677
       1709.0000       290.30602       98755.621       12083.932     -0.19725000       2.5632500      0.33725000       341.99100       3.6248848     0.017081778
       1714.0000       290.32817       98755.697       12161.692      0.24825000       2.6252500     -0.14900000       341.50200       3.2977741     0.023810816
       1719.0000       290.29993       98758.879       12231.785     -0.43175000       2.1400000     0.024000000       341.06200       2.6137363     0.020868018
       1724.0000       290.29993       98752.532       12287.503       1.1080000       1.5220000     -0.28325000       342.33200       3.1785807     0.028519641
       1730.0000       290.29346       98733.013       12385.476      0.16775000       2.6802500     -0.59275000       341.24200       3.1491316     0.022924576
       1735.0000       290.31491       98732.531       12391.067     -0.50900000       2.4282500     -0.25200000       341.98000       2.8541274     0.022486769
       1740.0000       290.38019       98732.860       12351.283     0.053250000       2.8972500     -0.43475000       342.13600       10.372196     0.087560306
       1745.0000       290.26244       98754.915       12261.413      0.96100000       2.2092500      0.30750000       342.67600       3.5949887     0.033271148
       1750.0000       290.16574       98760.062       12171.873       1.0140000      0.87250010      0.24525000       342.96300       3.3680216     0.034503386
       1755.0000       289.91322       98745.168       12039.784      0.48250000       3.1797500     0.054500000       342.66800       4.4523460     0.031733973
       1760.0000       289.76823       98740.178       11923.122       2.1302500       1.9540000      0.19450000       343.34300       2.2744886     0.029172972
       1765.0000       289.68476       98735.161       11811.145      0.69375000       1.7095000     0.090750000       343.70900       2.0603282     0.023886290
       1770.0000       289.68092       98720.808       11691.001       1.1732500       2.3580000      0.24275000       342.32000       2.2283243     0.021002851
       1775.0000       289.68549       98725.936       11631.080       2.4500000       1.9465000     -0.60050000       341.85000       3.2821817     0.033670660
       1780.0000       289.74436       98745.846       11586.513       2.5057500       2.1905000    -0.092000010       342.25800       6.6789540     0.035758818
       1785.0000       289.81572       98760.263       11611.451       1.0685000       3.2855000     -0.34425000       340.79000       3.0227308     0.027740678
       1790.0000       289.85736       98764.095       11632.232       1.3682500       2.3557500     -0.46050000       341.64600       3.5132987     0.023480875
       1795.0000       289.84084       98746.724       11650.814       1.2212500       2.1492500     -0.27300000       341.23800       2.9213521     0.026602971
       1800.0000       289.88829       98743.420       11696.604      0.88500010       2.2940000     -0.44900000       341.61800       3.2730904     0.030450400
       1805.0000       289.98993       98749.618       11776.360       1.4170000       2.5915000      -1.2737500       341.48600       7.3076555     0.029062472
       1810.0000       290.04940       98745.714       11845.137       1.7365000       2.4302500     -0.57800000       341.53600       4.3986283     0.018286701
       1815.0000       290.10881       98740.587       11919.295       1.7555000       1.4170000     -0.33450000       342.49500       2.7959375     0.031527192
       1821.0000       290.22630       98740.541       12030.018       1.3517500       2.5440000     -0.31975000       342.00600       2.9649164     0.017462531
       1826.0000       290.21408       98734.485       12135.166       1.5292500       1.5985000   0.00075000000       342.20100       11.269423     0.094537606
       1831.0000       290.20284       98732.893       12185.960       1.1100000       2.3267500     0.042250000       341.02500       5.1304085     0.034282436
       1836.0000       290.19329       98750.175       12237.564      0.97950010       1.6692500     -0.22600000       341.12700       5.2622302     0.036943462
       1841.0000       290.15082       98753.674       12233.832      0.45850000       1.1965000     -0.11675000       341.50700       3.3347303     0.018888093
       1846.0000       290.04143       98739.347       12135.413       1.4597500       1.9932500     -0.37225000       341.99600       2.8793155     0.018846485
       1851.0000       289.98328       98738.765       12068.991      0.78975000       2.1392500      0.28050000       342.68800       2.0772466     0.017887421
       1856.0000       289.87550       98742.201       11942.347     0.090000000       1.3110000      0.27725000       343.62200       4.3445402     0.024985260
       1861.0000       289.87263       98744.493       11897.565      0.50350000       3.0820000     -0.50725000       341.30700       5.0446692     0.023941394
       1866.0000       290.00203       98758.715       11940.140      0.20050000       1.6092500      0.78925000       341.99700       5.1064774     0.032281404
       1871.0000       290.06213       98763.247       11924.877    -0.089250010       2.7107500     -0.50950000       340.91900       2.1445549     0.016844271
       1876.0000       290.17108       98761.017       11925.502    -0.054500000       2.2665000     -0.61375000       341.73600       3.0626893     0.026673303
       1881.0000       290.22775       98755.641       11915.583     0.027500000       1.7325000     -0.31750000       341.18600       2.8589823     0.021361822
       1886.0000       290.17186       98736.805       11819.854      0.52300000       1.0702500     -0.16775000       341.22000       3.3334985     0.025197264
       1891.0000       290.19449       98732.438       11803.777     -0.93650010      0.91550000     0.072250000       343.27400       3.5655705     0.017448580
       1896.0000       290.25390       98731.888       11862.030     -0.28225000       1.4572500     -0.11875000       341.87200       4.2184612     0.025263197
       1901.0000       290.30476       98733.329       11892.284     -0.54475000       1.8412500     0.055750000       341.83500       5.3011205     0.035801896
       1906.0000       290.38360       98750.551       11910.404      0.66600000       1.1470000      -1.1735000       341.77700       5.5167465     0.030522969
       1912.0000       290.47933       98759.188       12000.588      0.68000000       2.1200000    -0.012500000       342.60500       4.5254909     0.026583627
       1917.0000       290.57036       98761.041       12122.067      0.75350000       2.7082500     -0.21950000       341.23800       3.2513089     0.018404741
       1922.0000       290.62703       98761.337       12199.496       1.1547500       2.1105000     -0.31600000       342.30400       4.8676774     0.025641568
       1927.0000       290.69023       98760.275       12325.616     -0.11775000       2.1272500     0.010750000       342.62200       7.9278879     0.041233129
       1932.0000       290.72332       98754.181       12393.293     -0.15825000       1.8637500      0.12475000       342.64700       3.0211864     0.029862354
       1937.0000       290.67445       98738.135       12360.760    0.0077500000       2.5132500     -0.33975000       341.56100       2.8112723     0.032760817
       1942.0000       290.70197       98731.948       12392.089      0.52725010       2.4970000     -0.35875000       342.27300       3.1763080     0.018626847
       1947.0000       290.76180       98721.529       12460.481      0.25775000       1.9845000     -0.22775000       343.54100       3.1885397     0.016250147
       1952.0000       290.81612       98722.950       12491.508      0.34900000       2.4230000      0.15800000       342.64200       5.3525975     0.032693479
       1957.0000       290.92731       98738.693       12539.608     0.069000010       1.8162500    -0.032750000       342.65700       2.5583745     0.023332442
       1962.0000       290.97995       98749.186       12540.951      0.70325010       1.6345000      0.13275000       343.59300       6.5235206     0.042046307
       1967.0000       291.03402       98770.558       12512.506     0.091000010       2.0370000      0.27575000       342.81700       3.9592292     0.022016002
       1972.0000       291.00948       98775.466       12444.849      0.47250000      0.89625010      0.44175000       344.68000       3.7833432     0.031136603
       1977.0000       290.91101       98770.487       12320.559     -0.80375000      0.88700000     -0.29925000       343.57200       4.3211239     0.020787492
       1982.0000       290.82396       98764.979       12220.826     -0.64250000       1.4590000     -0.31975000       342.52900       4.9579561     0.026282606
       1987.0000       290.62652       98745.705       12061.947     -0.64525000       2.8257500     -0.32350000       341.99300       5.2646041     0.023185012
       1992.0000       290.55175       98735.569       11980.369      0.11750000       2.4245000     -0.53400000       342.19400       3.4686317     0.031804309
       1997.0000       290.56103       98727.782       11940.855       1.1787500       2.6407500     -0.42350000       341.31300       3.5293433     0.023477409
       2003.0000       290.53142       98721.921       11917.874    -0.099500010       1.7220000    -0.094250000       342.62600       2.8555427     0.021150267
       2008.0000       290.56777       98717.040       11963.891     -0.35400000       2.8235000     -0.15250000       343.82800       2.5958682     0.023233044
       2013.0000       290.54529       98720.519       11959.597      0.72175000       1.5130000     -0.42000000       341.46900       2.8298297     0.033565944
       2018.0000       290.43514       98731.858       11923.769      0.50400000       1.3150000      0.66625010       343.53500       2.1760645     0.031789658
       2023.0000       290.43326       98739.421       11948.416       1.2852500       2.9605000      0.35225000       343.34600       2.9788378     0.020247514
       2028.0000       290.47369       98754.318       11970.129    -0.046500000       4.3985000      0.44175000       343.19300       2.2225251     0.033992084
       2033.0000       290.51593       98760.421       12033.901       1.0447500       3.6290000     -0.68550000       341.97700       2.1558947     0.032222837
       2038.0000       290.63981       98760.092       12188.511       1.9937500       3.7177500      0.55125000       343.01500       3.2278630     0.038912614
       2043.0000       290.68703       98761.421       12272.509      0.52100000       4.1155000     -0.38225000       342.44400       2.8317110     0.031854704
       2048.0000       290.70996       98761.487       12351.269     -0.10625000       2.1745000       1.3410000       343.24600       3.2397955     0.027527827
       2053.0000       290.70742       98759.889       12397.166      0.66125010       2.7275000      0.15025000       341.78500       3.7451721     0.030281972
       2058.0000       290.69065       98758.362       12428.118      0.65175000       2.5885000    0.0035000000       342.22500       2.4446346     0.034085071
       2063.0000       290.62218       98753.187       12405.960       1.2492500       1.4407500      0.19350000       342.75500       4.9616068     0.038348248
       2068.0000       290.48535       98743.025       12323.429      0.50900000      0.93050000      0.96575000       344.39400       2.5221797     0.030729316
       2073.0000       290.39611       98736.092       12272.526      0.66600000      0.87500010      0.37025000       344.72900       4.4999735     0.030460774
       2078.0000       290.24931       98725.139       12172.513     -0.45775000       2.1505000     -0.29300000       342.89100       2.4385637     0.018494135
       2083.0000       290.20417       98721.969       12131.581     -0.98900000       2.8105000     -0.95775000       341.61400       2.8141233     0.022173667
       2088.0000       290.21849       98722.246       12151.425      -1.2410000       2.9190000      0.17975000       343.26900       3.8963810     0.035292721
       2094.0000       290.27014       98727.442       12114.365     -0.78300010       2.6935000     -0.23300000       342.40000       7.0517802     0.038012107
       2099.0000       290.37701       98738.944       12060.621     -0.48075000       3.1372500     -0.26000000       342.46500       3.6891478     0.036882494
       2104.0000       290.46637       98746.029       12058.130     -0.16325000       3.8445000     -0.24275000       342.86000       2.2901870     0.030834410
       2109.0000       290.61760       98755.560       12060.760     -0.29025000       2.2547500     -0.19025000       343.20600       2.6429425     0.036641875
       2114.0000       290.64319       98759.841       12061.957      -1.8417500       1.5417500     -0.56725000       342.49800       2.1895607     0.036006067
       2119.0000       290.61368       98760.603       12110.001     -0.63425000       4.5722500     -0.31450000       342.35900       2.1733678     0.030692382
       2124.0000       290.59632       98761.709       12118.475      -1.0897500       3.3695000      0.11775000       341.94700       2.5829706     0.031131349
       2129.0000       290.49362       98760.385       12081.926     -0.55300000       3.0420000     -0.46600000       342.73500       2.3800655     0.026493847
       2134.0000       290.47136       98760.398       12091.903     -0.88750000       2.2940000      0.36750000       343.35900       3.2862732     0.031715581
       2139.0000       290.50813       98761.134       12130.572     -0.74525000       2.1085000     -0.26050000       343.24500       2.8204775     0.033909239
       2144.0000       290.48898       98759.224       12142.308      0.33775000       1.6412500     0.062250000       342.91600       2.3420654     0.032896637
       2149.0000       290.45311       98757.408       12157.223       2.4537500       3.5087500     -0.29650000       341.34500       6.0794036     0.039282709
       2154.0000       290.43312       98751.692       12161.618       1.9615000       3.7167500     -0.32375000       341.25500       5.0271150     0.036250573
       2159.0000       290.38798       98741.719       12140.940       1.1022500       2.4037500      0.25125000       342.39700       6.6242315     0.051157907
       2164.0000       290.39540       98734.798       12154.365       1.0277500       3.5225000      0.26700000       342.42000       3.2786990     0.033063798
       2169.0000       290.44607       98725.286       12186.310       1.6170000       4.0582500      0.87650010       341.81200       2.9705003     0.036064721
       2174.0000       290.46598       98721.065       12202.379      0.81950000       3.8540000    -0.047250000       341.50200       3.6192559     0.034209985
       2180.0000       290.48621       98719.818       12223.818       2.3797500       2.4375000     -0.81225000       341.79300       3.3982027     0.030488439
       2185.0000       290.55938       98718.978       12263.553       1.1967500       2.6737500     0.027250000       342.65200       3.8760427     0.033481820
       2190.0000       290.64347       98720.263       12300.376       1.0335000       1.9290000   -0.0085000000       342.32500       2.9083696     0.025350760
       2195.0000       290.78555       98720.153       12380.115       2.0645000       1.2002500     0.069000010       342.16600       4.3901357     0.033096936
       2200.0000       290.87074       98720.129       12431.258      0.42725000       2.7510000     -0.36800000       342.02400       5.1235824     0.038396387
       2205.0000       290.94526       98720.336       12453.027      0.91800000      0.91925010      0.48275000       343.11800       3.9315562     0.031368541
       2210.0000       290.93129       98720.336       12475.652      0.85100000       2.5705000      0.47850000       342.78300       2.2390168     0.030100603
       2215.0000       290.85569       98720.336       12490.586      0.17375000       3.6455000     -0.38750000       341.74100       3.5558939     0.030484205
       2220.0000       290.71661       98720.305       12508.193      0.22750000       2.5630000      0.48850000       342.21000       3.1355665     0.032610517
       2225.0000       290.59254       98720.305       12460.337      0.76600000       3.2495000     -0.49950000       341.22400       3.9775121     0.033270794
       2230.0000       290.38160       98719.809       12384.353       2.2047500       1.3497500      0.92575000       342.93500       3.5791078     0.027896858
       2235.0000       290.31356       98720.237       12275.177       2.1277500       1.8417500     -0.64575000       342.17500       4.0167462     0.031857423
       2240.0000       290.24179       98723.929       12179.963       2.5335000       1.8390000    -0.062500000       342.15900       3.1503674     0.028914320
       2245.0000       290.21417       98737.874       12104.331       2.2032500       1.8542500     -0.70825000       342.45400       3.2325473     0.037793254
       2250.0000       290.15573       98742.150       12025.935       1.3750000       2.8870000     -0.22950000       342.73900       4.2374039     0.031214220
       2255.0000       290.05519       98738.427       11915.073       2.2790000       2.5470000      0.59625010       341.68400       2.9660632     0.028560958
       2260.0000       289.99459       98740.477       11849.241       1.6412500       4.7535000     -0.35125000       341.30400       3.9667747     0.022560644
       2265.0000       289.94633       98742.541       11807.713       1.5917500       4.3735000     -0.36550000       341.40500       3.9425235     0.031573209
       2271.0000       289.87899       98739.132       11778.847       1.4132500       2.9595000     -0.52200000       342.39500       2.7257565     0.023940353
       2276.0000       289.93387       98748.190       11833.998       1.4642500       1.7662500      0.28400000       341.67400       3.0602691     0.026473016
       2281.0000       289.95389       98751.989       11856.511       1.6520000       3.3065000     -0.19900000       341.38400       2.9625907     0.021804766
       2286.0000       289.97626       98752.938       11876.141      0.76475010       2.1250000    -0.017750000       341.78300       2.5159412     0.025840713
       2291.0000       290.00641       98750.674       11905.428     -0.46100000       2.0442500     0.077250000       342.19000       7.9467480     0.055324606
       2296.0000       290.04821       98740.635       11935.711      -1.3575000       2.9165000     0.083000000       342.22000       2.4776681     0.027120318
       2301.0000       290.05671       98738.878       11953.108     -0.86950000       2.8642500      0.38200000       341.98600       2.7630456     0.026289053
       2306.0000       290.07203       98738.880       11976.340       1.9535000       2.0680000      0.41025000       342.66500       2.7666504     0.029376058
       2311.0000       290.05923       98739.144       11995.879       1.0607500       3.7410000     -0.16475000       342.43400       4.6133105     0.035368902
       2316.0000       289.97615       98748.293       11998.208      0.99375000       2.6187500     -0.18025000       342.17500       3.7389282     0.028292095
       2321.0000       289.93729       98752.072       12000.623       1.2987500       3.5312500     -0.24725000       341.63700       5.7073824     0.035279854
       2326.0000       289.90979       98750.338       12013.112     -0.28000000       2.7640000    -0.049000000       341.70700       5.1818933     0.031175950
       2331.0000       289.89093       98750.360       12014.828     -0.18475000       2.0250000      0.49675000       342.40400       3.0988931     0.025139355
       2336.0000       289.82936       98753.040       11958.226     0.029250000       3.6442500     0.033750000       341.87200       3.3310142     0.026197758
       2341.0000       289.88595       98750.768       11981.135     0.074500000       2.6802500      0.19900000       341.87500       2.3055482     0.015472827
       2346.0000       290.12724       98744.996       12093.450      0.67250000       2.0432500     -0.17475000       342.83000       3.6803634     0.023247678
       2351.0000       290.18222       98739.942       12129.183      0.64075010       1.7897500      0.22150000       342.14200       2.4912871     0.024478609
       2356.0000       290.24791       98728.910       12199.484      0.76050000       2.7965000     -0.13850000       341.75800       2.5706287     0.029611232
       2362.0000       290.22601       98722.283       12207.650      0.20675000       1.2570000      0.30525000       342.84900       3.4802822     0.033135785
       2367.0000       289.93350       98721.067       12090.637      0.58100000       1.9800000     -0.16100000       342.49200       3.3296157     0.029409006
       2372.0000       289.84153       98719.517       12040.257      0.60675000       1.4180000     -0.65500000       342.29100       3.2169143     0.020418230
       2377.0000       289.83575       98720.312       11984.008      0.16000000       1.7675000      0.67100000       342.39000       5.7399717     0.034975159
       2382.0000       289.83653       98720.331       11969.991      -1.1980000       3.9810000     -0.27225000       341.44700       4.2198150     0.024930457
       2387.0000       289.90725       98720.201       11991.869     -0.93200000       3.5527500      0.18050000       341.50100       3.8001161     0.036482680
       2392.0000       289.97055       98720.160       12017.342      -1.0657500       1.7442500     -0.47475000       341.43500       4.8590648     0.024853345
       2397.0000       290.09643       98714.859       12114.529     -0.14575000       2.0085000      0.17150000       341.87400       3.1819026     0.021629454
       2402.0000       290.12469       98720.442       12126.973     -0.30550000       2.0567500    -0.010750000       342.86400       3.7947408     0.024055926
       2407.0000       290.11309       98740.633       12077.969      0.67400000       2.7025000     -0.50600000       341.24600       3.3464150     0.027993461
       2412.0000       290.10566       98743.120       12076.049     -0.14575000       2.2130000    -0.027000000       341.56600       3.5472432     0.019058524
       2417.0000       290.00945       98742.723       12045.715     -0.59000000       1.7642500     -0.20375000       341.96800       3.6580633     0.024209502
       2422.0000       289.97677       98741.165       12040.655     -0.59125000       1.4907500     0.084500010       341.42700       6.7312674     0.039923674
       2427.0000       289.98737       98718.327       12103.265     -0.28225000       1.1777500      0.10800000       342.16100       5.2219811     0.029517484
       2432.0000       290.00123       98716.059       12113.847     -0.31800000       1.7597500    -0.089750010       342.65600       4.1025058     0.021628240
       2437.0000       290.01234       98731.662       12070.119      0.77350000       1.4120000      0.14975000       343.07200       4.8732266     0.024314916
       2442.0000       290.05953       98737.606       12076.797     -0.19725000       1.1807500    -0.019250000       343.04900       5.0585591     0.029899591
       2447.0000       290.18239       98748.732       12092.380      0.26950000       2.1895000     -0.33450000       341.99000       7.6135323     0.065865197
       2453.0000       290.23022       98754.096       12123.098     -0.14175000       1.7547500     -0.18250000       342.47900       3.0136959     0.020991230
       2458.0000       290.25586       98749.145       12187.899     -0.85575000       1.6542500      0.16550000       342.73000       6.1580771     0.040595209
       2463.0000       290.26382       98750.792       12229.947     -0.79600010       2.2085000    -0.085750010       342.52900       4.1980832     0.026089849
       2468.0000       290.21192       98754.657       12268.022      -1.2762500       2.8680000    -0.019000000       342.31200       4.2744997     0.023258204
       2473.0000       290.18176       98756.677       12292.874      -1.3840000       3.6585000     -0.10200000       341.36200       2.7422627     0.022756111
       2478.0000       290.19179       98760.171       12343.150      -1.2310000       2.8922500    -0.068500000       341.38400       4.0713525     0.027788499
       2483.0000       290.12365       98761.524       12312.781     -0.85775010       2.1330000     -0.20425000       341.67600       3.1178643     0.032071824
       2488.0000       289.97704       98761.454       12216.570     -0.65375000       3.0415000    -0.066500000       341.42200       3.4473626     0.023618555
       2493.0000       289.90307       98759.793       12155.782      -1.0375000       2.4880000     -0.26950000       341.54500       5.0103074     0.035727301
       2498.0000       289.81417       98756.055       12060.351      -1.1357500       1.9215000     -0.56175010       341.84800       4.3658613     0.028559497
       2503.0000       289.75628       98754.068       11981.939     -0.41900000       1.6345000      0.48400000       342.76300       5.0582538     0.022821477
       2508.0000       289.75707       98750.398       11921.683     -0.75700000       1.0802500     -0.24100000       342.59300       5.2023991     0.020380566
       2513.0000       289.73702       98749.056       11871.610      -1.0025000       2.6465000     -0.14175000       341.92600       4.1704274     0.025150354
       2518.0000       289.67810       98753.714       11779.652     -0.27600000       2.0132500     -0.12225000       342.66600       2.3131699     0.017614571
       2523.0000       289.69682       98748.884       11781.034     -0.30475000       1.6905000      0.24925000       342.51700       3.3183057     0.021508314
       2528.0000       289.79486       98737.820       11872.782     -0.86625000       1.7962500     0.089250010       342.31800       3.8588997     0.027246754
       2533.0000       289.81848       98731.938       11906.106      -1.1882500       1.6922500     -0.59900000       341.71700       3.2225286     0.027455151
       2538.0000       289.85762       98720.577       11971.725      -1.5352500       1.7042500     -0.23875000       341.86800       2.2862969     0.022035457
       2544.0000       289.86333       98716.117       12005.232      -1.1122500      0.88425000    -0.080000010       341.42200       3.4097882     0.031388901
       2549.0000       289.78932       98719.373       11970.028      -1.9160000       1.7382500      0.86800000       342.33000       4.3756385     0.033041408
       2554.0000       289.79708       98721.273       12008.917     -0.53175000       1.4247500     -0.25400000       341.90300       2.4090238     0.032061011
       2559.0000       289.84641       98723.269       12085.820     -0.79650000       1.4235000      0.10825000       341.90600       4.0347137     0.020374891
       2564.0000       289.86635       98729.023       12132.207      -1.3832500      0.63275000      0.15325000       342.86100       2.8083223     0.020119166
       2569.0000       289.88511       98739.101       12193.672     -0.60100000       1.2567500     -0.31200000       342.66100       2.6683026     0.028893395
       2574.0000       289.93338       98746.106       12242.292     -0.55625000       2.5695000     -0.35525000       342.45700       3.5808388     0.021390100
       2579.0000       290.00010       98755.565       12282.021     -0.34975000       3.4392500     -0.74925010       342.22400       3.9210663     0.022640204
       2584.0000       290.02158       98759.832       12290.999     -0.40175000       2.5470000    -0.014750000       341.74100       2.8883086     0.024221836
       2589.0000       290.04205       98761.556       12282.615      0.17075000       2.6382500     -0.23950000       342.34800       2.4599242     0.025436549
       2594.0000       290.08251       98760.837       12298.532     -0.23300000       2.6205000     -0.10125000       342.08700       3.1068411     0.020553900
       2599.0000       290.09926       98757.360       12292.113     -0.53875010       1.9460000      0.54775010       342.71900       3.4218489     0.028868731
       2604.0000       290.10921       98751.631       12297.898     -0.95375010      0.79925010      0.87650010       343.05000       4.0187752     0.037387135
       2609.0000       290.16949       98741.639       12358.801     -0.19775000       2.8262500    0.0022500000       342.59700       2.5617808     0.031888694
       2614.0000       290.15334       98734.705       12331.627       1.3450000       3.6440000     -0.11000000       342.45000       3.9153655     0.029700407
       2619.0000       290.03329       98725.095       12224.346      0.91575000       2.5657500     -0.34175000       341.70600       2.5642491     0.033321672
       2624.0000       290.03919       98720.848       12210.525      0.67025010       1.7252500      0.33500000       341.98500       9.3277958      0.11834092
       2629.0000       290.08766       98717.199       12193.263      0.19600000       1.4092500     0.011750000       342.39300       3.9673462     0.029454825
       2635.0000       290.12453       98723.311       12219.220     -0.17400000       1.2285000      0.33625000       342.90300       2.3912811     0.037370633
       2640.0000       290.21747       98735.290       12317.207      0.35325000       2.8090000     -0.87250010       341.79400       9.7572563      0.18566934
       2645.0000       290.16928       98744.213       12309.120      0.17400000       2.3350000     -0.14525000       342.15300       5.8397766     0.044460755
       2650.0000       290.14893       98751.509       12316.726     -0.95975010       2.4207500       1.0357500       342.91300       3.1681602     0.038032027
       2655.0000       290.12981       98754.878       12325.758       1.2230000       2.1235000      0.38100000       342.55900       4.5015689     0.036403893
       2660.0000       290.09995       98756.025       12318.401      0.64950000       3.6722500     -0.33600000       341.85800       4.2803964     0.033296732
       2665.0000       290.07009       98755.935       12306.257      0.22375000       2.4837500     -0.27725000       342.24700       3.0681560     0.035524477
       2670.0000       290.05752       98758.044       12307.247     -0.63200000       3.0380000     -0.51975000       341.40200       3.1572557     0.034255411
       2675.0000       290.01572       98750.409       12270.008     0.072250000       2.1602500     -0.25450000       341.43900       4.0214787     0.023004507
       2680.0000       289.94414       98736.039       12198.017     -0.31200000       2.1110000    0.0010000000       341.61800       2.9009143     0.034751053
       2685.0000       289.92957       98715.625       12172.469     -0.88275000       2.3925000     -0.31775000       341.43700       3.4153948     0.025941560
       2690.0000       289.89940       98706.857       12126.620     -0.46125000       1.0930000      0.53875010       342.17400       3.3689645     0.021382541
       2695.0000       289.83991       98703.311       12046.898     -0.63950000       2.1615000     -0.15550000       342.14300       2.6011342     0.033983898
       2700.0000       289.83782       98706.647       12017.494     -0.79375000       1.7470000     -0.24600000       341.97500       4.2002819     0.034473302
       2705.0000       289.89023       98729.313       12010.014     -0.48925000       2.2452500     -0.53550000       341.53500       3.8352040     0.022534190
       2710.0000       289.90033       98741.499       11995.159     -0.26400000       1.9260000     -0.19000000       341.92300       2.6823437     0.032012463
       2715.0000       289.91047       98751.227       11995.238    -0.085750010       2.3840000     -0.43575000       342.22600       4.4882456     0.024372301
       2720.0000       289.96337       98763.678       12040.348     -0.10875000       1.1572500     -0.14975000       342.61100       4.0836134     0.035462454
       2726.0000       289.92412       98761.114       12047.075     -0.22600000       1.1327500     -0.61325000       342.66400       3.2616312     0.036514377
       2731.0000       289.89371       98755.692       12058.770      0.86200000       1.7205000    -0.059000000       342.81300       6.8634305     0.048519147
       2736.0000       289.87972       98740.922       12106.343       1.6680000       1.1315000     -0.11375000       342.01700       4.3633339     0.020943495
       2741.0000       289.84861       98732.980       12122.431      0.85150000       1.2142500    -0.020000000       342.28800       6.1254120     0.056925735
       2746.0000       289.74741       98718.892       12093.229       1.2490000       1.2902500      0.12575000       341.56500       4.4958568     0.024803476
       2751.0000       289.73160       98716.678       12102.767      0.88125000       1.0435000     -0.18400000       341.78400       5.3262566     0.045431104
       2756.0000       289.77599       98728.809       12132.885      0.46225000       1.1762500     -0.26275000       341.83900       5.3693042     0.054939305
       2761.0000       289.79729       98735.919       12143.598      0.62700000       1.0022500     0.049000000       341.93500       6.7960574     0.060565443
       2766.0000       289.87959       98752.100       12173.269     0.083500010      0.80050000    -0.046500000       342.54100       2.5374110     0.037951861
       2771.0000       289.91718       98758.631       12186.500     -0.19625000      0.95000000     0.034500000       342.30000       2.5215347     0.035940645
       2776.0000       289.87225       98760.001       12143.027     0.070250000      0.34675000      0.13200000       342.37300       5.7667446     0.051493209
       2781.0000       289.89486       98756.500       12151.426     -0.26625000      0.70750000    -0.020750000       342.41400       3.3885218     0.033184153
       2786.0000       289.95469       98741.084       12196.556     -0.76350000      0.65600000      0.24875000       341.90800       7.8571500      0.10797115
       2791.0000       290.00575       98733.341       12233.654     -0.66475000       1.5720000     0.096000000       342.18000       2.9621455     0.036901610
       2796.0000       290.08560       98718.939       12291.159     -0.72275000       2.1905000     0.076500010       342.08200       4.1370101     0.034085807
       2801.0000       290.16492       98716.666       12350.439     -0.20400000       2.1770000     -0.18425000       341.94500       2.6778838     0.033658193
       2806.0000       290.25659       98728.695       12402.674     -0.79725000      0.83775000     -0.20125000       342.58200       3.4457927     0.022885042
       2812.0000       290.32575       98737.398       12478.199     -0.85625000      0.74925010     -0.40875000       342.48100       5.2418616     0.047919844
       2817.0000       290.38946       98756.265       12569.998     -0.47800000       2.2277500     -0.51525000       342.14800       4.3870784     0.035182112
       2822.0000       290.42258       98759.066       12636.404     -0.77900000       2.3720000      0.17800000       342.45000       4.8314875     0.036261844
       2827.0000       290.37406       98749.572       12687.471      0.41000000       1.3827500      0.67975000       342.77700       5.2749385     0.053702003
       2832.0000       290.40115       98743.887       12744.798      0.56300000       3.0490000     -0.34600000       342.75800       4.8433685     0.044047841
       2837.0000       290.48933       98724.118       12838.696      0.55600010       1.1760000      0.20575000       343.19200       4.5012815     0.042341263
       2842.0000       290.51543       98721.425       12843.132      0.70675000       2.9215000     -0.12175000       342.83600       2.9647989     0.037055314
       2847.0000       290.55276       98730.732       12795.886       1.0455000       2.3410000     -0.27675000       342.51300       4.0547045     0.031409026
       2852.0000       290.56472       98736.571       12756.440      0.70225000       1.6005000      0.12150000       342.86400       4.1339096     0.040387174
       2857.0000       290.51758       98753.808       12648.708      0.65725000       2.3072500    -0.033250000       342.64500       3.4798603     0.036275222
       2862.0000       290.48710       98759.335       12569.782     -0.47275000       2.1895000      0.19625000       342.80100       4.8948805     0.044526447
       2867.0000       290.47395       98759.703       12523.672      0.60075000       2.0467500      0.13650000       342.50400       2.3079773     0.037445698
       2872.0000       290.44010       98755.196       12458.039     -0.53275000       3.5127500    -0.076000010       341.97600       3.6516739     0.037862014
       2877.0000       290.36611       98738.003       12353.779      0.63750000       3.2985000     -0.78025000       341.85900       3.9379541     0.049457426
       2882.0000       290.33004       98731.794       12292.044     -0.57175000       2.2390000     -0.21675000       342.18600       3.8164046     0.037826036
       2887.0000       290.30530       98721.905       12242.480      0.10925000       2.2790000      0.15025000       342.56900       9.8059986      0.18908590
       2892.0000       290.28906       98723.183       12217.155       1.1900000       2.4642500     -0.23325000       342.93700       4.3945308     0.037596266
       2897.0000       290.30011       98742.298       12216.301    -0.067500000       2.3542500      0.38750000       342.78800       4.4034135     0.042484476
       2903.0000       290.30011       98749.499       12236.346      0.59975000       4.1525000    -0.062000000       342.56400       2.7570069     0.035580203
       2908.0000       290.28945       98758.857       12287.231      0.26300000       1.8897500      0.22675000       342.75600       5.1339033     0.046207724
       2913.0000       290.30593       98756.039       12323.265      0.96200010       1.8635000     -0.33550000       342.42500       3.0628160     0.034786298
       2918.0000       290.33122       98737.380       12377.854      0.89475010       1.9855000    0.0022500000       342.80200       3.0828964     0.023441862
       2923.0000       290.36726       98729.973       12407.724     0.015500000       3.1982500      0.24775000       343.07300       3.8863613     0.038148001
       2928.0000       290.44151       98716.025       12403.872      0.53950000       1.9720000      0.66750000       342.38700       2.9702646     0.026005788
       2933.0000       290.47493       98718.347       12444.904      0.88525000       1.5587500     -0.16875000       342.02300       4.7426462     0.035959585
       2938.0000       290.54600       98737.994       12529.287       1.3695000       1.4080000      0.21050000       342.31900       3.9820620     0.038544827
       2943.0000       290.49354       98744.413       12539.093       2.0125000       2.1992500     -0.26500000       341.73100       3.9448248     0.039087633
       2948.0000       290.35449       98761.097       12562.334       1.1945000      0.30825000     -0.66125010       342.34400       2.9968013     0.035546903
       2953.0000       290.24188       98756.384       12516.173       1.3400000       1.4065000     -0.57650000       341.74900       7.3256419     0.091357813
       2958.0000       289.99419       98723.329       12334.386       1.2285000      0.90775010      0.50500000       342.47500       6.8954132     0.082976965
       2963.0000       289.93114       98719.985       12285.812       1.0107500       1.9047500     -0.55675000       341.83000       3.4565041     0.046385604
       2968.0000       289.96334       98720.622       12273.562      0.15450000       2.0150000      0.10750000       342.79900       2.8591313     0.040071416
       2973.0000       290.00829       98725.408       12266.594       1.0907500       1.1610000     -0.21025000       342.02100       4.2460864     0.040940255
       2978.0000       290.17069       98757.332       12322.469       1.1697500       2.7427500      0.20400000       342.30100       3.2890847     0.046306646
       2983.0000       290.25375       98761.316       12353.344      0.45125000       3.7745000     -0.76850000       342.14100       2.3440526     0.036442539
       2988.0000       290.36335       98749.122       12381.647      0.96675000       2.9402500      0.31300000       342.25000       3.8784777     0.043351625
       2994.0000       290.37514       98741.257       12394.270       1.3277500       3.0295000     -0.13125000       342.04100       3.0512008     0.037297813
       2999.0000       290.31089       98722.058       12415.029      0.96100000       1.9712500      0.29150000       342.37800       2.5267304     0.044032277
       3004.0000       290.28224       98722.171       12411.068       2.7752500       3.0337500    -0.033250000       341.86400       3.3630945     0.035188979
       3009.0000       290.21098       98736.619       12378.252       1.8507500       2.4707500     -0.24700000       341.99900       8.5479109      0.11898110
       3014.0000       290.15077       98735.890       12341.801      0.49025000       2.0027500     -0.29075000       342.40800       5.1010442     0.051107883
       3019.0000       290.09912       98736.526       12282.603      0.99100010       1.4185000     -0.12125000       341.78700       3.2996812     0.037890554
       3024.0000       290.07805       98735.741       12275.262      0.25325000       2.5507500      0.19625000       342.22800       4.2596119     0.048726586
       3029.0000       290.03013       98723.882       12267.252      0.95875010       2.5640000      0.10725000       341.98100       3.7530034     0.041131277
       3034.0000       290.04736       98722.561       12283.672      0.41350000       2.1035000     -0.32200000       341.80900       5.3207484     0.055197781
       3039.0000       290.14003       98727.930       12346.917      0.47950000       2.3185000     -0.18150000       341.60100       4.0254890     0.041803039
       3044.0000       290.19045       98734.772       12397.830       1.2705000       1.7740000     -0.32150000       341.95800       5.7490806     0.069655604
       3049.0000       290.25028       98745.283       12454.793      0.93975000       1.4955000      0.20825000       342.58100       6.3971626     0.079710050
       3054.0000       290.28158       98749.412       12487.127      0.41700000       1.4427500     -0.18925000       342.18400       6.2246990     0.072718330
       3059.0000       290.29397       98759.321       12518.401      0.59500000       1.0497500      0.23650000       342.16400       6.3210651     0.082146683
       3064.0000       290.32378       98755.122       12559.266      0.64550000       1.1785000      0.15075000       342.05200       3.5517363     0.035254823
       3069.0000       290.35505       98733.600       12593.906      0.83025000       1.4860000      0.15475000       342.04300       3.9560424     0.045487497
       3074.0000       290.35635       98732.066       12597.470      0.39025000       1.8052500     0.079750000       342.07100       4.2685262     0.026091228
       3079.0000       290.35840       98732.834       12612.021      0.61150000       1.6327500     -0.18825000       342.46700       4.6411342     0.052491943
       3085.0000       290.34620       98736.505       12594.111      0.20300000      0.99150000      0.40225000       343.04800       7.1358661      0.12397057
       3090.0000       290.30020       98753.866       12523.820      0.55400000      0.98825000     0.099250000       342.50200       3.4518798     0.044277604
       3095.0000       290.26983       98736.781       12502.933       1.2502500       1.6140000     -0.20375000       342.41500       4.8341406     0.049577016
       3100.0000       290.24968       98733.302       12479.406     0.045250000       2.0892500       1.1347500       342.70300       2.7734728     0.042426623
       3105.0000       290.19965       98732.173       12432.203       1.3922500       2.9395000     -0.22325000       341.79800       3.7120145     0.050172262
       3110.0000       290.18729       98732.671       12410.768       1.1537500       2.7075000      0.16800000       342.23700       2.9667686     0.042588872
       3115.0000       290.19958       98738.085       12403.372      0.81075010       2.7030000     -0.42475000       342.52400       3.7697971     0.046241340
       3120.0000       290.24272       98759.615       12412.918      0.18200000       2.1027500      0.22250000       341.97400       3.8594213     0.046342235
       3125.0000       290.28451       98755.564       12413.173      0.95025000       1.1262500     -0.26250000       342.43500       3.1568742     0.044179179
       3130.0000       290.35642       98739.098       12428.126       1.4130000       1.2827500     -0.17850000       342.11600       5.4153880     0.061615972
       3135.0000       290.37036       98733.890       12382.353       1.2100000       1.3245000     -0.17350000       342.32800       4.9677055     0.057761286
       3140.0000       290.40053       98732.206       12398.693      0.29875000       1.0982500      0.10125000       342.89800       4.5794819     0.053156508
       3145.0000       290.43012       98755.035       12455.278      0.32600000       1.1072500      0.32150000       342.81500       4.5673975     0.041559148
       3150.0000       290.44977       98759.816       12520.998     -0.75225000       1.2567500       1.1187500       342.90400       4.4483401     0.057566345
       3155.0000       290.48470       98742.155       12679.733      0.24425000       2.2947500      0.19775000       341.99800       3.5971022     0.044993698
       3160.0000       290.50574       98738.858       12774.680       1.1582500       1.0225000      0.57850000       342.92000       2.8755846     0.043715545
       3165.0000       290.51449       98738.019       12841.688       2.1780000       1.1505000     0.083000000       341.81900       4.4527743     0.047305476
       3170.0000       290.50648       98731.974       12907.274       1.3930000       1.0465000     -0.19100000       341.93400       3.7801196     0.045605945
       3176.0000       290.45216       98754.803       12774.800      0.85975000      0.48100000    -0.055500000       342.47200       5.0472806     0.058738584
       3181.0000       290.44352       98759.123       12727.622       1.2850000      0.45375000      0.11225000       342.69800       5.0175580     0.057120853
       3186.0000       290.45803       98748.878       12653.795      0.90750000       1.0112500    -0.024250000       342.21600       4.5790393     0.050230384
       3191.0000       290.44799       98744.701       12605.272       1.0465000       1.2132500     -0.30250000       341.97600       6.0190442     0.071130608
       3196.0000       290.47074       98728.888       12665.691      0.82125000       1.1032500     -0.29250000       341.79200       5.3107042     0.061343100
       3201.0000       290.45844       98726.636       12640.204      0.70650010      0.94625000     -0.22950000       341.73100       6.2819147     0.076870888
       3206.0000       290.34750       98749.165       12511.230      0.63225000      0.93825010     -0.19925000       342.21000       6.6490048      0.10267404
       3211.0000       290.33199       98748.370       12469.536      0.24725000      0.69700000      0.13775000       342.55200       2.4775715     0.045103324
       3216.0000       290.43379       98732.459       12466.331      0.42600000      0.96975000     -0.25300000       342.87500       4.1386450     0.042164555
       3221.0000       290.40914       98729.416       12425.902      0.28900000       1.4435000     -0.23550000       342.13300       3.1877477     0.041016734
       3226.0000       290.35616       98713.620       12429.050      0.50450000       2.3712500     -0.12650000       342.69600       5.1773317     0.046152775
       3231.0000       290.30218       98710.570       12403.418      0.72325000       1.4565000     -0.10200000       342.04800       4.2782333     0.053021954
       3236.0000       290.08930       98738.631       12284.013      0.41850000       1.8275000     -0.47825000       342.12200       4.4102207     0.053780234
       3241.0000       290.00688       98744.795       12235.974       1.2107500       1.0930000     -0.12925000       342.03500       5.2328566     0.065149480
       3246.0000       290.02965       98733.819       12232.511      0.50775000       1.2845000     0.010250000       342.19800       2.6985092     0.041870843
       3251.0000       290.04205       98734.924       12231.973      0.90075000       2.6277500     -0.37050000       342.03600       5.3191684     0.059939841
       3256.0000       290.09396       98736.199       12236.060      0.42575000       2.1975000     -0.25475000       342.02500       4.2801871     0.051992601
       3261.0000       290.15533       98734.372       12284.416      0.11100000       1.4607500     -0.22725000       342.47800       6.8666730      0.11146896
       3267.0000       290.28331       98742.241       12411.441     -0.65625010       1.3625000     -0.49200000       342.40000       4.2546637     0.040365639
       3272.0000       290.32624       98741.785       12474.023     -0.40600000      0.83650000      0.79150000       343.36200       4.4593973     0.054635176
       3277.0000       290.37692       98722.120       12580.075     -0.95600000       2.1812500     0.089500000       342.39400       4.4706153     0.060025078
       3282.0000       290.36245       98722.207       12609.951     -0.36400000       1.8952500      0.43275000       342.45900       5.1436513     0.069795775
       3287.0000       290.22879       98741.219       12548.129     -0.99175010       3.0827500     -0.15975000       342.44200       2.7925852     0.046514890
       3292.0000       290.17295       98742.091       12519.861      0.20050000       2.4587500     -0.56500000       342.44000       3.7818727     0.052825378
       3297.0000       290.11026       98739.357       12466.695     -0.43050000       2.3375000      0.34600000       342.82100       4.9807342     0.066615281
       3302.0000       290.07829       98741.917       12432.815      0.31650000       2.2445000      0.17375000       342.72700       2.8952568     0.035176739
       3307.0000       290.07511       98733.985       12402.352      0.53450000       2.4660000      0.15875000       342.96100       4.4759090     0.072094745
       3312.0000       290.10322       98733.536       12390.188      0.65125000       2.3265000      0.19875000       342.53500       3.4247779     0.051478559
       3317.0000       290.17781       98752.673       12403.775      0.61250000       1.4357500     0.092500000       342.62100       4.2816320     0.056154975
       3322.0000       290.21824       98753.476       12393.832     -0.36300000       2.7870000    -0.048250000       342.61700       3.4387681     0.048079386
       3327.0000       290.32926       98733.856       12399.062    -0.018750000       2.8212500     -0.21950000       341.71300       5.8820134     0.085445690
       3332.0000       290.32010       98733.497       12372.930     0.040250000       3.2752500      0.17700000       341.69700       4.0299068     0.053903518
       3337.0000       290.19934       98742.316       12307.866     -0.23250000       2.1430000     -0.18725000       342.12800       2.8264281     0.042103359
       3342.0000       290.12624       98740.015       12258.717     -0.34425000       1.7067500      0.19500000       342.55200       2.6835962     0.053843756
       3347.0000       289.97819       98739.331       12188.736      0.31725000       1.7667500    -0.011750000       342.34200       3.3306887     0.051547526
       3352.0000       289.90967       98741.902       12150.102      0.17775000       1.2300000  -0.00075000000       342.55100       3.1449320     0.052398509
       3358.0000       289.90160       98733.509       12119.042      0.28275000       1.3940000      0.16125000       342.69600       3.4077094     0.057362718
       3363.0000       289.88786       98734.025       12111.992      0.89725010       1.4122500      0.11325000       343.05700       10.508334      0.22058775
       3368.0000       289.88881       98753.414       12132.003      0.98675010       1.4605000     -0.27950000       343.22700       2.4184552     0.047523369
       3373.0000       289.90495       98752.764       12146.266       1.3045000       2.2312500      0.27775000       342.10000       8.6914085      0.14845246
       3378.0000       289.89713       98734.354       12139.997      0.70325010       2.6792500   -0.0077500000       342.07500       3.6042320     0.055814603
       3383.0000       289.98145       98733.229       12206.853      0.70725010       1.6295000    -0.014750000       342.22400       2.9019300     0.042504154
       3388.0000       290.16403       98736.309       12318.680      0.95600000       1.2387500     -0.14450000       342.60400       3.9900480     0.058821005
       3393.0000       290.25813       98733.371       12418.951       1.0002500       1.1405000     -0.24650000       342.86200       4.6868081     0.066372258
       3398.0000       290.41784       98736.392       12620.271      0.78850000       1.9315000    -0.054750000       342.77800       3.9813986     0.065962303
       3403.0000       290.44039       98736.175       12674.275     -0.66500000       2.7007500     0.046250000       343.26000       3.7907094     0.053824218
       3408.0000       290.31401       98724.696       12627.371     0.080750000       2.2725000      0.14000000       342.71200       6.5129307     0.086475359
       3413.0000       290.27374       98722.554       12624.131       1.0255000       2.1147500     -0.61425000       342.93600       3.4802817     0.074825097
       3418.0000       290.20124       98730.187       12569.091    -0.071750000       1.0325000    -0.085250010       343.41300       4.3230906     0.065089580
       3423.0000       290.17424       98731.530       12538.822       1.1195000       1.9290000     -0.57475000       342.48600       3.3845885     0.061446392
       3428.0000       290.19989       98726.960       12544.713      0.15900000       2.9097500      0.21750000       342.56900       6.6629719     0.098482294
       3433.0000       290.19978       98731.775       12519.834      0.90675000       1.9467500     0.010250000       342.74900       3.7120603     0.045611240
       3438.0000       290.17727       98749.749       12443.994     0.041750000       2.3887500      0.87875000       343.16100       2.7488796     0.066020019
       3444.0000       290.22004       98744.358       12432.051    0.0072500000       3.5242500      0.12150000       342.55500       2.8248720     0.036777695
       3449.0000       290.28365       98728.338       12445.138     -0.17575000       2.9712500     -0.35175000       341.98000       2.7564000     0.047250800
       3454.0000       290.34292       98731.088       12472.688    -0.061250000       2.4385000     0.045500000       342.21500       4.0008059     0.050528440
       3459.0000       290.43528       98729.910       12530.525     -0.31625000       2.4125000      0.59225000       342.64300       4.4988080     0.082279526
       3464.0000       290.51531       98727.613       12593.735      0.44750000       2.3847500      0.16675000       342.54500       4.3621230     0.057261139
       3469.0000       290.60398       98740.876       12698.387      0.98025010       1.6742500     -0.36100000       342.26900       7.2400266      0.10118614
       3474.0000       290.63621       98745.142       12715.060       1.6167500       2.7900000     -0.80500010       341.99500       2.9181793     0.072879006
       3479.0000       290.66121       98734.439       12709.977       1.2327500       2.1297500     -0.25850000       341.61900       3.9244965     0.065830509
       3484.0000       290.66315       98732.263       12701.292       1.5452500       3.0292500     -0.14225000       342.59800       3.5119877     0.059579117
       3489.0000       290.58007       98741.822       12602.947      0.91250000       2.2277500     -0.27175000       342.66600       2.8638029     0.052552077
       3494.0000       290.60663       98741.209       12627.076      0.26350000       2.1902500    -0.029750000       341.99300       2.8459466     0.051356473
       3499.0000       290.70254       98727.747       12735.685      0.14425000       2.9575000     -0.48325000       342.21600       5.6137350     0.072531634
       3504.0000       290.72374       98729.202       12775.187      0.50925000       1.2822500     -0.45325000       342.14700       3.5681052     0.034365297
       3509.0000       290.76015       98742.111       12843.775    -0.049000000       1.6467500     -0.13925000       342.18400       6.9036870      0.10288640
       3514.0000       290.76244       98740.422       12851.253      0.46675000       2.4470000    -0.021000000       342.63100       5.2633364     0.060753285
       3519.0000       290.70682       98734.309       12810.456    -0.073500000       1.9517500      0.35550000       342.63800       3.0176299     0.061832843
       3524.0000       290.67737       98736.110       12761.565      0.22850000       1.7705000      0.43400000       342.74200       8.5889481      0.11952165
       3529.0000       290.67394       98737.597       12683.469     -0.31100000       2.2187500    -0.068250000       342.28800       4.1069577     0.058026075
       3535.0000       290.60108       98729.116       12608.170       1.2287500     0.087000000      0.68250000       343.38800       5.6654123     0.082478470
       3540.0000       290.49985       98723.970       12526.777       1.3977500       1.0387500       1.0032500       343.16200       4.8878064     0.072441051
       3545.0000       290.39956       98730.433       12442.035       1.5232500       2.3620000     -0.21675000       342.19600       4.3517728     0.070590380
       3550.0000       290.33621       98725.509       12381.358       1.2210000       2.1772500      0.65400000       343.27600       3.5133467     0.056814731
       3555.0000       290.27009       98720.231       12275.959      0.66675000       3.6420000     -0.20075000       341.81900       4.3024742     0.070417095
       3560.0000       290.27531       98725.115       12250.092      0.72375010       2.5872500     -0.34725000       342.38600       3.2675749     0.057398685
       3565.0000       290.32970       98729.984       12275.308      0.75725000       2.5182500     -0.33675000       342.63100       7.1062856      0.10937160
       3570.0000       290.44172       98723.807       12363.590     -0.20050000       1.7910000    -0.075000000       342.72500       7.1794159     0.097055545
       3575.0000       290.52426       98723.195       12430.101     0.095750000       2.9317500      0.18275000       342.46700       4.9302276     0.070049654
       3580.0000       290.67342       98737.687       12547.424      0.92200010       1.3082500      0.13850000       342.95900       3.1776463     0.051850285
       3585.0000       290.66912       98724.689       12611.877      0.77100000       2.5885000     -0.14950000       342.27600       4.2247677     0.058275777
       3590.0000       290.66158       98721.959       12671.307       1.6725000       2.5420000     -0.15475000       342.45800       4.2865477     0.057822710
       3595.0000       290.58411       98734.978       12741.429      0.86875000       1.5720000     -0.26875000       342.43500       4.0221564     0.041193661
       3600.0000       290.54326       98741.057       12789.464      0.47050000       1.7960000      0.57525000       342.76700       6.0064158     0.067435807
       3605.0000       290.53017       98747.365       12846.987       1.3500000       1.7910000     -0.13475000       341.70300       3.4098512     0.035604774
       3610.0000       290.50054       98751.633       12850.301      0.67750000       2.5315000     -0.16375000       342.26000       6.9290068     0.087019089
       3615.0000       290.47091       98753.430       12818.492      0.68650000       1.6582500      0.20475000       342.71000       3.0977178     0.040108819
       3620.0000       290.45134       98752.266       12749.832       1.6880000       2.6662500     0.013750000       342.58500       3.3276103     0.041686114
       3626.0000       290.42444       98735.801       12643.088      0.90400000       2.8492500     0.049750000       342.66800       6.2669395     0.082607445
       3631.0000       290.39420       98733.164       12570.610       1.0165000       2.5842500    -0.067250010       342.20400       5.7016673     0.065895811
       3636.0000       290.36539       98737.694       12510.860       1.9350000       1.8372500     -0.56925000       342.41500       3.0936793     0.033432712
       3641.0000       290.34535       98734.700       12463.059       1.5832500       1.6960000     -0.23475000       341.93100       4.6976977     0.046062278
       3646.0000       290.30946       98732.926       12411.673       1.1375000       2.8877500     0.016000000       341.74500       3.4771947     0.052284367
       3651.0000       290.29089       98735.889       12383.210       1.0047500       2.1120000     -0.48075000       342.08700       4.2879163     0.062456472
       3656.0000       290.30011       98740.447       12377.224       1.5965000       1.0945000      0.14000000       342.63700       4.3315746     0.043799842
       3661.0000       290.30011       98735.120       12381.369      0.83375010      0.98625000     0.046000000       343.01500       5.9842337     0.083660086
       3666.0000       290.32835       98723.114       12433.518       1.7610000       1.7715000     -0.36000000       342.53600       3.3460385     0.046659617
       3671.0000       290.30570       98724.431       12436.014      0.90200010       1.9475000     -0.12225000       342.94700       5.3907036     0.058073502
       3676.0000       290.24517       98726.696       12408.757       1.2385000       1.5702500     -0.57475000       342.31400       4.8203543     0.041727199
       3681.0000       290.19380       98723.998       12399.136       1.7567500       1.9292500     -0.22875000       342.68800       6.0072507     0.073265903
       3686.0000       290.06999       98729.662       12348.929       2.4090000       1.8580000     -0.17025000       342.77500       4.0579241     0.061785204
       3691.0000       290.02431       98737.485       12336.683       1.4470000       1.3757500      0.25975000       342.87700       4.1402379     0.049197839
       3696.0000       290.04382       98742.559       12373.702       2.4122500       2.8740000     0.014250000       342.08500       4.4699223     0.059979240
       3701.0000       290.04488       98740.446       12391.710       2.0360000       2.3552500      0.63150000       342.49600       3.7214313     0.052769015
       3706.0000       290.06098       98737.267       12398.983       2.8520000       2.2130000     -0.15275000       342.00400       5.5354863     0.087092609
       3711.0000       290.10232       98741.268       12429.433       1.5950000       1.0082500      0.50775000       342.95300       3.6182171     0.022338413
       3717.0000       290.16307       98742.785       12484.759       2.5867500       1.9822500     -0.33300000       341.90600       6.4797510     0.084339560
       3722.0000       290.21697       98738.736       12522.227       2.6307500       1.1850000      0.14200000       341.91900       5.4917250     0.075750529
       3727.0000       290.29047       98737.795       12543.371       1.9200000       1.7972500  -0.00075000000       342.73200       3.9858135     0.058849366
       3732.0000       290.38438       98741.767       12620.853       2.6042500       1.5597500    -0.019000000       342.24200       5.5463003     0.071076717
       3737.0000       290.53493       98742.589       12758.340       1.9165000       1.5732500     -0.27600000       341.96200       4.1539106     0.062749223
       3742.0000       290.58309       98738.641       12823.395       1.9950000       1.1247500     -0.13600000       342.14700       5.1929456     0.058185285
       3747.0000       290.62443       98739.334       12933.655      0.52550000      0.92950000     0.085750010       342.63300       5.4070860     0.068020508
       3752.0000       290.61864       98741.913       12958.932      0.66825000      0.88650010     -0.49200000       342.23400       4.8639990     0.072111205
       3757.0000       290.44702       98737.733       12842.401      0.72950010       1.0840000    -0.060750000       342.61400       3.3731014     0.070065968
       3762.0000       290.42214       98733.093       12817.577      0.89850000      0.37500000      0.18800000       342.81100       5.6561621     0.079546133
       3767.0000       290.49483       98733.309       12835.203       1.1197500      0.94825010     -0.40875000       342.27600       3.2320845     0.066827908
       3772.0000       290.50491       98736.296       12804.937       1.3102500       1.7460000     -0.57050000       342.18800       4.7815628     0.063308699
       3777.0000       290.52694       98737.171       12765.195       1.3130000       1.7102500     -0.14375000       342.47100       2.9844519     0.065756583
       3782.0000       290.56676       98734.226       12744.048      0.56125000      0.83925000    -0.029000000       342.84900       3.3491214     0.072142986
       3787.0000       290.58102       98733.433       12686.046      0.96375010       1.3877500     -0.21675000       343.69700       4.3208622     0.056198870
       3792.0000       290.60443       98736.395       12660.427       1.3867500       1.5195000    -0.032250000       342.62900       5.9870078     0.090261212
       3797.0000       290.71715       98735.728       12701.120       1.3310000       1.9890000     -0.22150000       343.09100       5.5327182     0.073330548
       3802.0000       290.72187       98734.165       12689.394       1.6730000       1.7270000      0.60125010       342.76200       3.1846573     0.059330765
       3808.0000       290.61644       98741.588       12634.197     -0.25875000       2.0877500     -0.58275000       342.25800       4.1561535     0.069186892
       3813.0000       290.57644       98741.798       12611.450    -0.068750000       1.8892500     -0.12100000       342.54200       4.6436428     0.040430601
       3818.0000       290.51241       98728.155       12578.190     -0.16750000      0.47575000      0.87375000       343.79100       3.8506419     0.044864354
       3823.0000       290.46842       98728.574       12564.567    -0.013250000       1.3425000      0.23425000       342.29100       4.0478374     0.074139564
       3828.0000       290.44696       98740.892       12563.349    -0.042750000       1.0827500     0.094750000       342.62500       4.7523963     0.066489984
       3833.0000       290.44334       98741.627       12583.216    -0.076750000       1.9550000     -0.50200000       342.28600       3.6919820     0.065766881
       3838.0000       290.43033       98739.481       12620.958     -0.63425000       2.3202500     -0.14625000       342.93600       3.2580015     0.062512085
       3843.0000       290.45354       98741.452       12655.484     -0.20500000       1.2527500     0.036000000       343.33900       4.0562441     0.057045838
       3848.0000       290.54116       98742.283       12721.505     -0.34650000       1.0992500    -0.040000000       343.57700       3.4427541     0.060354812
       3853.0000       290.57521       98738.654       12754.714     -0.55525000       2.0272500    -0.094000000       342.68600       3.1344230     0.069306359
       3858.0000       290.57777       98733.978       12749.775     -0.88425000       2.4190000     -0.24150000       341.73200       4.4480366     0.063988884
       3863.0000       290.62423       98735.593       12792.167     -0.58300000       1.3062500      0.31675000       342.59100       3.6824153     0.059370318
       3868.0000       290.70682       98738.846       12873.037     -0.21575000       2.8030000     -0.48175000       341.74200       4.1565038     0.064937610
       3873.0000       290.71409       98732.688       12893.566     -0.74175010       2.2180000      0.14025000       342.05200       3.9067381     0.062261281
       3878.0000       290.71509       98722.262       12927.945     -0.76425000       1.6125000      0.22700000       341.85200       3.9162176     0.062419263
       3883.0000       290.70319       98726.070       12912.054      -1.0765000       2.0837500     -0.33100000       341.84000       3.8316028     0.056373130
       3888.0000       290.60114       98732.295       12812.131     -0.78650000       2.0907500      0.12425000       341.92900       3.5731684     0.075891342
       3893.0000       290.57361       98727.658       12761.453    -0.096250010       2.1535000    -0.022750000       342.05400       4.0017691     0.055633565
       3899.0000       290.60037       98729.941       12698.883    -0.066750000       2.0302500     -0.23050000       342.55000       3.7312628     0.061972731
       3904.0000       290.60055       98734.191       12673.927     -0.27250000       1.4270000      0.46975000       343.08000       3.8750823     0.063007744
       3909.0000       290.60958       98724.333       12683.063     0.067500000       2.0757500      0.46325000       342.69800       4.3877929     0.060477131
       3914.0000       290.59126       98721.887       12643.978     -0.43225000       2.1890000     -0.54775010       341.96700       5.8094540     0.065907047
       3919.0000       290.55434       98737.153       12597.873     -0.17050000       1.8842500      0.38725000       342.34100       5.1312901     0.062877771
       3924.0000       290.53455       98738.661       12555.934      0.11825000       1.1085000      0.45650000       342.78400       9.4546572      0.16453335
       3929.0000       290.47899       98724.222       12453.590     -0.30025000       2.2160000      0.23775000       342.29300       4.2384812     0.064403505
       3934.0000       290.50628       98723.053       12463.678      0.73650000       2.3727500     -0.20675000       342.05200       3.0205741     0.053382444
       3939.0000       290.58358       98731.327       12533.247      0.79475000       1.3165000    -0.092750010       342.40000       4.6338988     0.073568661
       3944.0000       290.64266       98730.550       12596.209      0.89525000       1.6282500      0.12525000       342.40700       6.4780182     0.094430145
       3949.0000       290.75315       98721.979       12719.897     0.072000000       1.6360000     -0.13400000       342.79600       3.5880256     0.063894655
       3954.0000       290.79558       98727.451       12794.560     0.074000000       2.3250000     -0.35550000       342.79400       5.5302690     0.069714742
       3959.0000       290.79475       98744.005       12841.122      0.80900000       2.6192500     -0.23100000       342.40100       3.4400956     0.067433407
       3964.0000       290.82479       98739.730       12925.829       1.4847500       1.9367500     -0.19775000       342.76600       3.7244074     0.057269282
       3969.0000       290.86423       98728.734       13050.675       1.1532500       3.4912500     -0.13450000       341.85200       3.9477037     0.064797478
       3974.0000       290.84718       98732.500       13079.463      0.20775000       1.5907500      0.47675000       342.47900       5.5444419     0.077860909
       3979.0000       290.82255       98729.487       13096.205       1.2360000       1.7420000      0.77225010       342.98200       6.0199006     0.072599357
       3985.0000       290.76175       98727.291       13063.117       1.9167500       3.5810000     -0.12750000       342.74800       4.0578248     0.058375829
       3990.0000       290.63842       98743.219       12943.039      0.89525000       3.4600000     -0.16050000       343.02900       3.4353904     0.058892625
       3995.0000       290.60024       98729.300       12890.862     -0.10350000       2.4360000     -0.15375000       343.00100       4.2200449     0.057524280
       4000.0000       290.58721       98722.674       12851.188       1.0392500       2.4347500     0.040750000       342.65700       5.5135290     0.069993977
       4005.0000       290.63009       98730.414       12827.442      0.91650000       1.7532500      0.49475000       343.20800       4.6067862     0.064172323
       4010.0000       290.64988       98731.676       12791.984      0.83175000       2.0162500      0.41075000       342.73500       3.9047960     0.052929335
       4015.0000       290.66967       98730.480       12756.737      0.38150000       2.5472500      -1.1667500       342.85900       6.4527622     0.090733472
       4020.0000       290.71370       98723.026       12738.108       1.5782500       3.0712500     -0.78375010       342.51700       4.1477120     0.052210231
       4025.0000       290.70097       98729.694       12687.880      0.23675000       4.3067500      0.14150000       342.69600       3.6369586     0.057377028
       4030.0000       290.65073       98743.241       12608.377       1.3592500       1.7015000     -0.13625000       342.72900       3.6813069     0.060708239
       4035.0000       290.60004       98728.450       12554.944       1.2025000       2.7972500     -0.41650000       342.38200       3.9907486     0.053703717
       4040.0000       290.58720       98729.132       12539.236      0.94250010       4.2772500     -0.55025010       342.39000       4.8796594     0.057567560
       4045.0000       290.63036       98727.255       12579.644    -0.021000000       3.2465000     0.047000000       342.76900       3.1783626     0.052583813
       4050.0000       290.65026       98722.909       12611.813       1.5030000       2.4797500      0.17250000       342.78000       4.1460639     0.051602602
       4055.0000       290.71512       98736.804       12678.929      0.90475000       1.5530000     -0.61650000       342.61500       3.7263368     0.051298897
       4060.0000       290.71899       98743.393       12722.792       1.7932500       1.5000000     -0.61050000       342.69300       3.0871791     0.057950866
       4065.0000       290.68599       98743.815       12755.353       1.1127500       1.9835000    0.0065000000       342.50800       3.6971748     0.052819548
       4070.0000       290.58245       98727.821       12758.764       1.9627500       1.4000000     -0.27800000       343.09800       4.4384992     0.051823623
       4076.0000       290.62218       98744.090       12867.900       1.9955000      0.90950010      0.14700000       342.72000       3.2244686     0.053557812
       4081.0000       290.64449       98742.462       12937.305       2.6305000       2.4357500      0.30925000       343.09900       5.5955421     0.067193553
       4086.0000       290.78466       98723.951       13093.448       2.5217500       3.3767500      0.24000000       343.03000       4.4291624     0.055048915
       4091.0000       290.83053       98723.169       13141.130       2.3577500       2.4832500     -0.38975000       342.43900       3.8564790     0.053064808
       4096.0000       290.76598       98725.079       13066.303       2.1955000       3.0300000     -0.12050000       342.81500       4.4129099     0.059734048
       4101.0000       290.74619       98723.527       13040.903       2.2290000       1.8942500     -0.22075000       343.46300       4.0798798     0.052163015
       4106.0000       290.73891       98740.414       12994.977       2.0800000       2.0065000     -0.32525000       342.83000       6.0527140     0.062165214
       4111.0000       290.69740       98744.610       12935.837       1.4385000       3.8730000     -0.56350000       342.41400       3.6326435     0.052993609
       4116.0000       290.63156       98724.416       12889.614       1.6977500       1.8047500      0.17475000       343.25100       4.1564104     0.052648225
       4121.0000       290.59128       98721.946       12838.996       2.8727500       1.8540000    -0.070750010       343.40500       4.4825622     0.050914216
       4126.0000       290.53258       98735.826       12754.850       2.4535000       1.8495000      -1.0187500       342.44900       5.8925665     0.057615619
       4131.0000       290.48338       98736.636       12681.069       2.8895000       4.0695000     -0.23525000       341.93700       3.8810649     0.047230258
       4136.0000       290.45172       98732.950       12599.927       1.0435000       2.6042500      0.68400000       342.99200       3.2324632     0.048854243
       4141.0000       290.44313       98735.913       12561.203       2.3505000       2.7052500      0.24525000       342.77800       2.8639203     0.054670332
       4146.0000       290.45844       98736.481       12542.496       1.1540000      0.94025000      0.89500000       343.56900       4.3467496     0.048156748
       4151.0000       290.44875       98734.721       12526.451       1.9587500       2.1520000      0.33525000       342.98500       3.5740025     0.050562883
       4156.0000       290.45695       98742.164       12552.631       3.8067500       4.1847500      0.12150000       342.75200       4.1126856     0.055627277
       4161.0000       290.45573       98742.640       12570.867       2.6842500       3.8070000     -0.37525000       342.11300       5.3095373     0.059427741
       4167.0000       290.39285       98722.386       12568.413       3.1980000       1.5065000     -0.12675000       342.51400       3.9665190     0.046697222
       4172.0000       290.39024       98722.567       12594.317       1.8317500       3.1370000     -0.49200000       342.69000       5.4637836     0.053798736
       4177.0000       290.43846       98741.375       12657.075       2.3167500       3.2242500      0.33600000       343.39600       4.6411731     0.048687038
       4182.0000       290.45850       98742.345       12697.197       2.6340000       2.3437500    -0.097750010       342.73700       2.7789524     0.055791247
       4187.0000       290.49501       98741.848       12750.188       1.4432500       1.9765000    -0.046000000       342.94700       3.2266242     0.045354407
       4192.0000       290.51099       98741.731       12778.081      0.48200000       1.1025000       1.1287500       343.52600       3.1187513     0.051765151
       4197.0000       290.52686       98723.423       12812.460       2.0947500       3.0827500     -0.12925000       342.87300       5.1899844     0.060138668
       4202.0000       290.49893       98721.836       12787.781       2.7417500       3.7835000   -0.0065000000       341.87000       5.3533372     0.060250255
       4207.0000       290.41138       98737.340       12684.008       3.1335000       3.3975000    -0.077750000       341.82000       5.4344238     0.052582892
       4212.0000       290.38525       98742.947       12652.610       2.3250000       1.8460000     -0.31775000       342.83900       4.9606163     0.046666095
       4217.0000       290.32218       98749.293       12596.151       1.7160000       2.6802500     -0.34275000       341.83600       3.3536995     0.048972097
       4222.0000       290.33675       98752.570       12590.457       2.0815000       2.6872500     -0.23325000       342.47800       4.6770148     0.049702491
       4227.0000       290.48455       98752.947       12694.116       1.3945000       1.9357500      0.44225000       343.04600       4.1804537     0.049662422
       4232.0000       290.52632       98750.202       12715.412       1.6825000       1.0512500      0.89300010       342.88300       3.3307034     0.050236499
       4237.0000       290.52612       98744.014       12680.683       1.6675000       1.8042500     0.023000000       343.44100       3.9352680     0.053236934
       4242.0000       290.56594       98738.691       12703.145       1.7940000       1.5580000     -0.16525000       342.69800       4.7856002     0.054967500
       4247.0000       290.56607       98723.738       12724.741       2.0435000       2.9475000     -0.15275000       342.16000       6.7789427     0.083238946
       4252.0000       290.60387       98722.728       12756.974       1.3287500       1.2777500      0.22500000       343.07100       5.2738350     0.055289750
       4258.0000       290.74986       98735.122       12865.799       3.1845000       2.7412500      0.18925000       342.20000       4.2418651     0.050567946
       4263.0000       290.78106       98736.438       12903.714       2.7595000       1.4917500      0.35225000       342.98600       4.7044790     0.051596281
       4268.0000       290.74538       98741.558       12885.023       1.7837500       2.8397500     -0.55725000       342.68800       5.0424923     0.057654322
       4273.0000       290.75526       98741.769       12920.459       2.4110000       2.2202500     -0.66525000       342.33700       4.9303277     0.055335034
       4278.0000       290.75361       98728.077       12985.428       1.7975000       2.0422500     0.026000000       342.68300       2.8995994     0.055435812
       4283.0000       290.74354       98728.502       13005.025       1.7442500       1.5877500      0.71300010       342.83300       5.3317724     0.060152851
       4288.0000       290.75816       98742.055       13045.635       2.0450000       1.9057500      0.43600000       342.78300       5.8686284     0.066822944
       4293.0000       290.75148       98741.125       13037.726       1.9672500       2.5410000     0.016250000       342.84100       4.9398191     0.049591634
       4298.0000       290.70190       98736.427       12968.970       1.1982500       3.1377500     -0.30775000       342.04200       4.1944019     0.059676910
       4303.0000       290.68843       98734.857       12920.768       1.2747500       2.2065000    -0.015750000       342.47800       3.5093587     0.050451401
       4308.0000       290.69983       98722.617       12867.729      0.62700000       1.6975000      0.14925000       343.46200       4.3174770     0.057920920
       4313.0000       290.69966       98723.739       12810.554       1.3942500       1.6340000      0.41925000       342.79700       4.8140386     0.057199707
       4318.0000       290.71122       98744.024       12738.630       1.6272500       1.8920000      0.48100000       342.62800       4.3739098     0.055803090
       4323.0000       290.69501       98741.150       12680.688       1.3502500       1.3097500      0.14000000       342.65600       3.8026998     0.053944333
       4328.0000       290.66919       98725.741       12614.713      0.90325000       1.8867500     -0.52800000       342.82400       3.0401650     0.059037028
       4333.0000       290.63315       98723.326       12578.047      0.41175000       2.0962500    -0.014000000       342.76100       6.1890589     0.069855919
       4338.0000       290.54807       98710.581       12547.238       1.3677500       1.0470000      0.42075000       342.91700       4.3029086     0.063941232
       4343.0000       290.53067       98713.003       12550.132       1.9150000       1.2952500     0.036000000       342.18000       3.3970679     0.059058309
       4349.0000       290.55177       98744.776       12610.065      0.63375000       2.1365000      0.31700000       343.17900       4.0486634     0.054456429
       4354.0000       290.54147       98742.879       12611.664      0.84925000      0.86175010      0.45850000       343.85700       3.6072932     0.063741886
       4359.0000       290.54728       98723.067       12598.256       1.5865000       2.0765000     -0.59525000       342.34100       4.0504785     0.057840175
       4364.0000       290.55726       98724.674       12623.516       1.0642500       2.0357500     0.029500000       342.60000       4.6172903     0.052549429
       4369.0000       290.54327       98723.593       12635.746       1.1687500       1.9187500     -0.46925000       341.93900       4.4268705     0.052463302
       4374.0000       290.55189       98724.164       12668.476      0.93200000       1.9357500    -0.070750010       342.22500       3.2482295     0.059093757
       4379.0000       290.59397       98745.527       12752.198      0.66050000       1.0952500      0.19725000       343.16800       4.8657526     0.058117723
       4384.0000       290.62408       98741.278       12805.079      0.65500000       1.7672500     0.031750000       342.29700       4.7208136     0.056474304
       4389.0000       290.64593       98711.663       12844.644       1.7942500       1.4097500     -0.10850000       343.90100       3.7106434     0.061001843
       4394.0000       290.66595       98712.890       12870.073      0.40350000       1.5315000     -0.20900000       342.85000       4.8585491     0.055014780
       4399.0000       290.72186       98724.520       12914.776    -0.023750000       1.4672500    -0.060000000       342.72300       4.5129925     0.048549480
       4404.0000       290.69598       98727.371       12897.484      0.70775000       1.5575000     -0.26825000       343.24800       5.8509382     0.067176161
       4409.0000       290.60760       98743.452       12818.442       1.7240000       2.0477500     -0.51325010       342.25900       4.0617153     0.055427306
       4414.0000       290.56791       98743.130       12783.906       2.0067500       1.5732500     -0.58525000       342.57700       7.3141084      0.12701866
       4419.0000       290.49435       98722.330       12733.399       1.0065000       1.3545000      0.18975000       343.40500       3.1731886     0.054885673
       4424.0000       290.47188       98723.591       12705.565       1.4247500       1.2737500      0.33325000       343.41000       2.7181330     0.057431969
       4429.0000       290.50979       98735.260       12715.512      0.95675000      0.98500010    -0.079750000       342.39300       2.6309461     0.056829957
       4434.0000       290.49093       98736.357       12677.736       1.2880000       1.4032500     -0.27800000       343.01700       4.1887581     0.061033015
       4440.0000       290.45010       98742.566       12605.192       1.1052500       1.7205000      0.51125000       343.44000       3.6005680     0.057153059
