MIRICO/SHELL project - Processed LDS file generated on
Mon Jul 10 19:37:19 2017
Time stamp for record start
05/11/2017  09:41:56.0000
Nb of points in the record
         879
Beam position index
       7.0000000
Beam angle (degrees)
       19.300000
Open Path length (m)
       33.730000
****************** Temporal data record ************************
Elapsedtime_sec Temp_K Press_Pa Humidity_ppmv WindX_m/s WindY_m/s WindZ_m/s Speedofsound_m/s CH4vmr_ppmv CH4vmrerror_ppmv  
      0.00000000       288.64549       98742.859       11482.016     -0.26875000       1.9560000    -0.072500010       341.68400       2.1038695     0.026579409
       5.0000131       288.70460       98742.971       11493.623     -0.41375000       1.3327500     -0.11125000       341.49800       2.1504125     0.019575107
       10.000026       288.71226       98745.994       11467.869     -0.26775000       1.9625000      0.37125000       341.92700       2.1357026     0.022294042
       14.999999       288.65229       98740.227       11384.943      0.13600000       3.0280000     -0.13025000       341.08800       2.1507247     0.025804851
       20.000012       288.64364       98742.863       11342.021    -0.085750010       2.8035000    -0.024750000       341.37300       2.1199896     0.022690850
       25.000025       288.64449       98766.765       11295.666    -0.020000000       3.6372500     -0.57375000       340.98900       2.1309400     0.020087974
       29.999998       288.64584       98774.165       11274.952     0.029500000       2.8612500     0.047250000       341.46900       2.1572818     0.018758777
       35.000011       288.69035       98775.699       11293.965      0.48825000       2.9125000     -0.24150000       341.34700       2.1689026     0.020139296
       40.000024       288.70943       98772.193       11305.845     -0.13500000       2.3540000     -0.28625000       341.13300       2.1202153     0.018898665
       44.999997       288.67179       98744.848       11309.700       1.5342500       2.5530000      0.23700000       341.01200       2.1890850     0.017856138
       50.000010       288.69434       98740.747       11344.882      0.30300000       2.4955000     -0.56950000       340.97000       2.2313958     0.021989270
       55.000024       288.78137       98754.212       11403.935     -0.17450000       2.3935000    0.0045000000       340.83600       2.1371625     0.017912699
       59.999996       288.81003       98755.227       11460.274     -0.50225000       2.1107500      0.10250000       341.75600       2.1456070     0.023077477
       66.000004       288.87693       98768.784       11587.498     -0.44150000       2.2945000    -0.023500000       341.39100       2.1643748     0.020428786
       71.000017       288.86176       98768.165       11629.617     -0.33650000       1.6757500      0.49800000       341.99800       2.2079364     0.018951504
       76.000030       288.73957       98737.426       11631.037      0.24175000       1.8472500      0.33000000       341.46100       2.1182087     0.018610575
       81.000003       288.66913       98735.286       11625.450       1.5402500       1.3597500       1.5847500       341.41400       2.1621477     0.018957800
       86.000016       288.58397       98752.920       11575.931     -0.19075000       2.4810000     -0.80900000       340.86100       2.1957723     0.016589425
       91.000029       288.51832       98756.849       11536.420     -0.14725000       2.1665000     -0.86150000       341.26500       2.1469763     0.017929269
       96.000002       288.46777       98774.045       11500.496     -0.43025000       2.2245000      0.33200000       341.49200       2.1069889     0.017992233
       101.00002       288.43205       98774.091       11450.118    -0.063000000       2.4260000    -0.091750000       340.93300       2.0931911     0.020360820
       106.00003       288.41874       98743.427       11385.529     -0.91300000       3.0532500     -0.24000000       341.34300       2.1977356     0.015050456
       111.00000       288.38875       98741.135       11319.090     0.017000000       1.6085000     0.052250000       341.41800       2.1200011     0.022131642
       116.00001       288.36261       98750.971       11222.372      0.37175000       1.9912500     -0.47775000       340.96200       2.0864340     0.019328339
       121.00003       288.34282       98756.117       11169.513     -0.42175000       1.6490000    0.0037500000       341.13300       2.1143426     0.021099367
       126.00000       288.30454       98784.281       11120.663      -1.6772500       1.2475000     -0.22175000       340.89700       2.0766527     0.020518372
       131.00001       288.28793       98785.793       11103.965     -0.24600000       2.0340000     -0.34450000       340.89800       2.1416019     0.024170692
       136.00003       288.28689       98758.775       11132.314     -0.35175000       1.6815000     0.098500010       341.55100       2.1206133     0.016854892
       141.00000       288.30049       98751.663       11156.030      -1.1622500       1.7130000     0.095250000       341.38500       2.0821674     0.020635669
       146.00001       288.32397       98736.118       11196.499      0.18425000       2.0015000      0.61725000       341.37100       2.1555928     0.020748450
       151.00003       288.35793       98736.218       11238.456       1.1002500       1.3755000      0.70450000       341.58400       2.1321774     0.018549866
       157.00003       288.42952       98764.957       11290.164      0.40975000       1.4160000      0.13500000       340.97900       2.0277952     0.018224589
       162.00001       288.47964       98770.488       11356.820      0.54475000       1.4795000    -0.086000000       341.77900       2.0362858     0.023764658
       167.00002       288.52052       98774.940       11416.863      0.35625000       1.5787500     -0.54000000       341.50900       1.9492543     0.027497529
       172.00003       288.58704       98770.254       11538.528      0.71250000       1.6445000    -0.086250010       341.50300       2.1194410     0.024902874
       177.00001       288.70574       98744.315       11776.284      0.68225000       2.1877500     -0.50225000       341.25600       2.0719633     0.016754708
       182.00002       288.72631       98740.444       11848.950      0.81400000       2.4070000     -0.15875000       341.61100       2.0768241     0.018156100
       187.00003       288.71454       98740.962       11901.682     -0.70825000      0.48200000     -0.13250000       341.83100       2.0516678     0.018709405
       192.00000       288.70241       98746.029       11897.757     -0.35200000       2.1940000     -0.43525000       341.87700       2.1304682     0.013699068
       197.00002       288.59013       98771.895       11730.018    -0.051750000       2.6765000     -0.29025000       341.27900       2.0248874     0.020995423
       202.00003       288.57937       98775.119       11672.376      0.33350000       1.7480000     -0.49925000       342.48700       2.0348867     0.018415590
       207.00000       288.64182       98769.698       11662.096     -0.63600000       2.5957500      0.19125000       342.37700       2.1484921     0.011869305
       212.00002       288.66179       98763.197       11618.759     -0.56200000       2.2832500      0.77900000       341.74100       2.0949648     0.014126280
       217.00003       288.69944       98738.474       11576.077      0.15375000       2.4267500      0.52625000       341.69400       2.0508574     0.018708946
       222.00000       288.71362       98735.100       11528.751       1.6722500       1.3182500      0.10650000       341.98700       2.0629841     0.019018112
       227.00002       288.69989       98740.671       11462.355       1.1415000       1.5172500    -0.059000000       341.64800       2.1066394     0.018999273
       232.00003       288.69978       98747.038       11414.086      0.79325000       2.1942500     -0.13050000       341.99800       2.0893030     0.017808671
       237.00000       288.72355       98770.648       11395.255     -0.15800000       2.5765000     -0.27750000       341.44000       2.1031895     0.017159381
       242.00002       288.69060       98775.414       11328.170       1.2557500       2.3447500     -0.62975000       341.40700       2.0880730     0.016571136
       248.00002       288.60799       98774.393       11211.965     -0.91725000       1.4375000      0.39325000       341.83700       2.0839900     0.018151726
       253.00000       288.56801       98767.076       11157.351    -0.047500000       1.8545000     -0.57525000       341.52100       2.0168640     0.018991903
       258.00001       288.48452       98745.543       11067.963      0.27500000       2.5917500    -0.080000010       341.28200       2.0424486     0.019782514
       263.00002       288.48067       98737.259       11072.780     -0.16025000       3.2920000    -0.076750000       341.13400       2.1330121     0.016200187
       267.99999       288.56337       98726.714       11175.133      0.24150000       2.4982500      0.31450000       341.76400       2.1124276     0.012928789
       273.00001       288.54563       98729.004       11190.138      0.22000000       2.6837500     -0.40000000       341.34900       2.0358757     0.020158735
       278.00002       288.50158       98742.137       11206.221      0.29150000       2.7940000     -0.35350000       340.60800       2.0612712     0.017281453
       283.00003       288.49133       98751.723       11225.268      0.31700000       1.5027500     0.083000000       341.63000       2.1015018     0.020850614
       288.00001       288.42990       98772.049       11191.603     -0.11125000       1.1180000      0.87775000       341.45700       2.0500214     0.018563081
       293.00002       288.44672       98775.612       11230.354    -0.067500000       1.5837500     0.089000000       341.23000       2.0985584     0.018393442
       298.00003       288.54845       98774.090       11335.592      0.80900000       1.1215000     0.083750000       341.82800       2.0726955     0.020110452
       303.00001       288.57993       98766.672       11381.770      0.55825000       1.6950000     -0.26400000       341.01400       2.1183225     0.016507374
       308.00002       288.59434       98746.416       11426.767      0.40600000       1.7962500     -0.12900000       340.94100       2.0641456     0.015975600
       313.00003       288.62442       98736.232       11455.478    -0.020000000       2.0325000     -0.16275000       340.74800       2.1275192     0.013362115
       318.00001       288.63663       98722.018       11450.513      0.34675000       1.3605000    -0.030500000       341.06800       2.1235417     0.017351852
       323.00002       288.67476       98722.222       11470.248      0.24525000      0.99425010     0.014500000       341.22900       2.0483948     0.024639266
       328.00003       288.75810       98730.554       11510.322      0.86375000      0.93550000    -0.084250000       341.78000       2.1269074     0.015228887
       333.00000       288.77042       98741.148       11506.997    -0.060000000      0.57625000      0.66600000       342.02300       2.0713853     0.017449488
       339.00001       288.74488       98767.172       11478.440      0.51100000       1.2197500     -0.18500000       340.65300       2.0325371     0.017102931
       344.00003       288.76157       98778.867       11461.300      0.37200000       1.1372500     -0.16000000       341.16800       2.0456847     0.021173933
       349.00000       288.78933       98783.626       11467.846      0.78150000      0.56225000   -0.0030000000       341.77000       2.0387391     0.015932168
       354.00001       288.90091       98775.610       11543.549       1.1427500      0.70575000     0.031500000       342.03600       2.0682186     0.017792500
       359.00002       288.96251       98770.702       11580.629       1.2215000       1.1732500     -0.16025000       340.81600       2.0880167     0.024151087
       364.00000       288.97012       98763.268       11590.532       1.1147500       1.2165000     0.030500000       340.93400       2.0027872     0.017204425
       369.00001       288.99985       98755.292       11614.039      0.44850000      0.92600010   0.00050000000       341.55800       2.0738717     0.023787799
       374.00002       289.02951       98747.302       11635.244     0.063500000      0.74975000    0.0080000000       341.37300       2.0562398     0.018528673
       379.00000       289.05569       98739.758       11653.756   -0.0040000000      0.41150000    -0.029000000       340.89600       1.9898864     0.017315952
       384.00001       289.05442       98734.772       11627.636     -0.19575000      0.82850000      0.37200000       341.44200       2.0906003     0.020201333
       389.00002       289.06191       98727.956       11599.609      0.51225000      0.79025010    -0.060500000       341.23300       2.0239844     0.018183743
       394.00000       288.97005       98734.962       11480.027       1.0185000       1.8602500     0.040500000       340.89400       2.0601265     0.021517339
       399.00001       288.93686       98739.888       11421.632      0.56550000       1.1252500     -0.45150000       341.44300       2.0873961     0.016190320
       404.00002       288.95977       98747.346       11414.263      0.83650000       1.7622500    -0.039750000       340.89100       2.0692763     0.018738973
       409.00003       288.94984       98755.287       11400.982      0.53800000       1.4275000     0.068250000       341.57800       2.0831725     0.015222536
       414.00001       288.93997       98763.228       11401.472      0.90250000       1.1657500      0.30775000       342.42000       2.0440676     0.022950946
       419.00002       288.97008       98770.562       11443.651     -0.32800000       1.8062500     -0.14475000       341.41400       2.0637235     0.018628918
       424.00003       288.91505       98775.430       11427.848     0.092250000       1.5710000    -0.055000000       341.42900       2.0080421     0.022681208
       430.00000       288.78329       98782.120       11383.556     -0.55025010       1.8597500    -0.013250000       341.21600       2.0920229     0.019164594
       435.00001       288.71911       98780.274       11348.456     -0.56450000       1.2280000    -0.030500000       341.34100       1.9908875     0.021160013
       440.00003       288.68134       98780.290       11323.313     0.022750000       1.1105000    -0.024000000       341.49600       2.0737507     0.018374233
       445.00000       288.70026       98780.372       11309.290    -0.023250000      0.92100010      0.18400000       342.20200       2.0482364     0.018472621
       450.00001       288.70026       98780.410       11300.720     0.024750000       1.2022500     -0.58300000       341.68800       2.0585868     0.018350987
       455.00003       288.68556       98783.091       11274.415       1.2642500       2.1452500      0.44025000       341.73000       2.0616547     0.015820986
       460.00000       288.69645       98780.880       11287.553      0.92775010       1.1492500   -0.0025000000       341.67300       2.1493992     0.017007208
       465.00001       288.71832       98775.093       11335.327      0.47775000       1.0245000      0.29975000       341.72000       2.0088739     0.017877747
       470.00003       288.74964       98769.949       11381.235       1.6090000       1.8250000     -0.19275000       341.21400       2.0583952     0.019418454
       475.00000       288.80980       98758.862       11447.982       1.1367500       1.8972500     -0.33425000       341.13900       2.0954797     0.016099724
       480.00001       288.86032       98753.026       11522.299      0.79950000       2.1655000     -0.51050000       341.44500       2.0913948     0.017952389
       485.00002       288.91061       98753.975       11594.306       1.7192500       1.7747500      0.17225000       341.83200       2.0327417     0.016932354
       490.00000       288.96086       98749.826       11682.441     0.023750000       2.7235000     -0.59175000       340.94300       2.0218629     0.022098339
       495.00001       289.01000       98743.541       11827.118    -0.041000000       3.4107500      0.34700000       341.18400       2.1139522     0.020027807
       500.00002       289.05939       98739.592       11913.301      0.49375000       2.9187500     -0.19950000       341.46900       2.1380173     0.013408981
       505.00000       289.12386       98732.372       12011.379      0.57475000       3.0817500     -0.42100000       341.49400       2.0459856     0.015376422
       510.00001       289.16248       98728.730       12039.215      0.10875000       2.7692500     -0.81075010       341.17200       2.0745498     0.014306723
       516.00002       289.19470       98730.266       11971.119      0.57200000       2.0997500      0.69625000       341.47700       2.1250590     0.015115333
       521.00003       289.21116       98730.248       11924.583    -0.084500010       3.0317500     -0.83200000       340.88000       2.1378012     0.016938019
       526.00000       289.25094       98730.133       11850.326       1.0180000       3.7597500   -0.0087500000       341.11600       2.0532980     0.022792219
       531.00002       289.19609       98730.074       11762.834     -0.29800000       3.5122500    -0.033000000       341.38100       2.0599603     0.016724896
       536.00003       289.05987       98730.232       11667.095       1.1312500       3.5440000     -0.12100000       341.06600       2.1376870     0.019351119
       541.00000       288.96682       98730.191       11571.193      0.63000010       2.4245000    -0.096750010       341.52200       2.0868035     0.021437209
       546.00002       288.76963       98730.282       11406.999      0.32425000       1.5792500      0.10275000       341.78900       2.0453300     0.016262239
       551.00003       288.69868       98730.301       11341.277      0.26750000       2.2402500     -0.32500000       340.86700       2.1110188     0.016467060
       556.00000       288.76896       98730.101       11367.082     0.016500000       2.7455000     -0.36150000       341.19400       2.1137530     0.015290703
       561.00001       288.74502       98730.041       11322.606     -0.28500000       2.4417500      0.15125000       341.47500       2.0472495     0.016774521
       566.00003       288.71901       98730.103       11283.585      -1.5295000       3.2002500      0.27625000       341.30700       2.1407664     0.015135619
       571.00000       288.69559       98730.065       11256.188      0.22625000       2.8400000     0.077250000       341.78600       2.1073612     0.015577197
       576.00001       288.60970       98730.134       11166.807     -0.16550000       1.7365000      0.57150000       341.55800       2.0936354     0.018784786
       581.00003       288.57670       98730.074       11140.182     -0.52650000       2.3170000     0.092500000       341.27500       2.0802689     0.023170326
       586.00000       288.59981       98730.233       11189.578      0.56150000       2.2935000     -0.58875000       341.13400       2.1085911     0.016090324
       591.00001       288.59965       98730.192       11207.504      0.14075000       1.5455000    -0.019500000       342.00100       2.1113029     0.014447208
       596.00003       288.58735       98723.625       11212.300       1.0082500       1.4475000    -0.031750000       341.54000       2.0966112     0.016249522
       601.00000       288.60157       98730.614       11245.152      0.38200000       1.1620000      0.42875000       341.84700       2.1865201     0.015279245
       607.00001       288.65323       98756.755       11317.250      0.95700000       1.0775000      0.43150000       342.22000       2.1417625     0.016454927
       612.00002       288.65696       98758.568       11345.462       1.3500000       1.4180000      0.14975000       342.38700       2.1470317     0.015207100
       617.00003       288.65682       98759.644       11375.479     -0.13350000       1.6060000      0.31200000       341.53700       2.0646731     0.019533131
       622.00001       288.65073       98754.920       11397.819     -0.83550010       1.6267500      0.19450000       341.42400       2.1168340     0.018434181
       627.00002       288.60074       98723.169       11388.403     -0.20850000       2.6752500      0.35525000       341.99700       2.1017532     0.016923530
       632.00003       288.58727       98719.342       11394.644      0.86900000       2.3900000     -0.55475000       341.27700       2.0791139     0.022483057
       637.00000       288.59979       98731.885       11422.039      0.71900000       2.5782500     0.076500010       341.38700       2.1601793     0.015526691
       642.00002       288.59962       98738.079       11422.871       1.5347500       1.2460000     -0.52725010       341.37000       2.1210430     0.016158134
       647.00003       288.61244       98754.354       11418.707      0.83475010       1.5207500      0.29875000       342.09000       2.1565793     0.017457300
       652.00000       288.59635       98760.534       11386.823      0.12025000       2.0500000     0.052500000       341.19600       2.0826100     0.015763267
       657.00002       288.53587       98757.910       11303.929      0.63025000       2.3545000     -0.12400000       341.26600       2.0937422     0.016117993
       662.00003       288.54844       98762.564       11290.074      0.95450000       1.2500000      0.32650000       341.76100       2.1740084     0.017529892
       667.00000       288.59665       98768.710       11295.346      0.38550000       1.2235000      0.23150000       341.76800       2.0627995     0.019577959
       672.00002       288.60665       98772.686       11288.414     -0.10850000      0.90500000      0.50400000       341.51100       2.1613938     0.016238319
       677.00003       288.63426       98780.162       11306.811     -0.30275000       2.1985000     -0.35875000       341.22300       2.1506734     0.014481326
       682.00000       288.67396       98782.868       11339.043     -0.47825000       1.8385000      0.10075000       341.58800       2.0941080     0.017669792
       687.00002       288.63647       98782.572       11329.254      0.14925000       1.5695000     0.025000000       341.92500       2.1688652     0.014164192
       692.00003       288.72912       98779.249       11402.280     -0.39625000       1.8587500     -0.53375000       341.16600       2.0904900     0.019915117
       698.00000       289.01598       98771.986       11602.155       1.1482500       1.2435000      0.21875000       341.89000       2.1191716     0.020088376
       703.00001       289.06213       98766.106       11687.718       1.7060000       2.1112500     -0.42575000       341.99200       2.0830705     0.018195573
       708.00002       289.07266       98756.781       11777.266       2.6332500       2.1812500     -0.10525000       341.21700       2.2209781     0.018671772
       713.00000       289.05782       98748.833       11824.274       1.6255000       1.9092500     -0.22875000       341.13900       2.1780483     0.016461795
       718.00001       288.89955       98740.910       11821.773       1.3395000       1.1822500      0.87525000       342.14000       2.2239382     0.017810574
       723.00002       288.84773       98735.869       11805.008       1.7832500       1.9402500     -0.34725000       341.15500       2.1747986     0.018402073
       728.00003       288.83597       98729.762       11756.853       1.9745000       1.6932500     -0.20125000       341.18600       2.1285351     0.020131177
       733.00001       288.85301       98727.496       11739.116       2.5362500       2.5780000     -0.50050000       341.27600       2.1072566     0.019092146
       738.00002       288.90638       98728.613       11707.039       2.3680000       2.6840000     -0.23675000       341.36400       2.1559223     0.018462474
       743.00003       288.89778       98732.486       11669.325       2.7875000       2.3035000      0.30750000       341.84800       2.0520644     0.016975501
       748.00001       288.88709       98738.606       11637.536       1.3335000       1.4130000      0.40700000       341.73700       2.0373936     0.019489192
       753.00002       288.92638       98744.522       11636.256       2.1565000       1.7715000      0.54850000       341.85000       2.2260668     0.022097475
       758.00003       288.94318       98753.593       11626.016      0.66475000       1.2625000    -0.092000010       342.30700       2.0343491     0.024522555
       763.00001       288.96195       98761.528       11627.513     -0.80725000       2.2450000      0.63825010       342.20600       2.1868406     0.019368386
       768.00002       289.07241       98769.815       11689.580      0.54000000      0.96125010      0.24900000       342.21300       2.1583407     0.018941189
       773.00003       289.06779       98774.892       11682.437       1.0095000       2.7922500     -0.30625000       341.62500       2.1155516     0.018242173
       778.00000       288.94267       98782.930       11614.297       1.0997500       1.0787500      0.38525000       341.89500       2.1271043     0.018758944
       783.00002       288.93051       98781.338       11609.445       2.0387500       4.0285000     -0.57975000       341.13200       2.0863467     0.020362558
       789.00003       288.95573       98770.880       11625.491      0.51150000       1.8925000      0.64825000       341.95900       2.2062774     0.021385861
       794.00000       288.92383       98763.100       11592.908      0.67700000       2.7567500     -0.19450000       342.13400       2.1472718     0.014672805
       799.00001       288.90483       98755.061       11577.438     -0.12775000       2.2052500     0.042500000       342.08600       2.1526401     0.015473998
       804.00002       288.82913       98745.695       11519.532       2.3527500       1.4837500      0.30700000       341.87400       2.1689723     0.017199931
       809.00000       288.78721       98739.604       11490.412      0.14475000       1.2560000      0.81850000       342.04600       2.1341901     0.019095914
       814.00001       288.81504       98728.901       11526.694       1.9735000       2.0655000     -0.63575010       341.59300       2.1548348     0.015469995
       819.00002       288.80645       98727.314       11528.025       2.0457500       2.4120000    -0.071750000       341.69900       2.1033783     0.018699688
       824.00000       288.78558       98731.879       11517.177       1.6772500       2.4232500      0.45450000       341.87000       2.2052317     0.015827869
       829.00001       288.75096       98743.890       11496.371      0.79300000       3.0672500     -0.54650000       341.25100       2.1590864     0.015590049
       834.00002       288.73063       98754.328       11473.713      0.93050000       2.0492500      0.16675000       341.41100       2.2211431     0.017685439
       839.00000       288.68821       98773.195       11426.573     0.026000000       3.0777500     -0.28825000       341.39800       2.1935134     0.016384362
       844.00001       288.71566       98775.653       11423.177       1.0712500       2.4367500     0.097750010       341.14800       2.1256932     0.017924286
       849.00002       288.74447       98773.382       11427.886     0.024750000       1.7090000      0.42225000       341.71900       2.1567790     0.017405292
       853.99999       288.83052       98754.148       11452.152      0.91100010       3.5545000    -0.051500000       341.85100       2.1079227     0.021227958
       859.00001       288.86265       98743.938       11480.293      0.36800000       3.4532500    -0.080000010       341.24400       2.2073111     0.016671218
       864.00002       288.87008       98736.185       11514.862      0.77850000       3.3327500     -0.49125000       340.92500       2.2141412     0.016439175
       869.00003       288.86307       98725.210       11565.898      0.44025000       2.2525000      0.15275000       341.48300       2.1623544     0.016798851
       874.00001       288.82955       98733.439       11575.898       1.0840000       2.5195000     -0.25150000       341.15100       2.1814960     0.015875672
       880.00001       288.73474       98757.170       11577.784       1.0800000       1.6752500    0.0047500000       341.15200       2.2192499     0.017610072
       885.00003       288.71600       98779.696       11534.498     -0.10925000       2.2732500      0.37725000       341.42700       2.1180267     0.021111080
       890.00000       288.73958       98785.779       11551.591      0.13775000       1.5837500      0.87375000       341.79200       2.1754421     0.017163039
       895.00001       288.87334       98774.354       11654.979     -0.90750000       2.8267500     0.063500000       341.62900       2.1834362     0.018476846
       900.00003       288.92019       98765.032       11689.923     0.064250000       3.8187500      -1.0820000       341.33100       2.0526058     0.021299006
       905.00000       288.94637       98738.773       11720.211       1.3775000       4.2642500     -0.30525000       341.46600       2.0899037     0.016979654
       910.00001       288.96383       98730.536       11739.787     -0.67750000       4.8932500     -0.45275000       341.48500       2.1987929     0.020344913
       915.00003       288.89531       98728.543       11690.174       1.1610000       4.1892500     -0.35200000       341.47800       2.1554086     0.018903316
       920.00000       288.88799       98732.243       11680.241       1.2615000       3.1660000      0.61425000       341.50300       2.1697554     0.018120015
       925.00001       288.94755       98760.136       11716.608       1.6727500       3.4437500     -0.15650000       341.33600       2.1720506     0.016666114
       930.00003       288.95607       98769.573       11717.991      0.87825010       2.1755000      0.32050000       341.76400       2.1364614     0.017161361
       935.00000       288.98381       98776.105       11723.111       1.8700000       3.3882500      0.50325000       341.42900       2.2289677     0.016031613
       940.00001       288.96053       98773.363       11698.692      0.80775000       2.9902500     -0.60900000       341.94600       2.2183186     0.017674763
       945.00002       288.84109       98744.304       11623.362      0.97325000       4.0510000      0.12800000       341.42800       2.1865000     0.015863699
       950.00000       288.78267       98735.996       11574.249      0.61625000       2.4600000      0.45000000       341.80200       2.2368590     0.020412513
       955.00001       288.71961       98729.641       11515.868       1.0697500       1.7142500      0.12425000       342.08300       2.1847372     0.016622658
       960.00002       288.68268       98731.611       11470.858      0.61300000       2.0952500     -0.44650000       341.73900       2.2121904     0.016629594
       965.00000       288.70052       98760.202       11429.940       1.9210000       2.8325000     -0.10600000       341.39200       2.2361386     0.015336568
       971.00000       288.70084       98770.691       11415.299       1.1135000       2.6892500     -0.25325000       341.64400       2.2088360     0.015839436
       976.00002       288.71304       98774.967       11422.836       1.8685000       2.1930000     -0.26875000       341.55300       2.1404522     0.016689065
       981.00003       288.69943       98771.743       11433.866       1.0765000       2.2905000     -0.16200000       341.75800       2.1683394     0.019351931
       986.00000       288.66182       98747.228       11487.559       2.1622500       2.3265000     -0.49525000       341.15800       2.2261985     0.016147573
       991.00002       288.64199       98740.842       11501.912      0.22800000       1.9695000      0.10425000       341.13600       2.1892852     0.016945101
       996.00003       288.57892       98735.476       11483.479       1.1272500       1.9742500     -0.31425000       341.14800       2.1672076     0.014521699
       1001.0000       288.58968       98738.610       11491.743      0.22025000       2.2310000     0.046750000       342.19100       2.2524029     0.015287740
       1006.0000       288.64715       98767.081       11481.368      0.86300000       2.7680000    -0.031250000       341.37900       2.2130237     0.016295864
       1011.0000       288.71493       98769.355       11508.531      0.34075000       1.3927500     0.055750000       341.08200       2.1723038     0.016136173
       1016.0000       288.83930       98759.726       11567.701      0.34075000       1.4955000     -0.66125010       341.79000       2.2178132     0.016188565
       1021.0000       288.93999       98754.658       11633.191     -0.26275000       1.9510000      0.56150000       341.84600       2.2145957     0.015779053
       1026.0000       289.04200       98728.960       11728.636     0.033000000       2.1075000    -0.014250000       341.37000       2.2067384     0.021245879
       1031.0000       289.14241       98724.800       11810.037      0.79450010       2.6075000     -0.56675000       341.12600       2.2124798     0.016850629
       1036.0000       289.22724       98742.903       11893.632      0.22550000       2.4837500     0.066750000       341.38400       2.2527999     0.016145448
       1041.0000       289.33987       98747.466       11980.849       1.1712500       1.2422500     -0.10825000       342.03700       2.2141973     0.015774347
       1046.0000       289.51500       98757.835       12089.521      0.34300000       1.9695000     -0.73500000       341.25500       2.2260100     0.017669498
       1051.0000       289.59319       98757.901       12150.951     -0.11850000       1.6030000      0.27575000       342.19300       2.2342164     0.016789777
       1056.0000       289.62030       98739.459       12189.253     -0.19425000       1.8075000      0.25150000       341.50700       2.2149390     0.017452821
       1062.0000       289.68691       98738.334       12238.178      0.74725000       1.8212500     -0.11825000       341.15500       2.2365167     0.017233357
       1067.0000       289.73073       98743.190       12294.662      0.67625000       2.4337500    -0.068250000       341.38900       2.2451853     0.017870417
       1072.0000       289.69226       98746.398       12234.925       1.3115000       2.6337500     -0.18100000       341.49900       2.1535408     0.023196939
       1077.0000       289.64110       98763.546       12120.630      0.13200000       2.4622500     -0.38150000       341.90200       2.1658570     0.016658850
       1082.0000       289.57255       98762.746       12006.706      0.31825000       2.6500000      0.18125000       341.93000       2.2367334     0.015129607
       1087.0000       289.33929       98744.285       11722.653      0.47625000       1.8367500      0.41825000       342.18900       2.1680210     0.015791309
       1092.0000       289.29674       98743.130       11655.466      0.24275000       1.7177500      0.28900000       342.94900       2.3159203     0.018138561
       1097.0000       289.35971       98744.046       11722.604      0.37650000       2.4542500     -0.15025000       341.70000       2.2326918     0.018222007
       1102.0000       289.41915       98744.382       11733.256      0.55500000       2.4000000    -0.017500000       341.65300       2.1600396     0.019708569
       1107.0000       289.61410       98757.962       11845.903     -0.34050000       1.7950000     -0.50950000       342.11100       2.2700392     0.018320890
       1112.0000       289.63295       98756.921       11844.969     -0.53425000       2.0377500     -0.17775000       341.75700       2.1599127     0.016379760
       1117.0000       289.59388       98736.252       11753.252     0.068500000       2.1205000     -0.22875000       341.58100       2.2164234     0.023618195
       1122.0000       289.52961       98738.885       11708.432     -0.38525000       2.3132500     0.014500000       342.19100       2.1733967     0.018644312
       1127.0000       289.32903       98758.012       11646.632      0.73600010       2.1500000     -0.69400000       341.94200       2.1867291     0.016360272
       1132.0000       289.23227       98755.469       11600.471    0.0072500000      0.99075010      0.34700000       342.87300       2.1375101     0.015112610
       1137.0000       289.14817       98751.675       11554.528     -0.29375000       1.0862500   -0.0010000000       342.07000       2.1667931     0.017963760
       1142.0000       289.11742       98751.306       11543.693      0.19000000       1.4377500     -0.37825000       342.38100       2.1720315     0.017036881
       1148.0000       289.10875       98731.606       11527.376      0.38925000       1.0512500      0.71100000       343.17600       2.1614053     0.018382953
       1153.0000       289.19327       98732.761       11592.036      0.87425010       3.8892500      0.29800000       341.89500       2.2884050     0.020849165
       1158.0000       289.40901       98759.486       11756.130      0.36775000       3.2592500      0.16050000       342.48900       2.1476241     0.017580126
       1163.0000       289.46308       98757.399       11810.419       1.2317500       2.3600000    -0.062500000       342.40100       2.1881167     0.017888439
       1168.0000       289.51169       98736.917       11869.932      0.48475000       2.2072500    -0.070500000       341.94300       2.1968966     0.014352576
       1173.0000       289.53513       98741.345       11895.232       1.3890000       1.5635000    -0.030500000       342.11800       2.2326515     0.017383171
       1178.0000       289.43081       98751.214       11825.102       1.3752500       1.0172500      0.14925000       342.18300       2.1693288     0.015814661
       1183.0000       289.44655       98749.367       11847.127       1.6050000       1.5162500     -0.63925000       341.69300       2.2185298     0.021239627
       1188.0000       289.51924       98757.440       11916.603       2.0625000       1.4135000      0.19875000       341.63100       2.1753449     0.015812139
       1193.0000       289.60725       98757.744       11956.938      0.76800000       3.0047500     0.027250000       341.11600       2.1851763     0.018148141
       1198.0000       289.73167       98738.169       12000.230       1.7325000       2.2637500     -0.53350000       341.37700       2.2157014     0.016834684
       1203.0000       289.82224       98736.507       12058.105       1.1012500       2.4222500     -0.68825000       340.85900       2.2344680     0.017274508
       1208.0000       290.01076       98752.603       12168.897      0.87175010       2.2115000     -0.55975000       341.31700       2.2002254     0.018404279
       1213.0000       289.95361       98751.162       12120.238      0.32775000       1.3537500     -0.24825000       341.66400       2.1875963     0.014684988
       1218.0000       289.74475       98738.556       12014.364      0.95725010       2.0215000     -0.29425000       340.78900       2.2084495     0.019453595
       1223.0000       289.59966       98740.182       11909.450      0.50025000       2.0937500     0.059250000       341.18600       2.2134133     0.015161879
       1228.0000       289.30085       98746.127       11666.131      0.81550000       1.4322500    -0.062250000       342.16600       2.2122614     0.016575335
       1233.0000       289.17530       98744.264       11559.265      0.98225000       1.0917500      0.32650000       341.72200       2.1990503     0.018531894
       1239.0000       289.13259       98745.286       11515.936       1.3757500       1.5232500     -0.32600000       340.88400       2.1706218     0.016511427
       1244.0000       289.11622       98745.452       11442.924      0.97500000       1.2102500     -0.20500000       341.25600       2.1282862     0.015470069
       1249.0000       289.13241       98744.260       11404.315      0.92500010      0.98725000    -0.099500010       341.72100       2.2210066     0.016430097
       1254.0000       289.18639       98751.470       11357.694      0.71600000       1.5300000     -0.39750000       341.56400       2.1727681     0.019516600
       1259.0000       289.28244       98756.683       11378.781      0.41125000      0.30775000     0.064500000       343.05100       2.1065424     0.017107550
       1264.0000       289.47523       98754.806       11487.348     -0.44475000       1.7162500    -0.014500000       342.54100       2.1334270     0.016878021
       1269.0000       289.60555       98754.692       11577.640      0.24825000       1.3165000      0.12525000       343.09500       2.1766429     0.014455333
       1274.0000       289.72364       98755.829       11685.663      0.16950000      0.77025000    -0.076000010       342.29200       2.1836412     0.014334776
       1279.0000       289.88808       98762.943       11865.346     -0.47925000       1.0340000      0.43700000       343.42900       2.1361419     0.017518004
       1284.0000       289.90021       98757.431       11922.259     -0.58300000       1.2540000      0.22575000       342.79700       2.2054041     0.016041121
       1289.0000       289.80050       98743.547       11912.995     -0.25675000       1.6112500     0.087500010       342.05500       2.0744475     0.016032436
       1294.0000       289.76050       98748.345       11966.464      0.69325010      0.87600000     -0.81100000       342.25000       2.0885901     0.020122726
       1299.0000       289.73757       98745.396       12002.034       1.3620000       1.5895000      0.15575000       342.41200       2.1046920     0.017843391
       1304.0000       289.80024       98742.391       12119.286    -0.017000000       3.3920000      0.12325000       341.99900       2.1417799     0.016305533
       1309.0000       289.81250       98745.413       12149.562    -0.036500000       3.4030000     -0.55000000       341.93800       2.2126488     0.015635339
       1314.0000       289.80018       98748.435       12124.346      0.40700000       2.9405000     -0.10425000       341.94700       2.1210719     0.015777015
       1319.0000       289.76412       98745.823       12029.602      0.60925000       2.2902500     -0.31750000       341.81000       2.1160583     0.016093583
       1324.0000       289.70077       98740.696       11940.940      0.86525010       1.5180000      0.42150000       343.25800       2.2040039     0.017785249
       1330.0000       289.58553       98740.306       11780.196      0.58875000       3.0445000      0.26975000       342.31700       2.1145457     0.014849916
       1335.0000       289.48410       98743.576       11654.351       1.3070000       3.7462500    -0.061750000       341.92800       2.1037932     0.017149476
       1340.0000       289.42588       98739.633       11564.592      0.12525000       1.5300000      0.77725010       342.41600       2.0808904     0.015455957
       1345.0000       289.36698       98737.237       11469.248      0.89800010       1.7885000      0.17600000       342.79200       2.0968520     0.013526681
       1350.0000       289.38246       98741.267       11425.236      0.95625010       2.7927500      0.25350000       341.82800       2.0328546     0.016860205
       1355.0000       289.45919       98743.573       11424.762       1.2252500       1.8895000      0.10825000       342.20800       2.1425215     0.015503370
       1360.0000       289.55193       98739.623       11446.009      0.97125010       1.8350000      0.56150000       342.73700       2.1026825     0.013032602
       1365.0000       289.77021       98737.332       11526.638     -0.24700000       1.0775000     0.027750000       343.17000       2.0383427     0.017011557
       1370.0000       289.88638       98741.388       11588.299      0.99075010       2.5842500     -0.30100000       342.35000       2.1042104     0.012741160
       1375.0000       289.91312       98743.594       11628.901    -0.019750000       2.0012500     -0.20400000       342.43300       2.1423509     0.010732722
       1380.0000       290.01525       98739.521       11729.851     -0.22925000       2.3837500      0.30300000       342.19900       2.1245660     0.018916184
       1385.0000       290.13832       98736.814       11881.311      0.40400000       3.4982500     -0.81075010       342.00900       2.1310005     0.016443996
       1390.0000       290.21910       98740.735       12008.288    -0.085750010       2.3297500      0.22800000       343.08600       2.1397673     0.015811713
       1395.0000       290.36163       98743.642       12236.206      0.32950000       2.6250000    -0.054000000       342.22700       2.0944294     0.016877372
       1400.0000       290.43590       98739.751       12340.939      0.45150000       2.9425000     -0.28000000       342.11900       2.1558166     0.014781782
       1405.0000       290.40015       98737.299       12348.812      0.47075000       2.6167500     -0.46850000       342.55200       2.1153403     0.015377690
       1410.0000       290.40011       98741.299       12350.079      0.71100000       2.4137500     -0.17550000       341.60300       2.0999835     0.015990381
       1415.0000       290.39990       98739.333       12260.183       1.7445000       2.8735000     -0.53125000       342.08200       2.1664356     0.014145042
       1421.0000       290.39986       98739.003       12197.306       2.5717500       1.3890000    0.0070000000       341.85700       2.1429666     0.015022271
       1426.0000       290.41348       98754.292       12129.767     0.083250000       1.5070000     -0.30100000       342.70500       2.1970269     0.011365098
       1431.0000       290.40015       98758.792       12107.990     -0.40175000      0.52600000    -0.073500000       343.07000       2.1552068     0.014212634
       1436.0000       290.41363       98750.623       12165.597     0.068500000       3.7687500     -0.50200000       340.65600       2.1511130     0.011316250
       1441.0000       290.33888       98748.908       12124.167      0.78750000       3.4622500     -0.50250000       341.28500       2.1517656     0.010633526
       1446.0000       290.17923       98752.869       12071.668     -0.96525010       3.0912500      0.22350000       341.79900       2.1388661     0.016318419
       1451.0000       290.05643       98750.145       11988.354     -0.84650000       3.1185000     -0.29625000       341.50000       2.1371912     0.016493129
       1456.0000       289.83275       98738.904       11783.527      -1.0460000       3.1485000     -0.53750000       340.96500       2.1229372     0.018725082
       1461.0000       289.74191       98739.073       11676.995     -0.71550010       1.2172500     -0.45300000       341.81000       2.0930585     0.013252375
       1466.0000       289.77477       98748.031       11614.535      0.36500000       2.0907500     -0.34750000       342.08200       2.0287584     0.019421382
       1471.0000       289.73449       98745.324       11552.601      0.40375000       3.0265000      0.77075000       341.97600       2.1359606     0.015270652
       1476.0000       289.71821       98735.565       11513.762     -0.42725000       3.1007500     -0.13400000       341.72700       2.1013543     0.017592494
       1481.0000       289.69458       98740.580       11492.854      0.41725000       3.2630000      0.27325000       341.83700       2.0796652     0.019681254
       1486.0000       289.58391       98751.746       11468.619     -0.23400000       1.9117500      0.19400000       343.42900       2.1144273     0.014900379
       1491.0000       289.57894       98750.466       11485.976     -0.92250000       1.7127500      0.70100000       341.80200       2.0531292     0.020412309
       1496.0000       289.67473       98754.612       11566.521     -0.67750000       2.4120000    -0.040000000       340.98300       2.0950434     0.014326151
       1501.0000       289.71495       98758.327       11610.941     -0.93375000       2.1765000     -0.53975000       342.09500       2.1151833     0.015271302
       1506.0000       289.78880       98745.645       11658.381      0.19150000       2.3572500     -0.14475000       342.75000       2.1044338     0.019400052
       1512.0000       289.82469       98741.981       11720.310      0.79175000       1.6527500    -0.043500000       343.84600       2.0318642     0.014639757
       1517.0000       289.77753       98758.158       11733.614       1.8285000       2.3112500     -0.47875000       341.05900       2.0913392     0.016440587
       1522.0000       289.80986       98757.112       11813.485       1.2137500       2.0177500    -0.091000010       341.73900       2.1336983     0.015625026
       1527.0000       289.91816       98738.610       11988.525      0.48350000       1.8225000      0.40075000       342.88700       2.0774085     0.017411152
       1532.0000       289.90922       98738.142       12037.582       1.5795000       1.8465000     0.038750000       341.23700       2.0931594     0.015310145
       1537.0000       289.87279       98747.676       12067.827       1.4350000       1.8595000     0.068750000       343.36700       2.0544043     0.016398300
       1542.0000       289.84087       98744.520       12067.862       2.2647500       1.8807500     -0.46625000       342.04300       2.0836188     0.015342819
       1547.0000       289.69068       98738.970       11947.138      0.96450010       1.2395000     -0.15900000       342.47700       2.0716072     0.017961763
       1552.0000       289.66605       98741.577       11921.626      0.65925000       1.9045000     0.075750000       342.00200       2.0137569     0.023832090
       1557.0000       289.75275       98738.629       11958.323     -0.10800000       2.4895000      0.49600000       343.11000       2.1341429     0.018720741
       1562.0000       289.75630       98739.454       11938.040     -0.12050000       2.7645000     0.057250000       340.89700       2.0709414     0.014404972
       1567.0000       289.76794       98758.001       11908.600     0.096000000       2.4490000      0.26050000       342.79400       2.0877685     0.016371635
       1572.0000       289.74569       98758.358       11880.566     -0.71950000       2.1425000     -0.36600000       341.18400       2.0632012     0.019424174
       1577.0000       289.65919       98738.634       11804.396      0.27225000       2.1732500      0.12225000       341.70800       2.0007907     0.014327405
       1582.0000       289.62594       98738.126       11794.613      0.25650000       2.1007500     -0.45600000       341.77800       2.0397893     0.016572723
       1587.0000       289.57709       98746.351       11834.087      0.11025000       1.2632500    -0.034750000       343.08300       2.0311794     0.016571443
       1592.0000       289.59632       98744.702       11844.933       2.0270000       2.6070000      0.35175000       341.90900       2.0762355     0.019404637
       1597.0000       289.68442       98747.272       11880.485       1.3522500       3.2740000     0.092500000       341.74200       2.0412270     0.018172357
       1603.0000       289.73254       98744.569       11885.911     -0.52900000       1.6722500      0.37925000       342.20000       2.1888438     0.015031996
       1608.0000       289.80731       98726.787       11854.957       1.5855000       3.5497500     -0.83725010       341.44800       2.0880654     0.014751045
       1613.0000       289.83004       98729.025       11855.398      0.94250010       3.7990000      0.95225010       342.65600       2.0788883     0.014638564
       1618.0000       289.80863       98747.571       11870.024       1.4062500       3.4625000     -0.32375000       341.38800       2.0312985     0.017435875
       1623.0000       289.78990       98746.051       11861.529       1.1007500       2.5330000    -0.073000010       342.53700       2.0564356     0.014924250
       1628.0000       289.75384       98740.173       11846.650      0.52025000       3.7327500     -0.44400000       341.21700       2.1046226     0.016975096
       1633.0000       289.73375       98741.181       11846.474      -1.8240000       1.5462500     -0.94400010       342.00100       2.1107543     0.015285107
       1638.0000       289.69735       98731.728       11837.118     -0.14900000       3.0097500     -0.34225000       341.63300       2.1021009     0.016404145
       1643.0000       289.68627       98735.186       11836.372     -0.26000000       3.5640000     -0.53750000       341.38700       2.0652649     0.016895875
       1648.0000       289.69948       98758.961       11860.005     -0.31300000       3.2515000     -0.33375000       341.64600       2.0907067     0.014190468
       1653.0000       289.69918       98756.797       11859.137     -0.79225000       2.4920000      0.49300000       342.37200       2.0545359     0.012724229
       1658.0000       289.69975       98740.903       11837.128     -0.70900010       3.1592500     0.090250010       342.12400       2.0398214     0.016634864
       1663.0000       289.69964       98735.877       11835.149      0.55700000       2.2870000    -0.017250000       341.47700       2.1005492     0.014849671
       1668.0000       289.70945       98720.988       11854.354      0.37675000       3.5580000     -0.50725000       341.78000       2.0452149     0.016457880
       1673.0000       289.69099       98724.022       11827.089     -0.23400000       2.7875000      0.18650000       343.10300       2.1309308     0.014860737
       1678.0000       289.60760       98745.141       11763.465       1.4940000       2.8025000     0.087000000       342.06300       2.0739836     0.013742907
       1683.0000       289.68237       98750.389       11765.167       1.2627500       2.3082500      0.15675000       341.54200       2.0483206     0.015230400
       1688.0000       289.81063       98756.430       11746.080      0.76200000       2.1935000      0.29775000       341.85100       2.1054421     0.012776493
       1694.0000       290.08786       98750.280       11888.700      0.40575000       2.8395000     -0.33050000       341.54400       2.0441063     0.014363801
       1699.0000       290.23595       98748.980       11972.114       1.8417500       3.0585000      0.21100000       342.41400       2.0901854     0.012738871
       1704.0000       290.27061       98754.680       12022.696      0.20500000       2.7152500    -0.099750000       342.15900       2.0573638     0.016720870
       1709.0000       290.31242       98755.734       12099.381      0.24675000       2.0687500     -0.17200000       342.23300       2.0859118     0.014874363
       1714.0000       290.29993       98760.416       12184.065      0.22425000       1.7575000      0.18225000       342.06700       2.0850136     0.016212565
       1719.0000       290.29993       98758.002       12243.277     -0.57900010       2.4515000     -0.12625000       341.21200       2.1457061     0.016809198
       1724.0000       290.29993       98750.672       12298.122      0.14125000       1.0007500      0.59625010       343.35400       2.0552930     0.013207617
       1729.0000       290.29346       98733.013       12385.476     -0.43425000       3.0940000     -0.93925010       341.56200       2.0535658     0.014904951
       1734.0000       290.31491       98732.531       12391.067    -0.060000000       2.1617500     -0.22750000       341.96100       2.0956426     0.015718294
       1739.0000       290.38019       98732.860       12351.283    -0.075500000       2.2467500    -0.046500000       342.05400       2.0612307     0.016899607
       1744.0000       290.26244       98754.915       12261.413      0.58200000       2.2182500     -0.16375000       342.91000       2.0767026     0.016740940
       1749.0000       290.16574       98760.062       12171.873     -0.16150000       1.2342500      0.70575000       343.77600       2.0594004     0.017318704
       1754.0000       289.91322       98745.168       12039.784      0.47075000       3.3837500     -0.36350000       341.17500       2.0825727     0.018193548
       1759.0000       289.76823       98740.178       11923.122       2.2702500       2.3825000     -0.17325000       341.44800       2.0973084     0.017703099
       1764.0000       289.68476       98735.161       11811.145       1.2025000       1.7027500     0.090500000       343.83500       2.0711431     0.012741295
       1769.0000       289.68092       98720.808       11691.001       2.3887500       2.3135000     -0.50450000       342.18900       2.0649381     0.013615011
       1774.0000       289.68549       98725.936       11631.080       2.1405000       1.3135000     -0.40700000       342.29000       2.0697943     0.015008200
       1780.0000       289.75170       98747.330       11582.848       1.8860000       1.7557500     -0.43425000       341.91400       2.1010470     0.013282751
       1785.0000       289.82508       98761.635       11614.914       1.0715000       2.9305000      0.47525000       341.70900       2.0780257     0.014031290
       1790.0000       289.86413       98763.952       11637.430       2.3175000       1.7287500      0.39650000       341.26500       2.0885276     0.019155160
       1795.0000       289.84835       98745.768       11658.517      0.90450010       1.8170000     -0.36750000       341.14800       2.0886966     0.018217511
       1800.0000       289.90073       98743.200       11707.953       1.4370000       2.6345000   -0.0040000000       341.87800       2.1211230     0.016423877
       1805.0000       290.00183       98748.935       11789.688      0.99750010       2.7025000      0.33525000       342.26700       2.1057395     0.013851486
       1810.0000       290.06128       98744.786       11859.536       1.3427500       2.3725000     -0.15500000       341.68300       2.1573037     0.015817755
       1815.0000       290.17033       98739.584       11946.139      0.27950000       2.6997500      0.24975000       343.09000       2.2076339     0.016566238
       1820.0000       290.22630       98740.541       12030.018      0.59875010       2.6957500     -0.42500000       342.07000       2.0467647     0.016264584
       1825.0000       290.21408       98734.485       12135.166       1.2452500       2.4477500     -0.29200000       341.97400       2.0371998     0.018208134
       1830.0000       290.20284       98732.893       12185.960       1.0080000       2.6477500     -0.48375000       341.05700       2.0288440     0.015359889
       1835.0000       290.19329       98750.175       12237.564      0.86475000       1.7192500     -0.47575000       341.23100       2.1034676     0.014935088
       1840.0000       290.15082       98753.674       12233.832      0.57700000       1.3795000      0.15050000       342.05500       2.0793643     0.014596515
       1845.0000       290.04143       98739.347       12135.413       1.2230000       1.9335000   -0.0015000000       341.98400       2.1393735     0.017447015
       1850.0000       289.98328       98738.765       12068.991      0.24700000       2.0872500     -0.35800000       343.38100       2.0558501     0.015028237
       1855.0000       289.87550       98742.201       11942.347    -0.027500000       1.5930000      0.46725000       343.77500       2.0819800     0.014964392
       1860.0000       289.87263       98744.493       11897.565      0.66525000       2.9000000    -0.090750000       341.32500       2.1654166     0.017692688
       1865.0000       290.00203       98758.715       11940.140      0.83550010       2.0680000      0.29325000       342.49300       2.0318096     0.017170732
       1871.0000       290.07416       98763.555       11921.265     -0.52000000       1.9562500     -0.66300000       341.66900       2.1038193     0.016673225
       1876.0000       290.18546       98760.241       11924.969      0.21050000       2.5327500     -0.20225000       341.47300       2.0827586     0.018885054
       1881.0000       290.23451       98754.117       11911.432      0.44175000       1.5420000      0.26350000       342.17800       2.0864252     0.015340257
       1886.0000       290.17441       98735.537       11813.614      0.56325000       1.1207500      0.43700000       341.77100       2.1164719     0.015059150
       1891.0000       290.20197       98732.156       11805.099     -0.54725000       1.2755000     -0.23575000       342.11600       2.1427412     0.017417659
       1896.0000       290.26309       98731.783       11867.575     -0.20225000       1.8392500    -0.032000000       342.65300       2.1234800     0.013360290
       1901.0000       290.31641       98734.208       11899.094     -0.60900000       1.8267500    0.0045000000       341.69600       2.0871239     0.016388371
       1906.0000       290.39950       98752.364       11922.984      0.41125000       1.6105000     -0.19650000       342.01400       2.1781156     0.016792109
       1911.0000       290.47933       98759.188       12000.588      0.64125000       1.8722500     -0.41375000       342.65000       2.1286217     0.015830269
       1916.0000       290.57036       98761.041       12122.067      0.87175010       2.7527500      0.43850000       342.95500       2.1004999     0.014281865
       1921.0000       290.62703       98761.337       12199.496       1.1632500       2.5277500     -0.38075000       341.22600       2.0783389     0.012834701
       1926.0000       290.69023       98760.275       12325.616     -0.35950000       2.5567500     -0.37500000       342.20000       2.0815318     0.013950352
       1931.0000       290.72332       98754.181       12393.293      0.43675000       2.1525000      0.10875000       342.47800       2.0985306     0.013014239
       1936.0000       290.67445       98738.135       12360.760      0.78075000       2.7582500     -0.39575000       341.47400       2.1344650     0.015450347
       1941.0000       290.70197       98731.948       12392.089       1.4435000       2.4567500     -0.17325000       342.84500       2.1299463     0.015155662
       1946.0000       290.76180       98721.529       12460.481     -0.10875000       2.0225000      0.10600000       343.41500       2.1479030     0.016472896
       1951.0000       290.81612       98722.950       12491.508       1.1822500       1.6730000      0.13075000       342.21600       2.0304563     0.015066557
       1956.0000       290.92731       98738.693       12539.608    -0.045750000       1.6647500     -0.16400000       343.24700       2.1295474     0.015470441
       1962.0000       290.98748       98751.439       12537.507      0.84275000       2.3795000     -0.64000000       343.04600       2.0883991     0.016142898
       1967.0000       291.03314       98772.150       12501.629      0.29700000       2.0557500      0.25525000       342.20000       2.1175475     0.021154550
       1972.0000       290.99852       98775.533       12427.359     0.093750010       1.1652500     0.081750010       344.09500       2.1020343     0.015794129
       1977.0000       290.89557       98769.779       12301.225     -0.68525000       1.1027500      0.13200000       343.86800       2.1007434     0.016366615
       1982.0000       290.80359       98763.286       12199.970     -0.64775000       1.6120000     -0.28450000       341.93900       2.0992876     0.018860088
       1987.0000       290.60763       98743.481       12042.789     -0.63325010       2.6235000     -0.10325000       342.05900       2.0679148     0.015972643
       1992.0000       290.54270       98733.837       11968.291      0.68950000       2.0420000     -0.55975000       342.70300       2.1094403     0.019790832
       1997.0000       290.55481       98726.555       11934.267       1.2435000       2.8330000     -0.41150000       341.34200       2.1097420     0.018445249
       2002.0000       290.53142       98721.921       11917.874     -0.10125000       1.0775000     -0.23450000       342.58600       2.2025994     0.022596869
       2007.0000       290.56777       98717.040       11963.891     -0.18225000       2.5125000     -0.47575000       341.67300       2.1380905     0.014025927
       2012.0000       290.54529       98720.519       11959.597       1.0220000       1.6357500     -0.32850000       341.49500       2.0615167     0.015650076
       2017.0000       290.43514       98731.858       11923.769       1.3312500       2.2515000     -0.38100000       342.06500       2.1161901     0.014441811
       2022.0000       290.43326       98739.421       11948.416      0.24650000       2.9985000      0.16075000       343.28400       2.0806015     0.017642855
       2027.0000       290.47369       98754.318       11970.129       1.7332500       4.6287500     0.033250000       341.96000       2.1274141     0.013537024
       2032.0000       290.51593       98760.421       12033.901       1.8865000       3.8902500     0.095250000       342.08900       2.0839285     0.013994437
       2037.0000       290.63981       98760.092       12188.511       1.8612500       2.5297500      0.14225000       342.58500       2.0678718     0.015313800
       2042.0000       290.68703       98761.421       12272.509       1.0132500       3.4497500    -0.014500000       342.60800       2.1106930     0.014153872
       2047.0000       290.70996       98761.487       12351.269       1.2087500       3.1242500     -0.83650000       342.01400       2.0737126     0.017575358
       2053.0000       290.70391       98759.417       12403.352       1.0315000       3.0187500     -0.27750000       341.62800       2.1160430     0.015875364
       2058.0000       290.67995       98757.524       12426.695      0.37375000       2.3522500      0.12775000       342.27700       2.0747406     0.015334943
       2063.0000       290.60401       98751.855       12397.025      0.98650000      0.96975000      0.50925000       343.24800       2.1256801     0.014512249
       2068.0000       290.46750       98741.639       12313.844      0.42525000       1.2070000      0.31400000       344.31000       2.1234828     0.017537230
       2073.0000       290.37826       98734.705       12261.458      0.56950000       1.1310000     0.029000000       342.35200       2.1350012     0.015007544
       2078.0000       290.23634       98724.210       12162.277      0.14750000       2.3772500     0.019000000       343.85000       2.0729537     0.014309524
       2083.0000       290.20105       98721.777       12126.459     -0.91500000       2.0595000   -0.0017500000       342.55600       2.0870463     0.016015795
       2088.0000       290.22327       98722.728       12146.213      -2.4115000       2.9332500     -0.17375000       343.09500       2.1191582     0.014460755
       2093.0000       290.27014       98727.442       12114.365     -0.39750000       2.2002500     -0.10625000       342.87100       2.0565019     0.020946171
       2098.0000       290.37701       98738.944       12060.621     -0.39800000       3.2080000      0.15750000       342.40400       2.1231684     0.013329581
       2103.0000       290.46637       98746.029       12058.130      -1.1707500       4.0017500     -0.22750000       343.10800       2.0608720     0.015056592
       2108.0000       290.61760       98755.560       12060.760      0.51500000       2.8487500     0.056000000       344.01600       2.1181172     0.014973056
       2113.0000       290.64319       98759.841       12061.957      -1.1967500       1.6102500      0.40425000       342.62400       2.1059430     0.016478990
       2118.0000       290.61368       98760.603       12110.001     -0.26175000       4.5860000     -0.12125000       341.83900       2.0935156     0.013189839
       2123.0000       290.59632       98761.709       12118.475      -1.2755000       2.7382500     -0.39250000       342.37600       2.1147136     0.016412852
       2128.0000       290.49362       98760.385       12081.926     -0.64150010       3.2795000     -0.11150000       342.29700       2.1509601     0.012816128
       2133.0000       290.47136       98760.398       12091.903     -0.42700000       3.8917500     -0.20550000       343.55400       2.1814188     0.014526468
       2138.0000       290.50813       98761.134       12130.572      0.21200000       2.2000000      0.33825000       343.09200       2.1953115     0.013827857
       2144.0000       290.46933       98760.190       12148.321     -0.36325000       3.2007500     -0.86950000       343.22600       2.1745204     0.017021375
       2149.0000       290.44908       98756.464       12158.700       3.3105000       3.2425000     -0.20450000       341.68400       2.1115494     0.015790902
       2154.0000       290.39971       98747.246       12138.510       1.6435000       3.5337500     -0.42000000       341.31400       2.1185112     0.017563815
       2159.0000       290.38750       98740.336       12142.700      0.95125000       2.5267500      0.14075000       342.57200       2.1593544     0.014836120
       2164.0000       290.43015       98730.423       12173.249       1.3435000       3.5685000     -0.23975000       342.07800       2.0997521     0.014809213
       2169.0000       290.45006       98724.246       12189.547       1.6467500       4.2472500     -0.51750000       342.07300       2.1424675     0.014164071
       2174.0000       290.46996       98720.514       12205.558      0.89625010       3.3677500     -0.10800000       341.36200       2.1441777     0.012754533
       2179.0000       290.48621       98719.818       12223.818       2.5802500       1.9127500      0.16900000       342.18900       2.2115145     0.015073518
       2184.0000       290.55938       98718.978       12263.553      0.77825000       2.6195000     -0.13250000       342.63000       2.1557556     0.012252129
       2189.0000       290.64347       98720.263       12300.376      0.30575000       1.8807500    -0.018000000       342.48600       2.0827739     0.013780804
       2194.0000       290.78555       98720.153       12380.115      0.99700000      0.90650000     -0.46225000       342.07200       2.1574815     0.015822019
       2199.0000       290.87074       98720.129       12431.258      0.84200010       2.1615000     -0.64425000       342.10200       2.2325617     0.013702205
       2204.0000       290.94526       98720.336       12453.027     -0.29825000       1.6820000      0.16875000       343.21200       2.2110419     0.013922557
       2209.0000       290.93129       98720.336       12475.652      0.54325000       2.7047500       1.2842500       343.19800       2.1504131     0.013774676
       2214.0000       290.85569       98720.336       12490.586      0.15950000       3.5727500     -0.66025000       341.67500       2.1767462     0.012024186
       2219.0000       290.71661       98720.305       12508.193      0.88550000       1.7132500     -0.13925000       342.45900       2.1219749     0.012881392
       2224.0000       290.59254       98720.305       12460.337      0.38450000       4.3782500     -0.16625000       341.61500       2.1302852     0.012262514
       2229.0000       290.38160       98719.809       12384.353       1.2467500       1.4965000      0.28475000       342.15400       2.2042001     0.015297514
       2235.0000       290.29815       98720.778       12255.460       1.8812500       1.7752500      0.25875000       342.68300       2.1960491     0.011195721
       2240.0000       290.22902       98724.964       12161.924       1.6890000       2.5380000     -0.20700000       342.35000       2.1458124     0.014052916
       2245.0000       290.20346       98739.025       12088.749       1.3260000       3.1795000     -0.76375000       341.94700       2.1616282     0.013311491
       2250.0000       290.14257       98742.561       12010.112      0.67300000       2.5395000      0.74725000       342.76900       2.1810494     0.013859210
       2255.0000       290.04208       98738.836       11899.948       2.0670000       2.0725000      0.91675000       341.99600       2.1745329     0.013283589
       2260.0000       289.98395       98740.889       11839.000       1.9032500       4.3892500     -0.42950000       341.19800       2.1607158     0.015476258
       2265.0000       289.90501       98738.888       11792.394       1.7922500       4.4930000     -0.12675000       341.61200       2.1831498     0.014238140
       2270.0000       289.87899       98739.132       11778.847       1.3815000       2.5577500      0.26800000       342.16700       2.1781598     0.014168418
       2275.0000       289.93387       98748.190       11833.998       1.1180000       2.1090000     -0.15350000       342.12400       2.1373572     0.020634549
       2280.0000       289.95389       98751.989       11856.511       1.5400000       3.7477500    -0.048500000       341.31100       2.1561973     0.013781441
       2285.0000       289.97626       98752.938       11876.141       1.0182500       2.2370000    -0.047000000       341.75600       2.1673391     0.015395051
       2290.0000       290.00641       98750.674       11905.428      -1.1480000       2.5177500     -0.56100000       342.05000       2.0126661     0.033612183
       2295.0000       290.04821       98740.635       11935.711      -1.0747500       4.1800000      0.34950000       342.18200       2.1050324     0.013345417
       2300.0000       290.05671       98738.878       11953.108      -1.1812500       3.5922500      0.12950000       341.76100       2.1537188     0.013132259
       2305.0000       290.07203       98738.880       11976.340       2.4190000       4.1085000     0.087250000       341.73300       2.0594969     0.029129645
       2310.0000       290.05923       98739.144       11995.879      0.22250000       3.6965000     -0.15075000       342.40500       2.1251484     0.020686376
       2315.0000       289.97615       98748.293       11998.208     -0.31325000       3.1892500     -0.39550000       341.43700       2.1288593     0.012155187
       2321.0000       289.93102       98752.526       12001.103      0.90950010       3.1637500     -0.52200000       341.27900       2.1388888     0.012109344
       2326.0000       289.90501       98750.344       12014.074      0.64175000       3.1877500     -0.46475000       341.86500       2.1416247     0.019333454
       2331.0000       289.88868       98750.363       12014.244     -0.15175000       2.4090000      0.62225000       342.64600       2.0865402     0.019346974
       2336.0000       289.83576       98752.782       11959.969      0.40925000       3.5465000     -0.15500000       341.48500       2.0995980     0.015303319
       2341.0000       289.90465       98750.019       11989.979     -0.15475000       2.3270000      0.21675000       342.30900       2.1417407     0.018150216
       2346.0000       290.14217       98744.085       12101.658      0.34400000       3.2575000      0.19900000       342.52800       2.1615705     0.015143687
       2351.0000       290.18731       98738.781       12134.736      0.27975000       1.2155000      0.53425000       342.30700       2.1878021     0.012831186
       2356.0000       290.25322       98727.559       12205.791     -0.38175000       2.5462500     -0.57825010       341.79300       2.1523278     0.014830353
       2361.0000       290.22601       98722.283       12207.650      0.81900010       2.2662500     -0.24000000       342.23000       2.1661854     0.014030041
       2366.0000       289.93350       98721.067       12090.637      0.75175010       2.0052500     0.098500010       342.55500       2.1955247     0.011920898
       2371.0000       289.84153       98719.517       12040.257    -0.034250000       1.5235000     -0.55150000       342.11200       2.2133050    0.0096900283
       2376.0000       289.83575       98720.312       11984.008       1.1147500       1.7955000      0.18500000       343.09400       2.1669195     0.014769171
       2381.0000       289.83653       98720.331       11969.991     -0.99250010       3.8715000    -0.070000000       341.86000       2.1735514     0.013406185
       2386.0000       289.90725       98720.201       11991.869     -0.83525000       3.0925000     0.064000000       341.33900       2.1504370     0.012845927
       2391.0000       289.97055       98720.160       12017.342     -0.91875000       2.0137500    -0.087500010       341.53500       2.1670594     0.010219826
       2396.0000       290.09643       98714.859       12114.529     -0.48900000       2.2020000    0.0087500000       341.71800       2.1586444     0.010897080
       2401.0000       290.12469       98720.442       12126.973     -0.47925000       2.2882500      0.32450000       342.96100       2.1321020     0.015729926
       2406.0000       290.11309       98740.633       12077.969      0.52300000       2.6525000      0.20450000       341.69900       2.1315026     0.010631505
       2412.0000       290.10117       98743.017       12075.822     -0.19400000       2.3290000     -0.21725000       341.36200       2.1377455     0.017294757
       2417.0000       290.00088       98742.805       12043.107     -0.29050000       1.5387500      0.15600000       342.33200       2.1645064     0.010439284
       2422.0000       289.97329       98740.262       12042.038     -0.44000000       1.4072500     -0.24250000       341.71100       2.1581409     0.014940246
       2427.0000       289.98916       98717.183       12106.853     -0.13550000      0.54775010      0.40575000       342.50600       2.1772906    0.0098438466
       2432.0000       290.00549       98716.640       12113.754      0.64525000       1.6230000     -0.11475000       343.13200       2.1073536     0.014029690
       2437.0000       290.01981       98732.852       12070.325      0.54775010      0.96225010     0.089500000       343.10000       2.1207284     0.013261448
       2442.0000       290.07192       98738.793       12079.825      0.16675000       1.6070000     -0.18150000       342.12200       2.1553394     0.010412504
       2447.0000       290.19282       98750.002       12096.060      0.37050000       1.8930000    -0.073500000       341.96100       2.1275038     0.011158977
       2452.0000       290.23022       98754.096       12123.098     0.075500000       2.2980000     -0.16725000       342.64000       2.0920492     0.014001172
       2457.0000       290.25586       98749.145       12187.899     -0.38075000       1.8185000      0.47325000       343.04400       2.1516038     0.014865180
       2462.0000       290.26382       98750.792       12229.947     -0.76150010       2.8132500     -0.14500000       342.57100       2.1443790     0.011448166
       2467.0000       290.21192       98754.657       12268.022      -1.2405000       2.9492500      0.24125000       342.85700       2.0954348     0.014681523
       2472.0000       290.18176       98756.677       12292.874      -1.1737500       3.6742500     -0.29150000       341.27000       2.1281387     0.014360436
       2477.0000       290.19179       98760.171       12343.150      -1.2422500       2.4307500     0.096000000       341.43300       2.1399419     0.011815011
       2482.0000       290.12365       98761.524       12312.781     -0.84775010       2.3322500     0.015750000       341.60800       2.1299779     0.011755366
       2487.0000       289.97704       98761.454       12216.570     -0.66425000       3.2895000     -0.19275000       341.50700       2.0716222     0.016005017
       2492.0000       289.90307       98759.793       12155.782     -0.81950000       2.5667500    -0.025500000       341.85900       2.1263933     0.015436087
       2497.0000       289.81417       98756.055       12060.351      -1.4192500       1.6860000     -0.11925000       341.88700       2.0786351     0.013249248
       2503.0000       289.74772       98753.674       11967.150     -0.49150000       1.3662500      0.46850000       342.90600       2.1070083     0.014399334
       2508.0000       289.75303       98750.027       11911.221     -0.83400010      0.51300000      0.18300000       342.73500       2.1155853     0.011460006
       2513.0000       289.73305       98748.941       11862.265     -0.94650010       1.3545000      0.48825000       342.28600       2.1040603     0.015279394
       2518.0000       289.67889       98753.042       11776.122     -0.62600000       2.0537500      0.37200000       342.90500       2.0985894     0.014321934
       2523.0000       289.70499       98747.476       11787.025     -0.46500000       1.7555000     0.055750000       342.51600       2.0897810     0.011591595
       2528.0000       289.80056       98736.642       11879.419     -0.30250000       1.3955000     -0.53450000       341.83500       2.1431524     0.011913633
       2533.0000       289.82173       98730.763       11912.811     -0.75025000       1.8417500    -0.094250000       342.31700       2.1072266     0.014557707
       2538.0000       289.86112       98719.457       11979.291      -1.8140000       1.9847500      -1.1915000       342.15700       2.0770772     0.015565181
       2543.0000       289.86333       98716.117       12005.232      -1.3807500      0.93000010     -0.16650000       341.36400       2.1879765     0.012220298
       2548.0000       289.78932       98719.373       11970.028      -2.0025000       1.6962500    -0.061750000       342.16100       2.0521327     0.013807300
       2553.0000       289.79708       98721.273       12008.917      -1.2072500       2.5377500   -0.0055000000       341.64500       2.1117327     0.015943570
       2558.0000       289.84641       98723.269       12085.820      -1.5105000      0.44600000    0.0087500000       342.37900       2.1652054     0.010548877
       2563.0000       289.86635       98729.023       12132.207     -0.46550000      0.71750000      0.17025000       342.72900       2.1578158     0.011272492
       2568.0000       289.88511       98739.101       12193.672      -1.6087500       1.2417500     -0.17425000       342.15100       2.1275356     0.012483124
       2573.0000       289.93338       98746.106       12242.292      -2.3855000       1.4162500     -0.53100000       342.59200       2.1045660     0.013448999
       2578.0000       290.00010       98755.565       12282.021     -0.65200000       3.5667500    -0.031000000       342.38000       2.0923882     0.015963964
       2583.0000       290.02158       98759.832       12290.999     -0.44225000       2.6425000     -0.47300000       341.55000       2.1002469     0.014861023
       2588.0000       290.04205       98761.556       12282.615     -0.12675000       2.4555000    -0.022750000       342.45700       2.0419154     0.014898931
       2594.0000       290.09094       98760.163       12292.979     -0.31650000       2.5260000     -0.10450000       342.00000       2.1509186     0.012126318
       2599.0000       290.10129       98756.412       12292.659     0.062750000       1.8142500      0.21450000       342.46200       2.1403479     0.016594645
       2604.0000       290.15585       98747.186       12354.149     -0.60200010      0.59425000      0.71625010       343.22200       2.1116088     0.015000693
       2609.0000       290.16921       98740.252       12356.296    -0.045000000       2.3597500      0.17075000       342.67000       2.0790205     0.014803470
       2614.0000       290.05516       98730.272       12250.770       1.0825000       3.3320000     -0.20725000       341.99500       2.0772776     0.012737505
       2619.0000       290.03152       98724.048       12219.878      0.45775000       2.4537500     -0.52250000       341.53800       2.0878571     0.014288927
       2624.0000       290.04481       98720.296       12210.312      0.59650000       1.6642500      0.46825000       342.10200       2.0821092     0.015389126
       2629.0000       290.09248       98717.711       12194.596      0.13825000       1.3672500    -0.099750000       342.23000       2.0947856     0.011791815
       2634.0000       290.12453       98723.311       12219.220     -0.63600000       1.8340000      0.22075000       342.69000       2.0489852     0.011293183
       2639.0000       290.21747       98735.290       12317.207      0.46575000       2.7957500     -0.66800000       341.55400       2.0748411     0.012426522
       2644.0000       290.16928       98744.213       12309.120      0.85375010       2.0605000     0.088000010       342.13700       2.1292933     0.015169101
       2649.0000       290.14893       98751.509       12316.726     -0.91150000       2.0457500      0.13875000       342.62600       2.1073972     0.014640823
       2654.0000       290.12981       98754.878       12325.758      0.26275000       2.9805000      0.30800000       342.71300       2.0794614     0.015449042
       2659.0000       290.09995       98756.025       12318.401      0.87075010       3.4380000     0.029750000       341.95800       2.0706416     0.010496815
       2664.0000       290.07009       98755.935       12306.257      0.89900000       2.9140000     0.068500000       342.05400       2.0643425     0.011166162
       2669.0000       290.05752       98758.044       12307.247     -0.82800010       3.1137500     -0.49650000       341.63800       2.1120207     0.016638363
       2674.0000       290.01572       98750.409       12270.008    -0.058250000       2.0017500     -0.27825000       341.76000       2.0859559     0.013776992
       2679.0000       289.94414       98736.039       12198.017     -0.48175000       2.2887500      0.18050000       341.92100       2.0441115     0.015757674
       2685.0000       289.92352       98713.360       12163.730     -0.61600010       2.4627500     -0.17375000       341.88100       2.0553147     0.011563156
       2690.0000       289.89338       98705.871       12116.805     -0.97200010       2.2882500    -0.016000000       341.41300       2.0724658     0.013523542
       2695.0000       289.83752       98703.386       12039.563     -0.25625000       2.2627500     -0.13775000       341.94200       2.0853532     0.014554212
       2700.0000       289.84036       98708.203       12013.790     -0.29025000       2.0410000     -0.24000000       341.76400       2.0686696     0.016834205
       2705.0000       289.89225       98731.947       12005.849     -0.33900000       2.1042500     -0.11750000       342.31600       2.1006459     0.011631835
       2710.0000       289.90235       98743.641       11993.979      0.34725000       2.0020000    -0.019750000       342.06300       2.0872380     0.015391477
       2715.0000       289.94741       98758.042       12022.311      0.33000000       1.8860000     -0.34250000       342.35200       2.0736356     0.014839134
       2720.0000       289.96482       98764.458       12044.495    -0.086750000       1.3795000     -0.12625000       342.51300       2.0739119     0.011845644
       2725.0000       289.92412       98761.114       12047.075      0.11550000      0.94500010     -0.73700000       342.45700       2.0787354     0.017421041
       2730.0000       289.89371       98755.692       12058.770      0.96075000       1.2132500    -0.041500000       343.10500       2.0977250     0.015676491
       2735.0000       289.87972       98740.922       12106.343       1.8117500       1.1310000      0.50225000       342.43200       2.0507759     0.012050377
       2740.0000       289.84861       98732.980       12122.431       1.3025000       1.4040000    -0.012750000       341.84800       2.0786556     0.015879082
       2745.0000       289.74741       98718.892       12093.229      0.98875000       1.2140000     0.087000000       341.54000       2.0850809     0.013974984
       2750.0000       289.73160       98716.678       12102.767       1.0102500       1.0752500     0.023500000       341.88000       2.0897568     0.013987689
       2755.0000       289.77599       98728.809       12132.885      0.69025000      0.81350000      0.21075000       342.63800       2.0939533     0.012097472
       2760.0000       289.79729       98735.919       12143.598      0.59650000       1.1185000     0.038250000       342.13000       2.0830750     0.013738946
       2765.0000       289.87959       98752.100       12173.269     -0.43800000      0.25125000      0.26550000       342.69500       2.0959001     0.012989762
       2770.0000       289.91718       98758.631       12186.500      0.11625000      0.89325000     0.094250000       342.32000       2.1100684     0.011936933
       2776.0000       289.87476       98759.703       12142.881    -0.022250000      0.12550000      0.11400000       342.37800       2.0691201     0.013071192
       2781.0000       289.90240       98755.196       12155.847     -0.37050000      0.50125000     -0.24375000       342.40400       2.1101634     0.012671276
       2786.0000       289.96392       98739.438       12203.209     -0.55900000      0.92625000   -0.0070000000       341.92200       2.0844249     0.015815733
       2791.0000       290.01744       98731.939       12242.227     -0.87450000       1.7510000     -0.20725000       342.21000       2.1138514     0.014726248
       2796.0000       290.10146       98717.894       12302.869     -0.51150000       2.1287500    -0.071000000       342.15700       2.0599934     0.017456989
       2801.0000       290.18079       98717.098       12362.515     -0.14400000       1.8355000     -0.71050010       341.98000       2.0630117     0.014829252
       2806.0000       290.26931       98730.009       12414.396     -0.90675000       1.1065000     -0.23475000       342.46700       2.0630497     0.015052112
       2811.0000       290.32575       98737.398       12478.199     -0.50625000       1.3000000     -0.25300000       342.36800       2.0419144     0.016374610
       2816.0000       290.38946       98756.265       12569.998     -0.43800000       2.0195000     -0.25550000       342.37800       2.0266340     0.012714165
       2821.0000       290.42258       98759.066       12636.404     -0.29875000       2.3752500      0.29725000       342.57000       2.0442680     0.016687847
       2826.0000       290.37406       98749.572       12687.471      0.23525000       1.5252500     -0.11250000       342.51100       2.0537053     0.018733324
       2831.0000       290.40115       98743.887       12744.798      0.27325000       2.6497500     -0.26425000       342.79300       2.0592900     0.013112802
       2836.0000       290.48933       98724.118       12838.696      0.67550000       1.5045000      0.19375000       343.12000       2.0439395     0.019532246
       2841.0000       290.51543       98721.425       12843.132       1.0052500       2.0620000     -0.30100000       342.68300       2.0931368     0.011240746
       2846.0000       290.55276       98730.732       12795.886      0.68500010       2.8675000     -0.47525000       342.53700       2.0653974     0.016427542
       2851.0000       290.56472       98736.571       12756.440       1.1727500       1.1415000      0.34050000       342.61200       2.0522451     0.013795386
       2856.0000       290.51758       98753.808       12648.708       1.0960000       2.9082500     -0.95325010       342.12000       2.0860141     0.015627975
       2861.0000       290.48710       98759.335       12569.782     -0.10025000       2.2650000      0.34100000       342.69000       2.0614015     0.014381267
       2867.0000       290.46816       98759.204       12511.231      0.39800000       2.0765000      0.27675000       342.60000       2.0636083     0.014561753
       2872.0000       290.43186       98753.691       12443.889     -0.61775000       3.2577500     -0.24850000       341.83200       2.0867342     0.013175954
       2877.0000       290.35791       98736.567       12340.061      0.36800000       2.6375000     -0.16375000       342.09400       2.0256992     0.014031975
       2882.0000       290.32430       98730.844       12281.747     0.010250000       2.5292500      0.35250000       342.57300       2.0710760     0.014336185
       2887.0000       290.30107       98721.569       12235.715     -0.62225000       1.9990000      0.55475000       342.80100       2.0870017     0.014910406
       2892.0000       290.28728       98724.325       12214.635       1.0230000       2.5735000     0.078500000       343.10700       2.0796333     0.014531630
       2897.0000       290.30011       98743.742       12217.799     -0.21075000       2.5192500     -0.29175000       342.71000       2.0806188     0.016907908
       2902.0000       290.30011       98749.499       12236.346     -0.30925000       3.8860000     -0.49575000       342.65100       2.0734085     0.016196615
       2907.0000       290.28945       98758.857       12287.231      0.42925000       1.5837500      0.55725000       343.28800       2.0518988     0.014242174
       2912.0000       290.30593       98756.039       12323.265       1.0332500       1.6607500    -0.039250000       342.70700       2.0671550     0.014216628
       2917.0000       290.33122       98737.380       12377.854      0.42550000       2.5015000     -0.88875000       342.29400       2.0578165     0.016189732
       2922.0000       290.36726       98729.973       12407.724      0.17700000       3.3925000     -0.60075000       342.62200       2.0991510     0.014581904
       2927.0000       290.44151       98716.025       12403.872      0.46600000       1.3805000      0.59275000       342.67000       2.0569167     0.013743819
       2932.0000       290.47493       98718.347       12444.904       1.5100000       1.1777500     -0.32600000       341.99000       2.0656414     0.015230778
       2937.0000       290.54600       98737.994       12529.287       1.3190000      0.83675000      0.14600000       342.80900       2.0578302     0.013113467
       2942.0000       290.49354       98744.413       12539.093       2.0515000       2.2345000     -0.39225000       341.65000       2.0760275     0.015820559
       2947.0000       290.35449       98761.097       12562.334       1.2287500      0.87800000     -0.32325000       342.14400       2.0995940     0.017489984
       2953.0000       290.21636       98754.088       12501.060       1.9542500       1.5775000    -0.065500010       341.81900       2.0615258     0.016120526
       2958.0000       289.97546       98722.045       12321.687      0.84600000      0.77300010      0.63025000       342.62700       2.0754031     0.017223436
       2963.0000       289.92772       98720.240       12280.560      0.88275000       2.4630000     -0.48275000       342.06500       2.0774545     0.014635104
       2968.0000       289.96840       98720.989       12270.132      0.18350000       2.2145000     -0.27725000       342.75600       2.0590014     0.015307408
       2973.0000       290.02318       98727.250       12268.247       1.1917500       1.7002500     0.035500000       342.41100       2.0255974     0.014588372
       2978.0000       290.18829       98758.916       12328.735       1.2840000       2.3150000    -0.021750000       342.36300       2.0646859     0.014147136
       2983.0000       290.26888       98760.932       12359.385      0.61025010       3.5102500     -0.71975000       342.47900       2.0359945     0.014337946
       2988.0000       290.37034       98748.076       12384.348     -0.29925000       2.7402500      0.12000000       342.65500       2.0380586     0.015011884
       2993.0000       290.37514       98741.257       12394.270      0.87425010       2.9535000     0.094750000       341.98400       2.0647035     0.013577542
       2998.0000       290.31089       98722.058       12415.029      0.39875000       1.8975000      0.48825000       342.48700       2.0262666     0.016301263
       3003.0000       290.28224       98722.171       12411.068       2.1597500       2.8035000    -0.094750000       341.96800       2.0334900     0.014609230
       3008.0000       290.21098       98736.619       12378.252       1.7125000       2.4140000     -0.10400000       342.04300       2.0876368     0.017160594
       3013.0000       290.15077       98735.890       12341.801      0.64575000       1.7617500     0.093750010       342.47600       2.0620533     0.013816189
       3018.0000       290.09912       98736.526       12282.603      0.72575000       1.1160000      0.15575000       342.06300       2.0617243     0.015967964
       3023.0000       290.07805       98735.741       12275.262      0.47725000       2.3097500    -0.064000000       341.84100       2.0755212     0.012610818
       3028.0000       290.03013       98723.882       12267.252      0.24675000       2.5852500     -0.33575000       341.85700       2.0925698     0.014669925
       3033.0000       290.04736       98722.561       12283.672      0.53800000       1.9120000     -0.25900000       341.83700       2.0649237     0.016225941
       3038.0000       290.14003       98727.930       12346.917      0.74925010       2.2805000     -0.26350000       341.55600       2.0934662     0.021000621
       3044.0000       290.21585       98740.999       12423.287      0.59875010       1.6652500    -0.057000000       342.23600       2.0389219     0.014186426
       3049.0000       290.25759       98746.218       12461.888      0.53775000       1.5615000      0.30350000       342.42400       2.0396252     0.016960010
       3054.0000       290.27016       98757.381       12484.699      0.45975000       1.7150000     0.050000000       342.01200       2.0568845     0.014345143
       3059.0000       290.29993       98759.070       12526.686      0.78500000      0.97825000     -0.12750000       342.31600       2.0594625     0.020454089
       3064.0000       290.34511       98738.368       12581.623      0.48850000      0.93950000      0.24450000       342.07000       2.0191514     0.014228202
       3069.0000       290.35630       98732.900       12595.667      0.27450000       1.8902500     -0.41200000       342.04700       2.1582220     0.017665191
       3074.0000       290.35513       98732.349       12596.610      0.69575010       2.0137500     0.095250000       342.14700       2.0575561     0.017136683
       3079.0000       290.35765       98733.060       12611.168      0.67225000       1.7360000     0.034250000       342.52000       2.0353883     0.016467832
       3084.0000       290.34620       98736.505       12594.111      0.18475000       1.2822500     0.059250000       342.67400       2.0289636     0.016688140
       3089.0000       290.30020       98753.866       12523.820      0.88150010       1.4132500    -0.099250000       342.15300       2.0219532     0.014320919
       3094.0000       290.26983       98736.781       12502.933       1.6822500       1.4552500      0.67400000       342.65700       2.0676866     0.014411955
       3099.0000       290.24968       98733.302       12479.406     -0.16125000       2.1280000      0.17300000       342.32400       2.0526134     0.013370295
       3104.0000       290.19965       98732.173       12432.203      0.97450010       2.7335000     -0.63075000       341.93000       2.0401517     0.015099683
       3109.0000       290.18729       98732.671       12410.768      0.81950000       2.3067500     -0.11975000       341.84000       1.9595627     0.022444430
       3114.0000       290.19958       98738.085       12403.372      0.95575000       2.2407500      0.18550000       342.29900       2.0506247     0.012998674
       3119.0000       290.24272       98759.615       12412.918     0.012750000       1.9097500    -0.069000010       342.01000       2.0577311     0.016516685
       3124.0000       290.28451       98755.564       12413.173       1.3480000       1.6045000    -0.032500000       342.53500       2.0698697     0.014460229
       3129.0000       290.35642       98739.098       12428.126       1.0842500       1.4525000     -0.28100000       342.23700       2.0533337     0.018761431
       3135.0000       290.37640       98733.055       12383.011       1.1732500       1.3637500     0.044250000       342.54700       2.0482758     0.015894926
       3140.0000       290.40655       98732.618       12405.884     -0.25875000      0.86375000     0.010250000       343.02800       2.1097238     0.014716875
       3145.0000       290.43405       98756.679       12466.310      0.68475000       1.1997500    -0.067000000       342.72700       2.0600644     0.015932023
       3150.0000       290.45369       98759.741       12537.315      0.22200000      0.67975000       1.0030000       342.98700       2.0624233     0.013650030
       3155.0000       290.48989       98741.299       12700.944      0.25000000       2.5195000     0.083500010       342.01300       2.0985282     0.017027032
       3160.0000       290.50848       98738.494       12790.324       1.1325000       1.6200000      0.28950000       342.20900       2.0545059     0.015133819
       3165.0000       290.51461       98732.742       12894.274       1.5450000       1.2290000    -0.033250000       341.79700       2.0764927     0.013748248
       3170.0000       290.50318       98732.420       12904.191       1.5247500       1.1032500     0.097000000       342.03200       2.1152258     0.014961948
       3175.0000       290.45216       98754.803       12774.800      0.84250000      0.58850000    -0.081250000       342.09700       2.0764804     0.015489580
       3180.0000       290.44352       98759.123       12727.622       1.1507500      0.72725000     -0.11800000       341.66600       2.1054019     0.017918754
       3185.0000       290.45803       98748.878       12653.795       1.0295000      0.50800000      0.24975000       342.23600       2.0803287     0.014231411
       3190.0000       290.44799       98744.701       12605.272      0.84650000      0.91025010    -0.070500000       342.19900       2.0755514     0.017236634
       3195.0000       290.47074       98728.888       12665.691      0.77325000       1.1210000     0.046500000       342.21000       2.0887101     0.018646352
       3200.0000       290.45844       98726.636       12640.204      0.42350000      0.94025000     -0.29425000       341.80500       2.0636392     0.016751478
       3205.0000       290.34750       98749.165       12511.230      0.51975000      0.81800000     -0.22400000       342.26600       2.0687527     0.017487779
       3210.0000       290.33199       98748.370       12469.536      0.10625000      0.66425000   -0.0090000010       342.62300       2.0924124     0.014967129
       3215.0000       290.43379       98732.459       12466.331      0.20300000      0.98000000    -0.049000000       342.67600       2.0541573     0.014502797
       3220.0000       290.40914       98729.416       12425.902      0.43850000       1.7140000     0.021750000       342.16500       2.0601444     0.016870038
       3226.0000       290.34830       98712.207       12425.977      0.42500000       2.2655000     -0.50900000       341.70500       2.1081803     0.014530008
       3231.0000       290.28698       98711.165       12395.216      0.77425000       1.0922500      0.43325000       342.54100       2.0691445     0.015818123
       3236.0000       290.06789       98740.454       12272.018      0.68400000       1.6815000    -0.097500000       342.18000       2.0858694     0.014358337
       3241.0000       289.99777       98745.143       12229.940      0.79925010       1.4155000      0.15200000       342.20400       2.0574325     0.017991865
       3246.0000       290.03016       98733.941       12231.065   -0.0032500000       1.2900000     0.084000010       342.45500       2.0674506     0.014532190
       3251.0000       290.04749       98735.294       12233.873       1.0915000       2.7855000     -0.39800000       341.92000       2.0384449     0.017009100
       3256.0000       290.10518       98735.728       12243.485      0.38700000       2.1827500     -0.32625000       341.96100       2.0599433     0.017289027
       3261.0000       290.16918       98734.165       12297.468     -0.39700000       1.3967500     -0.33400000       342.57600       2.0442222     0.017404595
       3266.0000       290.28331       98742.241       12411.441     -0.49950000       1.5215000      0.50525000       342.70500       2.0611631     0.014122447
       3271.0000       290.32624       98741.785       12474.023   -0.0027500000       1.2560000      0.29650000       342.49000       2.0483291     0.020419321
       3276.0000       290.37692       98722.120       12580.075     -0.75300000       1.9827500     -0.10550000       341.77800       2.0803073     0.015171985
       3281.0000       290.36245       98722.207       12609.951     -0.59275000       1.7732500      0.16350000       342.34000       2.0444926     0.015195398
       3286.0000       290.22879       98741.219       12548.129      -1.0702500       2.4562500     -0.83650000       342.43200       2.0481761     0.015183940
       3291.0000       290.17295       98742.091       12519.861      0.40775000       2.5160000     -0.66350000       342.42800       2.0730641     0.016842084
       3296.0000       290.11026       98739.357       12466.695      0.23625000       1.6725000      0.26500000       342.83200       2.0363493     0.018541640
       3301.0000       290.07829       98741.917       12432.815     0.036750000       2.7802500      0.10700000       342.52200       2.0208414     0.016185826
       3306.0000       290.07511       98733.985       12402.352      0.20225000      0.56825000      0.69750010       343.14600       2.0716724     0.014654306
       3311.0000       290.10322       98733.536       12390.188      0.68875000       2.9995000     -0.11600000       342.68100       2.0550665     0.020644579
       3317.0000       290.18594       98753.439       12402.126      0.18950000       1.7060000     -0.29700000       342.67300       2.0647447     0.015372886
       3322.0000       290.22626       98752.728       12391.333     -0.12175000       2.4360000      0.47500000       342.64200       2.0385531     0.015196510
       3327.0000       290.33235       98733.390       12395.390      0.13800000       2.7137500     -0.14650000       341.86500       2.0514620     0.016689817
       3332.0000       290.31088       98734.017       12365.381    0.0080000000       3.4035000     -0.31725000       341.76900       2.0806740     0.016468813
       3337.0000       290.18571       98741.955       12298.192      0.15100000       2.1625000      0.14400000       342.50600       2.1600961     0.018038791
       3342.0000       290.11014       98739.407       12248.654     0.073750000       1.7847500      0.33525000       342.44800       2.0943524     0.014920443
       3347.0000       289.96148       98739.951       12179.847      0.17025000       1.7905000     -0.41050000       341.89100       2.1127373     0.014564402
       3352.0000       289.90046       98742.258       12144.117      0.42650000      0.85750000      0.52350000       342.89100       2.1167221     0.019811963
       3357.0000       289.90160       98733.509       12119.042      0.17400000       1.2002500     -0.17900000       342.53700       2.0960156     0.014151904
       3362.0000       289.88786       98734.025       12111.992      0.17250000       1.2187500     0.034500000       342.77200       2.0680296     0.014658694
       3367.0000       289.88881       98753.414       12132.003      0.83775000       1.1945000     -0.35950000       343.07500       2.0677719     0.014778969
       3372.0000       289.90495       98752.764       12146.266       1.0322500       2.3300000     -0.37350000       341.93700       2.0430070     0.019052350
       3377.0000       289.89713       98734.354       12139.997      0.17525000       2.0965000   -0.0042500000       342.21300       2.0854978     0.013362001
       3382.0000       289.98145       98733.229       12206.853       1.2647500       1.5577500     -0.62000000       342.19700       2.0542987     0.015698039
       3387.0000       290.16403       98736.309       12318.680      0.46325000       1.1795000     -0.12475000       342.62000       2.1068589     0.020782949
       3392.0000       290.25813       98733.371       12418.951      0.83750000       1.6632500      0.10750000       342.47000       2.0858066     0.015084769
       3397.0000       290.41784       98736.392       12620.271      0.27225000       1.5275000      0.29250000       343.00800       2.0958158     0.017006752
       3402.0000       290.44039       98736.175       12674.275   -0.0065000000       2.8997500     -0.41725000       342.45600       2.0775050     0.020422703
       3408.0000       290.30591       98723.964       12627.973      0.71150000       2.0730000      0.51800000       343.17600       2.0756113     0.016015828
       3413.0000       290.26575       98722.581       12621.613      0.14850000       2.1042500     0.066750000       342.83400       2.0547650     0.015835900
       3418.0000       290.19387       98730.554       12562.423    -0.034000000       1.1045000      0.24750000       343.48900       2.0888736     0.017988576
       3423.0000       290.17179       98731.650       12533.686       1.4970000       2.2770000     -0.47425000       342.67300       2.0904683     0.015558312
       3428.0000       290.19987       98727.627       12540.768     -0.37575000       2.0950000     -0.42475000       342.56200       2.0602147     0.015402016
       3433.0000       290.19975       98733.181       12513.312       1.1480000       2.1175000    -0.021250000       342.90700       2.0785914     0.014762626
       3438.0000       290.18186       98749.602       12439.664      0.88475010       2.3622500     0.017000000       342.25400       2.1241985     0.017290245
       3443.0000       290.22004       98744.358       12432.051       1.1810000       3.7867500    -0.053500000       342.64800       2.1111910     0.017876095
       3448.0000       290.28365       98728.338       12445.138     -0.47325000       2.2437500     -0.30025000       342.21300       2.0845083     0.013282091
       3453.0000       290.34292       98731.088       12472.688       1.1055000       2.2742500      0.53925000       342.91700       2.0962823     0.015471306
       3458.0000       290.43528       98729.910       12530.525      0.22225000       2.0890000    -0.048750000       342.60000       2.0927411     0.015429671
       3463.0000       290.51531       98727.613       12593.735      0.57300000       2.3547500     -0.11350000       342.47700       2.0952362     0.017334343
       3468.0000       290.60398       98740.876       12698.387      0.52200000       2.4565000    -0.040750000       342.60500       2.0980326     0.015523118
       3473.0000       290.63621       98745.142       12715.060       1.8755000       3.4565000     -0.32625000       341.77800       2.0498948     0.014821879
       3478.0000       290.66121       98734.439       12709.977       1.2447500       1.7550000      0.19525000       341.98300       2.1270723     0.021675678
       3483.0000       290.66315       98732.263       12701.292       1.9742500       1.7225000     -0.30250000       342.29300       2.0758147     0.016492632
       3488.0000       290.58007       98741.822       12602.947      0.61000000       2.2892500     0.096500000       342.96000       2.1187094     0.017420847
       3493.0000       290.60663       98741.209       12627.076      0.47250000       2.4125000     -0.22250000       342.03100       2.1155753     0.015627952
       3499.0000       290.70784       98727.634       12744.090      0.45275000       3.2007500     -0.26950000       341.89500       2.1045106     0.017608711
       3504.0000       290.74058       98740.793       12814.344      0.24000000       1.5130000     -0.49600000       342.11300       2.1128416     0.014224111
       3509.0000       290.76258       98742.070       12847.880     -0.10125000       1.9207500     -0.31700000       342.37700       2.1073482     0.014677583
       3514.0000       290.73042       98733.749       12834.786      0.13475000       2.3680000      0.15100000       342.44300       2.0861504     0.017070583
       3519.0000       290.70093       98734.572       12802.317     -0.41450000       1.5747500     -0.60925000       342.58200       2.0671368     0.015939941
       3524.0000       290.67149       98736.617       12749.332      0.76550000       1.8270000      0.53175000       342.55300       2.0855234     0.019617486
       3529.0000       290.66438       98736.435       12671.405    0.0080000000       2.2345000      0.17725000       342.63400       2.1440624     0.015080849
       3534.0000       290.60108       98729.116       12608.170       1.2222500      0.61575000      0.34375000       343.06400       2.0997293     0.014937748
       3539.0000       290.49985       98723.970       12526.777      0.62525000       1.2625000      0.50250000       342.92500       2.1066081     0.018448272
       3544.0000       290.39956       98730.433       12442.035       1.5577500       2.2325000     0.081750010       342.37700       2.1232764     0.015557362
       3549.0000       290.33621       98725.509       12381.358      0.48425000      0.95500000      0.74300000       342.66400       2.1162942     0.015540083
       3554.0000       290.27009       98720.231       12275.959       1.2905000       3.2780000     -0.27175000       341.73200       2.0861926     0.019352093
       3559.0000       290.27531       98725.115       12250.092      0.28675000       2.4857500      0.15675000       342.82800       2.1026385     0.016003075
       3564.0000       290.32970       98729.984       12275.308      0.71475010       2.3757500     -0.23050000       342.49400       2.1882786     0.019776001
       3569.0000       290.44172       98723.807       12363.590    0.0020000000       2.3170000     -0.17350000       342.67700       2.0982645     0.014555882
       3574.0000       290.52426       98723.195       12430.101     -0.30725000       2.5820000     -0.59575000       342.25400       2.1280889     0.013778809
       3579.0000       290.67342       98737.687       12547.424      0.90800010       1.5245000     -0.14975000       342.90000       2.1338972     0.019002017
       3585.0000       290.66961       98723.640       12624.040       1.0547500       2.5485000    -0.051250000       342.25200       2.1056320     0.016401412
       3590.0000       290.65708       98722.169       12682.764      0.96450010       3.5030000      0.20550000       342.76600       2.1200660     0.013074864
       3595.0000       290.57495       98736.294       12752.280       1.6112500       2.5805000     -0.18525000       342.63700       2.0859367     0.016444913
       3600.0000       290.53657       98742.123       12797.217      0.10325000       2.8665000      0.39700000       342.45200       2.1460083     0.020639205
       3605.0000       290.52425       98748.416       12850.469       1.5142500       1.8000000     -0.32225000       341.66400       2.1355061     0.013289387
       3610.0000       290.49462       98752.190       12846.742      0.98025010       2.3770000     0.042750000       341.94200       2.1228817     0.013900057
       3615.0000       290.46721       98754.685       12787.146       1.1957500       1.5512500     0.033500000       342.24700       2.1173356     0.014735213
       3620.0000       290.44734       98751.281       12738.936      0.60950010       3.2270000     -0.10850000       342.22600       2.1355873     0.013926429
       3625.0000       290.42444       98735.801       12643.088      0.96850000       1.4832500     -0.14525000       342.79400       2.0997540     0.016137554
       3630.0000       290.39420       98733.164       12570.610       1.7252500       2.7687500     -0.33250000       342.20000       2.0972266     0.014716911
       3635.0000       290.36539       98737.694       12510.860       2.2385000       1.5690000     -0.24225000       342.34800       2.1058454     0.014298801
       3640.0000       290.34535       98734.700       12463.059       1.0777500       1.5290000     -0.93650010       342.10700       2.1160583     0.014722937
       3645.0000       290.30946       98732.926       12411.673       1.4365000       2.5707500    -0.029500000       341.78400       2.0949228     0.013712883
       3650.0000       290.29089       98735.889       12383.210       2.0507500       2.8377500     -0.72200010       342.30800       2.0581973     0.016849751
       3655.0000       290.30011       98740.447       12377.224      0.79850010       1.5805000      0.54075000       342.66900       2.1352858     0.013628461
       3660.0000       290.30011       98735.120       12381.369       1.1917500       2.3015000     -0.39725000       342.58300       2.1143886     0.014799807
       3665.0000       290.32835       98723.114       12433.518      0.71500000       1.4867500     -0.22125000       343.03600       2.1045219     0.013927200
       3670.0000       290.30570       98724.431       12436.014       1.2572500       1.3060000      0.14850000       343.23300       2.1298188     0.014548698
       3676.0000       290.23586       98725.965       12407.239      0.93675010       1.7497500     -0.45725000       342.57200       2.0981955     0.018762288
       3681.0000       290.18209       98723.747       12396.601       1.6647500       1.3025000      0.13775000       342.98000       2.1153517     0.016611278
       3686.0000       290.05790       98731.326       12344.723       3.0202500       2.7672500     -0.53950000       342.30100       2.0745079     0.014791862
       3691.0000       290.01960       98738.901       12336.870       2.0642500       1.1087500      0.23650000       343.07500       2.0867279     0.017765375
       3696.0000       290.04306       98742.236       12377.299       2.0085000       2.3970000     0.040000000       341.88100       2.1087634     0.013998593
       3701.0000       290.04656       98739.875       12395.320       2.7772500       2.4775000     -0.20400000       341.90100       2.0818183     0.014562070
       3706.0000       290.06822       98738.075       12404.249       2.6040000       2.1387500     -0.27250000       341.83800       2.0939558     0.019281029
       3711.0000       290.11213       98742.056       12436.761       2.3067500       1.2707500      0.16150000       342.13900       2.1078853     0.014517271
       3716.0000       290.16307       98742.785       12484.759       3.1347500       1.5467500     -0.21525000       342.51400       2.0642746     0.018131981
       3721.0000       290.21697       98738.736       12522.227       2.2490000       1.3310000     0.098250000       341.91600       2.1193934     0.019156832
       3726.0000       290.29047       98737.795       12543.371       2.2210000       2.4782500     -0.41825000       342.26500       2.1385613     0.017526766
       3731.0000       290.38438       98741.767       12620.853       2.8210000       1.3065000      0.12200000       342.22800       2.1160768     0.014501756
       3736.0000       290.53493       98742.589       12758.340       1.4997500       1.7957500     -0.10400000       342.02600       2.1366169     0.016471383
       3741.0000       290.58309       98738.641       12823.395       1.5010000       1.5237500      0.18100000       342.16300       2.1090308     0.015281870
       3746.0000       290.62443       98739.334       12933.655      0.33300000       1.0695000     0.022000000       342.61700       2.1123412     0.017283912
       3751.0000       290.61864       98741.913       12958.932      0.81675000       1.1757500     -0.28875000       342.03800       2.0915551     0.016868659
       3756.0000       290.44702       98737.733       12842.401      0.76625000       1.1325000     -0.21875000       342.39100       2.1573569     0.016840844
       3761.0000       290.42214       98733.093       12817.577      0.68100010      0.59100000     0.063750010       342.87300       2.1016640     0.014124102
       3767.0000       290.49688       98733.900       12829.982      0.88850000      0.79600010      0.39300000       342.45900       2.1001178     0.017427231
       3772.0000       290.50687       98736.902       12797.635       1.1660000       1.9895000     -0.51450000       342.30200       2.0763978     0.018491421
       3777.0000       290.53491       98736.583       12761.185       1.3260000       2.2160000     -0.35350000       342.30000       2.0881722     0.018154065
       3782.0000       290.57472       98733.635       12739.489       1.3487500      0.36650000      0.21000000       343.32400       2.1135405     0.015685966
       3787.0000       290.58472       98734.025       12679.322       1.0167500       1.0547500   -0.0062500000       343.68600       2.1313228     0.013996074
       3792.0000       290.61058       98736.988       12657.703       1.5220000       2.0615000      0.23300000       342.69500       2.0878351     0.018975778
       3797.0000       290.72214       98735.310       12700.181       1.1595000       1.0775000      0.11700000       343.43600       2.0840847     0.019755597
       3802.0000       290.71675       98734.011       12684.945       1.6367500       1.6635000      0.57275000       342.39300       2.1533068     0.013105265
       3807.0000       290.61644       98741.588       12634.197     -0.24550000       1.9550000     -0.27200000       342.56500       2.1152698     0.017473927
       3812.0000       290.57644       98741.798       12611.450     0.068500000       2.3150000      0.25275000       342.75100       2.1159020     0.016470645
       3817.0000       290.51241       98728.155       12578.190     -0.19300000      0.77075000      0.81750010       343.55500       2.1053512     0.016040090
       3822.0000       290.46842       98728.574       12564.567     -0.57925000       1.1620000      0.29100000       342.73400       2.1214342     0.015109761
       3827.0000       290.44696       98740.892       12563.349      0.35050000       1.2030000     0.096000000       342.61900       2.1359537     0.015247649
       3832.0000       290.44334       98741.627       12583.216      0.20350000       1.7515000     -0.24425000       342.36800       2.1765706     0.012938800
       3837.0000       290.43033       98739.481       12620.958     -0.21025000       1.7562500     -0.13900000       342.91500       2.1246509     0.011809293
       3842.0000       290.45354       98741.452       12655.484     -0.16400000       1.2202500     -0.10125000       343.26900       2.1314861     0.016144390
       3847.0000       290.54116       98742.283       12721.505     -0.37100000       1.3910000     0.082000000       343.36900       2.1900365     0.011954784
       3852.0000       290.57521       98738.654       12754.714     -0.28375000       1.9590000    -0.017250000       342.35300       2.1286196     0.015469848
       3858.0000       290.58606       98734.194       12757.027     -0.58425000       2.2535000     -0.14200000       341.91200       2.1592581     0.013140478
       3863.0000       290.63503       98736.077       12802.491     -0.59400000       1.7600000      0.57750000       342.19400       2.1078488     0.014638603
       3868.0000       290.71024       98737.811       12878.530     -0.47750000       2.5122500     -0.20725000       341.76300       2.1133185     0.017516686
       3873.0000       290.71259       98731.161       12895.589     -0.82050000       2.0720000      0.22575000       342.25900       2.1619768     0.018251770
       3878.0000       290.71467       98722.728       12927.663     -0.76325010       1.5375000      0.27975000       341.98600       2.1495798     0.017504492
       3883.0000       290.69786       98727.274       12904.538     -0.92850010       1.9035000     -0.14000000       341.77700       2.1507579     0.015415457
       3888.0000       290.59362       98731.460       12801.610     -0.56550000       2.1595000     0.033000000       341.77500       2.1448587     0.015276094
       3893.0000       290.57111       98726.592       12751.888     -0.31125000       1.9150000      0.60400000       342.42100       2.1589549     0.018434522
       3898.0000       290.60037       98729.941       12698.883     -0.34125000       2.2207500     -0.24750000       342.47600       2.1324072     0.012882238
       3903.0000       290.60055       98734.191       12673.927     -0.82050000       1.8627500     0.083500010       342.86000       2.1174147     0.018871066
       3908.0000       290.60958       98724.333       12683.063     -0.40950000       2.5832500     -0.18050000       342.05300       2.1147366     0.017388999
       3913.0000       290.59126       98721.887       12643.978     -0.86625000       2.1790000      0.12475000       342.31900       2.1248929     0.018228264
       3918.0000       290.55434       98737.153       12597.873     -0.42750000       1.9650000     -0.31625000       341.89600       2.1577708     0.019578885
       3923.0000       290.53455       98738.661       12555.934     -0.28475000       1.1945000      0.46475000       342.95900       2.1511302     0.013730368
       3928.0000       290.47899       98724.222       12453.590     0.030750000       2.2727500     -0.48300000       342.25400       2.1174637     0.016226370
       3933.0000       290.50628       98723.053       12463.678      0.89500000       2.2932500     -0.32100000       341.93500       2.1285497     0.017287148
       3938.0000       290.58358       98731.327       12533.247      0.29575000      0.98100010      0.22200000       342.45000       2.1066820     0.017332324
       3943.0000       290.64266       98730.550       12596.209       1.0025000       1.7365000      0.49900000       342.33100       2.1345257     0.015751786
       3949.0000       290.76370       98722.668       12735.712      0.57775000       1.6987500     -0.64000000       342.25600       2.1675275     0.015394425
       3954.0000       290.77075       98743.006       12781.591   -0.0022500000       1.9942500      0.64400010       343.07400       2.1514522     0.017779482
       3959.0000       290.80075       98743.641       12857.146      0.20075000       2.5432500     -0.82075010       342.74600       2.1113725     0.016682251
       3964.0000       290.86017       98727.491       13001.438       1.0742500       1.0597500      0.36950000       343.01600       2.1440237     0.017815509
       3969.0000       290.86279       98729.291       13059.349      0.71825000       3.2670000     -0.64150010       341.95900       2.1295457     0.019058119
       3974.0000       290.84082       98733.549       13080.842       1.4227500       1.3010000      0.64075010       342.68200       2.1442505     0.016561431
       3979.0000       290.81501       98728.854       13094.739       1.0470000      0.98150000      0.67625000       343.05800       2.1276507     0.016024436
       3984.0000       290.76175       98727.291       13063.117       1.1380000       3.2055000      0.21975000       342.72800       2.1389279     0.017288116
       3989.0000       290.63842       98743.219       12943.039       1.1912500       3.3955000      0.98475000       342.88700       2.0781279     0.021378392
       3994.0000       290.60024       98729.300       12890.862     -0.29800000       2.7190000      0.24275000       342.74900       2.1261726     0.016969131
       3999.0000       290.58721       98722.674       12851.188       1.3555000       2.1357500      0.51800000       342.93000       2.1366772     0.016590260
       4004.0000       290.63009       98730.414       12827.442      0.73625000       2.0917500      0.11100000       342.91600       2.1308727     0.014312629
       4009.0000       290.64988       98731.676       12791.984       1.9872500       2.0602500     -0.59175000       343.14900       2.1351402     0.016338426
       4014.0000       290.66967       98730.480       12756.737       1.0955000       2.8677500      0.44825000       342.94100       2.1077859     0.013737390
       4019.0000       290.71370       98723.026       12738.108      0.63775000       3.0005000     -0.37625000       342.65200       2.1400352     0.014134283
       4024.0000       290.70097       98729.694       12687.880     -0.41075000       2.9777500      0.24575000       343.16200       2.1273822     0.015155721
       4029.0000       290.65073       98743.241       12608.377       1.6867500       2.3762500    -0.076750000       342.84500       2.1209526     0.014583691
       4034.0000       290.60004       98728.450       12554.944       1.3062500       3.1350000     -0.38450000       342.45000       2.1234843     0.015006894
       4040.0000       290.58767       98729.434       12539.765       1.8002500       3.9175000     -0.29350000       342.55600       2.1250371     0.014113184
       4045.0000       290.63434       98725.991       12585.307       1.4970000       2.7047500     -0.13775000       343.24400       2.0894772     0.016844498
       4050.0000       290.65425       98722.632       12619.405      0.93600000       3.3147500     -0.11300000       341.92600       2.1029199     0.013940383
       4055.0000       290.71884       98738.615       12688.591      0.73875000       1.9935000     -0.55075000       342.77100       2.1436920     0.013682890
       4060.0000       290.71534       98743.971       12730.219       1.2307500       1.8605000     0.038750000       343.05200       2.1219154     0.016492501
       4065.0000       290.59014       98729.392       12718.541       1.1552500       2.1700000     -0.46250000       342.39800       2.1112757     0.013789810
       4070.0000       290.58427       98727.934       12771.355       1.7310000       1.9297500     -0.15600000       342.94800       2.1137855     0.014749242
       4075.0000       290.62218       98744.090       12867.900       1.3892500       1.1165000     -0.26275000       342.85200       2.0884396     0.016235453
       4080.0000       290.64449       98742.462       12937.305       2.8545000       2.8242500   -0.0010000000       342.30800       2.1210908     0.016065555
       4085.0000       290.78466       98723.951       13093.448       2.2025000       3.1437500      0.23775000       342.39500       2.1196294     0.014484216
       4090.0000       290.83053       98723.169       13141.130       2.8987500       1.8287500      0.33350000       342.56300       2.1051393     0.014246344
       4095.0000       290.76598       98725.079       13066.303       1.9987500       2.7335000      0.17900000       342.86800       2.1015300     0.013211306
       4100.0000       290.74619       98723.527       13040.903       1.1045000       1.6060000      0.17800000       343.44700       2.1193912     0.013645436
       4105.0000       290.73891       98740.414       12994.977       1.9667500       1.6182500     -0.35775000       342.85400       2.0831777     0.018536047
       4110.0000       290.69740       98744.610       12935.837       2.3617500       3.6655000      0.24125000       342.87000       2.0949365     0.012945636
       4115.0000       290.63156       98724.416       12889.614       1.3977500       2.1355000    -0.078000000       343.35200       2.0793202     0.013418749
       4120.0000       290.59128       98721.946       12838.996       2.3502500       1.0812500      0.62325000       343.74400       2.1262647     0.016555831
       4126.0000       290.52171       98736.196       12739.591       1.7187500       2.8797500      0.89050010       342.44600       2.1169071     0.014114046
       4131.0000       290.47507       98736.486       12667.062       2.9897500       4.3925000     -0.58775000       342.09300       2.0867063     0.017071722
       4136.0000       290.44902       98733.542       12590.582      0.86450000       3.6605000     -0.49675000       342.04800       2.0904081     0.014972280
       4141.0000       290.44288       98736.505       12555.854       1.6712500       2.4045000    -0.033000000       342.83500       2.0773359     0.016104541
       4146.0000       290.45649       98736.029       12537.882       2.0767500       2.0290000     -0.50875000       342.80800       2.0805093     0.015170491
       4151.0000       290.44682       98734.519       12525.348       2.5335000       3.2942500      0.71125000       342.84100       2.1163303     0.014363802
       4156.0000       290.45773       98742.668       12556.410       3.1090000       4.4410000     -0.41025000       341.67800       2.0803995     0.015105541
       4161.0000       290.45394       98742.122       12574.314       2.7392500       2.7617500    -0.019250000       342.19600       2.0601590     0.019322884
       4166.0000       290.39285       98722.386       12568.413       1.9560000       2.7552500      0.21075000       342.37900       2.1059851     0.014353520
       4171.0000       290.39024       98722.567       12594.317       3.1170000       2.3205000     -0.26700000       342.53700       2.1064206     0.013658640
       4176.0000       290.43846       98741.375       12657.075       2.1910000       3.5995000      -1.5177500       342.57600       2.1320249     0.014639538
       4181.0000       290.45850       98742.345       12697.197       2.4887500       1.9390000     -0.25450000       343.01500       2.0766109     0.016884081
       4186.0000       290.49501       98741.848       12750.188       1.1937500       1.4470000      0.52550000       343.32800       2.0512138     0.015895822
       4191.0000       290.51099       98741.731       12778.081       1.1627500       1.8557500    -0.010250000       343.34200       2.1587515     0.017210005
       4196.0000       290.52686       98723.423       12812.460       2.5057500       1.4335000      0.13700000       343.06400       2.1306512     0.011842197
       4201.0000       290.49893       98721.836       12787.781       2.6272500       3.2157500      0.12625000       342.05400       2.1210954     0.016607313
       4206.0000       290.41138       98737.340       12684.008       2.8092500       3.0390000     -0.42000000       341.80700       2.0608801     0.013411721
       4211.0000       290.38525       98742.947       12652.610       2.0395000       1.8212500     -0.34425000       343.17400       2.0634849     0.016177163
       4217.0000       290.32107       98750.151       12591.945       1.5380000       2.6420000     -0.40850000       341.87400       2.1259197     0.013603792
       4222.0000       290.34570       98752.922       12593.918       1.9257500       2.5395000    -0.060500000       342.56300       2.0961269     0.013386520
       4227.0000       290.49488       98752.596       12700.154       1.9262500       2.4865000      0.17350000       342.95900       2.0814292     0.015630612
       4232.0000       290.53172       98749.357       12717.000       3.0162500       2.1035000    -0.071250010       342.14200       2.1057366     0.013975618
       4237.0000       290.53409       98743.049       12684.146       2.4772500       1.5362500      0.80900000       343.05400       2.0843571     0.014421670
       4242.0000       290.57390       98737.479       12709.186       1.6935000       1.9440000     -0.39375000       342.82600       2.0871758     0.013616455
       4247.0000       290.57156       98723.032       12729.768       2.3957500       2.8825000     -0.90375010       341.71800       2.0803672     0.015127198
       4252.0000       290.61453       98723.281       12765.556       1.3827500       1.9052500      0.50050000       342.95500       2.1108464     0.012818811
       4257.0000       290.74986       98735.122       12865.799       3.0352500       1.9050000    -0.082500000       342.15500       2.0853956     0.015390392
       4262.0000       290.78106       98736.438       12903.714       2.8635000       2.8720000     -0.12775000       342.22700       2.0980651     0.015410895
       4267.0000       290.74538       98741.558       12885.023       1.8385000       1.9450000      0.19600000       342.74800       2.0593026     0.016206082
       4272.0000       290.75526       98741.769       12920.459       3.1552500       2.5455000      0.73525010       342.35700       2.0550915     0.017228553
       4277.0000       290.75361       98728.077       12985.428       2.2802500       1.4880000     0.028250000       342.55800       2.0968331     0.014307978
       4282.0000       290.74354       98728.502       13005.025       2.0272500       2.2745000      0.35250000       342.35300       2.1047610     0.014427084
       4287.0000       290.75816       98742.055       13045.635       1.3322500       2.2152500     -0.50950000       343.41100       2.0799040     0.014170407
       4292.0000       290.75148       98741.125       13037.726       1.5642500       2.9555000     -0.11750000       342.99800       2.1008776     0.014145170
       4297.0000       290.70190       98736.427       12968.970       1.2235000       2.4402500   -0.0080000000       342.34800       2.1025966     0.018389371
       4302.0000       290.68843       98734.857       12920.768      0.86650000       1.5950000    -0.049500000       342.55300       2.0923505     0.014049112
       4308.0000       290.69980       98722.339       12856.742       1.0677500       2.0367500   -0.0060000000       342.39800       2.0913010     0.014779122
       4313.0000       290.69962       98724.716       12798.448       1.6907500       2.2565000      0.22775000       342.28100       2.1123218     0.016970990
       4318.0000       290.70897       98744.040       12726.734       1.5267500       1.6862500      0.30450000       342.56200       2.0863184     0.021852462
       4323.0000       290.69028       98739.688       12669.565      0.64625000       1.7857500     0.052000000       342.39900       2.0919886     0.022285524
       4328.0000       290.66297       98725.160       12606.135      0.68800000       2.0885000     -0.24550000       343.00900       2.0986413     0.014397755
       4333.0000       290.62447       98722.990       12572.576      0.61750000       2.2417500     -0.47675000       342.79900       2.0896750     0.015006760
       4338.0000       290.54259       98710.353       12545.868       1.9275000      0.92525010      -1.2197500       342.84700       2.0880600     0.017136989
       4343.0000       290.53019       98714.556       12553.634      0.79275010       2.2607500     -0.26575000       342.66300       2.0808638     0.017965294
       4348.0000       290.55177       98744.776       12610.065      0.85950010       2.3595000    -0.098000000       343.22000       2.0735602     0.016896698
       4353.0000       290.54147       98742.879       12611.664      0.36425000       1.2057500      0.35050000       343.96300       2.0723805     0.016604751
       4358.0000       290.54728       98723.067       12598.256       1.4605000      0.95000000    -0.019750000       342.78800       2.0930781     0.015606407
       4363.0000       290.55726       98724.674       12623.516      0.57000010       1.7645000      0.28750000       342.87000       2.0980136     0.012456319
       4368.0000       290.54327       98723.593       12635.746       1.0980000       1.4655000     -0.17075000       342.27700       2.1040263     0.015500310
       4373.0000       290.55189       98724.164       12668.476       1.1425000       2.0220000     -0.36975000       342.60800       2.0488112     0.014024910
       4378.0000       290.59397       98745.527       12752.198      0.98925010       1.6830000     -0.19425000       342.79500       2.0751808     0.016529150
       4383.0000       290.62408       98741.278       12805.079      0.65525000       2.0585000     -0.23625000       342.28300       2.1017375     0.015656289
       4388.0000       290.64593       98711.663       12844.644       1.2962500       1.5132500     -0.19425000       343.93700       2.0886449     0.014374091
       4393.0000       290.66595       98712.890       12870.073      0.67900000       2.2285000     -0.27850000       342.78700       2.0860338     0.016514544
       4399.0000       290.71971       98725.000       12914.038      0.98650000       1.5610000     -0.12875000       343.03700       2.0865823     0.014863328
       4404.0000       290.63936       98738.390       12846.833      0.83125000       1.4775000    -0.080000010       343.29700       2.0957192     0.014083919
       4409.0000       290.59966       98743.979       12811.451       1.9145000      0.94625000      0.39900000       343.21100       2.0912749     0.014283780
       4414.0000       290.53007       98725.751       12764.135       2.0132500       1.7095000     -0.32925000       342.57500       2.0688560     0.014627939
       4419.0000       290.48789       98722.090       12726.893       2.5930000       1.3442500     -0.13375000       343.09100       2.0893314     0.016573830
       4424.0000       290.47034       98724.581       12701.403      0.70925000       1.4712500      0.24925000       343.49500       2.0799610     0.020788230
       4429.0000       290.50703       98735.575       12709.199      0.90350000       1.1082500      0.15300000       342.49700       2.0540374     0.015929619
       4434.0000       290.48563       98736.433       12668.323      0.71575000       1.1742500     0.084250000       343.19700       2.0457404     0.013895739
       4439.0000       290.45010       98742.566       12605.192       1.9497500       1.6615000     0.055000000       343.61700       2.0591552     0.013442134
