MIRICO/SHELL project - Processed LDS file generated on
Wed Jul 26 15:18:16 2017
Time stamp for record start
05/12/2017  13:23: 0.0001
Nb of points in the record
         440
Beam position index
       7.0000000
Beam angle (degrees)
       19.274000
Open Path length (m)
       33.730000
****************** Temporal data record ************************
Elapsedtime_sec Temp_K Press_Pa Humidity_ppmv WindX_m/s WindY_m/s WindZ_m/s Speedofsound_m/s CH4vmr_ppmv CH4vmrerror_ppmv  
      0.00000000       288.95487       98906.292       13790.714       4.7190000      -3.1785000     -0.74950000       341.61200       2.0973712     0.017700472
       4.9999729       288.93000       98905.274       13779.355       4.9495000     -0.75650010     -0.37075000       341.51400       2.0589745     0.021179001
       9.9999860       288.97532       98904.194       13793.500       4.2815000      0.89950010      0.70950000       341.84100       2.1102441     0.035005497
       14.999999       288.99407       98905.142       13807.405       4.5425000     -0.74950000      0.15950000       341.47100       2.1561452     0.024415012
       19.999972       289.02512       98906.090       13841.565       5.6195000      -2.7267500      0.50500000       341.85800       2.2073971     0.023239282
       25.999980       289.11786       98904.578       13938.190       3.7662500      -1.3572500     -0.48450000       341.63200       2.3167170     0.035205164
       30.999993       289.07187       98909.397       13949.036       3.6980000      -4.1562500      0.47875000       341.58300       2.1063673     0.020726040
       35.999966       289.09473       98911.343       14021.592       6.2337500     -0.93650010      0.41450000       341.31600       2.1063002     0.031621019
       40.999979       289.19755       98910.177       14200.386       4.8412500      -1.1402500       1.2582500       341.63200       2.1727884     0.029880702
       45.999992       289.21558       98910.118       14275.358       4.8657500      -2.3990000      0.25600000       341.80500       2.2060617     0.027629083
       50.999965       289.18451       98911.819       14326.557       4.9320000      -1.2040000     -0.10575000       341.74700       2.2583919     0.036913548
       55.999978       289.20445       98910.732       14361.808       3.9030000      -2.1517500     -0.74125000       341.62500       2.1421813     0.033329492
       60.999991       289.15909       98905.320       14287.699       7.1122500      -1.9885000      0.21275000       341.64600       2.0638465     0.015006189
       65.999964       289.18374       98904.373       14270.637       6.7150000      -1.6692500      -1.2722500       341.38700       2.0743870     0.017859507
       70.999977       289.34679       98906.123       14295.590       4.2100000     -0.32775000      0.60025000       341.64000       2.2407422     0.032926052
       75.999990       289.42423       98905.154       14306.539       4.1977500       1.0050000      0.97525010       341.81500       2.1578690     0.030948016
       80.999963       289.50755       98904.477       14325.519       5.1642500     -0.16700000      0.86250000       341.71600       1.9935770     0.012598326
       85.999976       289.52289       98905.522       14333.862       4.5720000      -2.0447500       1.1252500       342.36000       1.9761213     0.014053807
       90.999989       289.43065       98908.945       14357.534       5.6407500      -1.8022500      0.20200000       341.83400       1.8550457     0.013998154
       95.999962       289.39013       98905.718       14339.906       5.9642500     -0.37775000     -0.69275000       341.68800       2.1195596     0.020563129
       100.99998       289.30496       98892.005       14280.350       6.0030000      -2.2212500      0.41175000       341.98800       2.1075589     0.027682764
       105.99999       289.27890       98893.486       14236.810       6.7512500      -1.6827500     -0.22150000       341.28600       2.1888451     0.021323663
       112.00000       289.33753       98907.310       14143.497       6.2275000      -1.0385000     -0.46400000       341.46100       1.8956575     0.014475121
       116.99997       289.35758       98905.658       14100.968       6.9480000      0.84075000       1.3000000       342.64300       1.8563861     0.016281065
       121.99998       289.36957       98902.317       14079.341       6.5432500      -2.5557500     -0.77075000       341.73100       2.1013647     0.026326561
       127.00000       289.41393       98907.454       14076.687       4.4575000      0.65550010       1.8100000       342.32900       2.1906267     0.026067395
       131.99997       289.46461       98908.359       14098.786       5.0087500      -2.7025000      0.25825000       342.23700       2.0574740     0.030843603
       136.99998       289.51841       98903.357       14123.323       7.5040000      -1.3392500      0.87050000       342.30900       1.9967105     0.015817782
       141.99999       289.64171       98902.452       14160.665       5.9217500      -2.5227500     -0.87825010       341.68900       2.0268814     0.015873830
       146.99997       289.67989       98907.448       14213.006       8.2945000      -2.6350000     -0.37575000       341.41200       2.3344970     0.035580821
       151.99998       289.64388       98908.352       14297.735       8.1677500     -0.35675000     -0.55700000       341.74100       2.3741578     0.056401947
       156.99999       289.65368       98903.415       14345.367       8.6950010      -3.2167500      0.41600000       342.01400       1.9632497     0.016446669
       161.99997       289.62932       98902.738       14390.974       7.9325000     -0.18425000      -1.2645000       341.88300       2.0400495     0.014903658
       166.99998       289.64726       98907.827       14431.559       6.7647500      -2.4355000     -0.17600000       341.20400       2.3880718     0.033518673
       171.99999       289.71976       98908.509       14421.857       7.0205000     -0.71275000      0.86175010       342.00200       2.0321417     0.020055857
       176.99997       289.77020       98903.453       14464.323       4.7627500      -2.8465000      0.94475010       342.43000       1.8740994     0.024041811
       181.99998       289.80784       98904.595       14557.605       5.9772500     -0.33525000     -0.90400000       342.52800       1.9335044     0.015366180
       186.99999       289.87155       98906.851       14614.342       6.0780000      -2.1862500     -0.80575000       341.58400       2.0009093     0.022695574
       191.99996       289.95821       98895.441       14653.962       5.9692500      -3.0315000     0.036500000       341.55400       1.9216521     0.016443344
       196.99998       290.02754       98891.961       14727.023       5.0775000      -1.7757500     0.012250000       342.06100       2.0188476     0.019621637
       202.99999       290.15170       98904.940       14829.418       4.6595000      -4.4905000     -0.38750000       342.12000       2.0322867     0.014564897
       208.00000       290.18239       98908.724       14888.214       6.0115000      -3.4385000     0.028750000       341.91300       1.8889530     0.020623392
       212.99997       290.16772       98905.682       14984.510       4.3177500      -3.3260000      0.58850000       342.63000       1.9788523     0.017193689
       217.99998       290.14498       98904.659       15015.259       5.1047500      0.13425000      0.71300010       341.19600       2.0538668     0.016503391
       223.00000       290.05789       98905.783       14977.467       4.6317500     -0.33175000      0.88050000       342.04300       2.0550798     0.022271057
       227.99997       290.02410       98905.105       14961.224       3.7240000      0.92250000      0.32725000       342.65800       1.9852675     0.036865976
       232.99998       290.00016       98899.199       14934.165       4.5115000      -1.8135000      0.28925000       342.47100       1.9399448     0.013518563
       238.00000       289.98651       98899.431       14904.293       2.9837500      -2.7252500      0.25925000       342.91800       2.0945803     0.022666881
       242.99997       290.00000       98905.614       14856.770       6.4675000      -1.5907500     0.028250000       341.64700       2.0647573     0.028317404
       247.99998       289.99989       98905.970       14832.493       6.1457510      -1.7110000      0.56150000       341.57900       1.9009005     0.026953508
       253.00000       290.00073       98902.761       14797.571       5.2000000      -1.0727500      0.96775010       342.73400       2.2858100     0.043967817
       257.99997       290.00102       98907.103       14805.939       6.8557510      -1.3550000     -0.35925000       342.24100       2.1420665     0.023305111
       262.99998       290.02222       98918.439       14881.607       6.9042500      -1.7812500      0.14375000       342.41900       1.9484443     0.016242442
       267.99999       289.98967       98914.913       14871.758       9.0605000     -0.11575000      0.10675000       342.34300       2.1625615     0.014906067
       272.99997       289.92560       98902.987       14827.311       5.7040000      -1.7757500      0.62100010       342.47300       1.7918820     0.023619599
       277.99998       289.86928       98905.104       14817.748       5.3110000      -2.1157500      0.56500000       342.63600       2.0366316     0.023313685
       282.99999       289.77066       98907.292       14762.619       3.6290000      -1.5922500    0.0067500000       342.85400       1.8766070     0.017957039
       287.99997       289.70743       98902.359       14755.303       7.2595010     -0.84000000     -0.51375000       341.26100       1.9961014     0.013482326
       293.99997       289.67039       98904.651       14855.063       5.3172500      -1.0595000      0.19550000       341.40000       2.0157996     0.014023922
       298.99999       289.60096       98909.613       14803.048       4.4107500      0.22575000     0.016750000       342.04100       1.8919469     0.013400453
       304.00000       289.50519       98904.791       14681.925       7.9155000      -1.5787500     -0.65050010       341.65600       1.9279371     0.013023065
       308.99997       289.45372       98903.507       14595.235       3.6890000     -0.60200010       1.5540000       342.27300       1.8940003     0.013177853
       313.99999       289.37537       98916.974       14435.947       5.4075000      -2.1047500      0.73675000       341.65400       1.9118432     0.012532195
       319.00000       289.39011       98918.521       14364.558       7.3417500      0.65075000     -0.80850010       341.40000       2.0599619     0.022480919
       323.99997       289.47509       98902.323       14324.041       5.9185000      -1.7017500    -0.080500010       341.78100       1.9300069     0.013326004
       328.99999       289.55225       98904.749       14350.431       5.9612500      -1.3595000     -0.12825000       341.81500       2.1810680     0.015710734
       334.00000       289.67973       98922.671       14412.250       6.0205000     -0.34600000      0.12300000       341.73300       1.8003512     0.015913944
       338.99997       289.77904       98922.309       14521.050       4.4720000     -0.36550000     -0.23650000       341.91200       2.0989271     0.018262356
       343.99998       289.91489       98914.443       14739.399       3.8030000      -1.3465000      0.75100000       342.21600       2.0332747     0.013959332
       349.00000       289.93976       98916.296       14869.862       5.0110000      -2.2720000      0.39450000       342.09600       1.9230816     0.015372607
       353.99997       289.91384       98917.780       15016.580       4.7715000      -2.7705000      0.22900000       341.93100       2.0850411     0.030031079
       358.99998       289.89677       98911.004       15081.223       5.6245000      -1.3712500     -0.16300000       341.74400       1.9515411     0.018286756
       364.00000       289.79377       98903.363       15097.181       4.8857500      -2.2020000    -0.057500000       342.21800       1.9052636     0.014383038
       368.99997       289.77107       98906.067       15074.323       4.5042500    -0.060500000      0.26050000       342.31300       2.0647645     0.036052065
       373.99998       289.79999       98906.304       14987.137       3.3285000     -0.39600000      0.65675000       342.60900       2.0575408     0.020571627
       379.00000       289.79999       98901.373       14915.236       4.2172500     -0.87925000      0.25875000       341.92700       1.9647571     0.013563515
       384.99996       289.78669       98906.761       14774.198       5.0135000      0.52800000      -1.2437500       341.70000       1.9992013     0.025754134
       389.99998       289.82959       98907.334       14733.964       5.5902500      0.46900000     -0.66650000       341.59000       1.9557905     0.015478552
       394.99999       289.89412       98892.965       14713.622       4.4797500      -1.4942500    -0.036250000       342.84100       2.1052204     0.028273479
       399.99996       290.01600       98901.266       14768.060       5.6650000      -1.0460000      0.19400000       342.03700       1.9875136     0.020067052
       404.99998       290.07071       98906.572       14776.983       6.8815000     -0.39725000     -0.34575000       341.88200       2.1005347     0.022542229
       409.99999       290.01046       98901.810       14718.080       4.1215000     -0.77500000     -0.69050000       342.87800       2.0068750     0.018092336
       414.99996       290.03809       98903.460       14726.146       3.9012500     -0.53625010      0.63975000       341.87200       1.9053056     0.013032454
       419.99997       290.07516       98919.420       14753.103       4.9370000      0.17900000      0.71900000       342.24900       1.8904100     0.013991136
       424.99999       290.13078       98922.992       14786.534       6.0010000      0.54475000     -0.23725000       342.63400       1.8609422     0.017080384
       430.00000       290.22327       98921.647       14845.960       3.5165000     -0.21975000      0.27775000       342.37500       2.1274307     0.023202148
       434.99997       290.40995       98914.779       14957.544       4.3390000   -0.0072500000     0.077250000       342.08600       2.0372126     0.027318682
       439.99999       290.49768       98916.874       15077.261       4.4597500       1.0265000       1.8797500       342.15800       1.9642934     0.024227652
       445.00000       290.55501       98916.418       15185.295       6.0500000      0.20325000    -0.072000000       341.70100       1.9381390     0.015671393
       449.99997       290.60057       98903.155       15454.146       4.7820000     -0.53500000      0.29850000       341.77200       1.9968139     0.010445937
       454.99999       290.65099       98903.806       15638.029       5.6355000      -3.5057500     -0.85675000       341.98300       2.0341489     0.025707337
       460.00000       290.71539       98905.804       15835.116       4.7245000      0.78000000     -0.20975000       342.13900       1.9161793     0.013912843
       464.99997       290.75625       98903.478       15953.154       3.2665000      0.14075000     -0.75700000       342.55000       2.0484860     0.015801904
       469.99999       290.78481       98904.833       16004.055       2.6310000     -0.24100000      0.74375000       343.05900       1.8138201     0.025950990
       475.99999       290.80241       98924.305       15958.207       2.5335000     -0.88950000      0.22300000       344.00500       1.8532722     0.024633325
       480.99997       290.86781       98909.554       15893.219       4.4180000     -0.62600000     -0.10050000       342.23400       2.0564585     0.021033595
       485.99998       290.90789       98908.099       15860.593       3.4245000     -0.36600000    -0.086500000       342.17100       2.0566675     0.024698514
       490.99999       290.98134       98924.336       15837.334       2.4245000     0.064250000      0.54325000       342.73800       2.0629721     0.026157973
       495.99997       291.01938       98922.797       15814.521       3.3480000     -0.59000000     -0.46300000       343.29500       1.9752141     0.035104343
       500.99998       291.02854       98904.106       15829.527       2.4192500      -1.7555000    -0.065250000       342.84200       2.0895804     0.039865277
       505.99999       291.00602       98903.532       15794.431       1.5137500     -0.94475010      0.44250000       343.75400       1.7511817     0.022939071
       510.99996       290.96043       98906.396       15743.623       3.9782500     -0.86850010     0.014750000       343.01400       1.9556563     0.026247648
       515.99998       290.89852       98903.612       15666.848       3.9925000     -0.37925000     0.031000000       343.09600       1.9595048     0.030144834
       520.99999       290.75305       98910.977       15525.974       2.1375000    -0.097500000      0.14475000       343.02100       1.5436694     0.032941363
       525.99996       290.67549       98917.666       15416.478       4.1567500      -1.1292500      0.55350000       343.14100       1.9369910     0.012845426
       530.99998       290.64843       98913.458       15325.871       3.3942500     -0.74450000      0.13575000       343.25500       2.1357694     0.040069496
       535.99999       290.58778       98913.747       15204.771       4.2672500     -0.64175000      0.44925000       342.37000       2.0628891     0.037869028
       540.99996       290.51685       98927.418       15019.086       5.0430000      -2.3220000     -0.24475000       342.49300       1.9541540     0.024126859
       545.99998       290.48752       98933.180       14933.960       4.2582500      -1.2222500      0.10650000       342.97800       1.9968705     0.022481677
       550.99999       290.43868       98930.306       14858.325       4.4732500      -1.4585000     -0.57150000       342.52100       2.0070177     0.016336290
       556.00000       290.43230       98930.288       14840.582       3.5392500     -0.64825000      0.16250000       343.93000       1.8520801     0.010389763
       560.99997       290.59738       98937.488       14999.551       4.9982500      -2.9912500      0.17600000       342.30500       1.8632824     0.014035051
       566.99998       290.56617       98929.819       15044.782       4.7485000      -1.3432500     -0.51250000       342.29600       2.2723487     0.027366339
       572.00000       290.40444       98905.110       15052.866       3.6470000     -0.95450000      0.63600000       342.13100       2.0698331     0.031859341
       576.99997       290.32046       98902.131       15027.911       5.5575000      0.45800000      0.12075000       342.18300       1.9433521     0.032277870
       581.99998       290.14924       98908.499       14940.969       5.7307500      -1.7000000     -0.55825000       341.64100       1.9832313     0.035761962
       586.99999       290.03982       98903.534       14842.058       4.2115000     -0.59000000      0.85125010       342.60800       1.9334672     0.017598287
       591.99997       290.02351       98902.318       14711.521       3.4130000      0.14775000      0.24350000       342.28800       1.8671525     0.012597846
       596.99998       289.98376       98907.296       14595.635       3.9762500      0.96800010     -0.17700000       341.29500       1.9832897     0.021142856
       601.99999       289.88392       98904.454       14393.505       2.7625000      0.43200000      0.21575000       342.86300       1.9635918     0.024430116
       606.99997       289.87843       98903.571       14326.753       3.7100000    -0.023250000       1.1862500       342.91600       1.8298808     0.014508940
       611.99998       289.97445       98921.846       14340.966       5.3690000     0.043250000      0.27425000       342.32400       2.1058699     0.028804866
       616.99999       290.01463       98924.597       14359.231       4.3840000     -0.39675000      0.87675010       342.62800       1.7198336     0.018739804
       621.99997       290.08926       98903.844       14473.474       4.4512500     -0.49825000     -0.37550000       341.42200       1.9314700     0.012948354
       626.99998       290.12231       98902.753       14544.114       5.9425000      0.21800000     -0.19025000       342.11100       1.7960367     0.015173038
       631.99999       290.12633       98918.799       14612.520       4.2317500      -1.5830000      0.34275000       342.67100       1.8185565     0.026305503
       636.99996       290.09936       98916.402       14656.985       4.9777500     0.051250000   -0.0090000010       341.84400       1.9468966     0.015853660
       641.99998       290.03714       98903.218       14696.760       1.8680000      -1.2197500      0.87250010       343.59200       2.0237400     0.021359325
       646.99999       289.98396       98904.954       14715.299       4.3437500      -2.0547500     -0.36600000       342.11400       1.8571475     0.013783312
       653.00000       289.87136       98904.633       14708.626       3.9130000      -2.4317500      0.24375000       342.97800       1.9546905     0.018033149
       657.99997       289.80737       98902.944       14675.268       2.3625000     -0.91950010    -0.014500000       344.09600       1.8133581     0.016048708
       662.99998       289.78083       98917.183       14627.602       2.4457500      -1.3360000      0.40425000       342.54400       2.0914615     0.013927263
       668.00000       289.71402       98918.122       14556.440       3.8542500     -0.73200010      0.25625000       342.78000       2.5678021     0.023080581
       672.99997       289.62580       98897.035       14462.944       6.3712500      0.33675000      0.11400000       341.71100       3.6231302     0.014214847
       677.99998       289.55564       98897.730       14335.693       3.9947500      -1.4577500     -0.48500000       342.22000       3.6111003     0.023368532
       683.00000       289.43666       98918.602       14131.642       4.4040000     -0.70450000      0.58625000       342.80100       5.1661385     0.027381189
       687.99997       289.42223       98916.459       14040.212       1.8560000     -0.66525000      0.39225000       343.60100       4.2326838     0.035722780
       692.99998       289.49577       98903.361       13959.101       5.6760000     0.093750010     -0.12325000       342.21100       3.4770615     0.014523399
       698.00000       289.50561       98905.569       13907.862       5.6400000      -1.3222500     -0.30350000       342.16900       3.0804997     0.018953352
       702.99997       289.55708       98904.657       13943.974       5.6950000      0.17550000     -0.22175000       342.50000       3.8213333     0.030767446
       707.99998       289.56410       98902.947       13954.450       5.4655000      0.88100000       1.4020000       342.41100       2.5635564     0.014200301
       713.00000       289.49073       98916.052       13927.696       5.7412500      0.84675000     -0.89900000       341.91300       4.2673049     0.013504659
       717.99997       289.49347       98918.688       13977.087       5.3660000     -0.13700000     -0.31250000       342.31600       2.8334509     0.018272753
       722.99998       289.53154       98902.376       14088.233       5.2480000     -0.77475010     -0.79675000       342.17700       2.6271571     0.015342479
       727.99999       289.56774       98903.372       14190.775       4.6782500    -0.085250010      0.49900000       342.45200       7.6173751     0.027310095
       732.99997       289.63011       98924.284       14314.140       5.0797500      -1.0377500      0.40175000       342.26200       5.8806966     0.031114229
       737.99998       289.67964       98921.572       14460.081       3.1577500      0.11975000      0.52325000       342.07400       4.3634341     0.023400727
       743.99999       289.74854       98905.589       14684.762       4.7142500     -0.94825010      0.19575000       342.00900       2.7349025     0.011841744
       749.00000       289.77982       98903.427       14803.144       4.1090000      -2.5615000      0.20000000       342.06000       3.0165120     0.018480598
       753.99997       289.81158       98893.599       14960.042       4.8027500      -3.1652500     -0.35700000       341.93300       4.4244685     0.020611882
       758.99999       289.80416       98892.080       14964.886       5.9605000      -1.2407500     -0.90425000       341.63700       4.4804558     0.017047435
       764.00000       289.77112       98906.457       14853.482       3.7317500    -0.040250000      0.29025000       341.82100       5.1587190     0.015498493
       768.99997       289.71383       98907.814       14755.124       5.3007500      -1.6235000     -0.71800010       342.09200       2.4620743     0.017973286
       773.99999       289.59567       98897.425       14571.646       3.4710000       1.6767500      0.50200000       342.24800       3.1651025     0.020292201
       779.00000       289.56364       98901.954       14447.983       5.3540000      0.12625000     -0.42650000       341.90500       4.1304284     0.024401857
       783.99997       289.53150       98918.552       14305.274       4.4005000       1.0385000      0.30400000       342.21800       3.1683672     0.021103393
       788.99999       289.54747       98915.310       14239.428       3.8310000     -0.14750000      0.11875000       341.76600       2.2775550     0.028178621
       794.00000       289.63905       98903.822       14192.214       4.1157500      0.51150000     -0.36650000       341.44100       2.5883037     0.014157922
       798.99997       289.68945       98906.520       14206.133       2.0247500      -1.5055000      0.55100000       342.14000       4.3429642     0.021747601
       803.99998       289.74884       98903.806       14305.102       4.4617500      -1.9125000    -0.072500010       341.76200       4.1635681     0.030064196
       809.00000       289.78045       98904.422       14358.090       6.2365000      -2.2590000     -0.99675010       341.48100       6.4364050     0.019667250
       813.99997       289.80331       98923.426       14427.102       5.1485000      -2.9002500     0.043500000       341.74000       3.1742369     0.030826523
       818.99998       289.81484       98923.295       14495.683       5.3960000     -0.86275010     -0.45200000       341.91400       3.3535579    0.0094080924
       824.00000       289.80891       98901.497       14569.833       6.8380000      0.57875000      0.46650000       341.47700       6.6992700     0.015360966
       828.99997       289.79028       98904.677       14606.863       6.8505000      -2.8912500     -0.74575000       341.61700       4.5387834     0.023624802
       834.99998       289.74503       98923.411       14650.324       5.5730000     -0.88200000      0.36800000       342.56300       6.7041171     0.015497981
       839.99999       289.74671       98917.759       14662.825       5.2350000     -0.18850000     -0.68525000       342.55500       2.5475544     0.015373223
       844.99996       289.74446       98910.834       14623.728       4.7837500      -1.0530000    -0.068750000       342.25300       3.3520557     0.011737518
       849.99998       289.82935       98898.247       14707.795       5.3062500      0.54500000     -0.21950000       341.70200       4.3160428     0.024797843
       854.99999       289.82489       98891.407       14709.341       3.9335000      -1.2427500      0.31025000       342.21400       3.6456407     0.011502170
       859.99996       289.72420       98910.417       14669.275       3.9482500     -0.63525000     -0.63300000       342.25600       3.5169179     0.025481753
       864.99998       289.65593       98914.050       14621.655       5.6455000      0.12800000      0.82950000       342.36200       4.6393493     0.031849080
       869.99999       289.51478       98893.785       14484.853       6.4642500      -2.3995000      0.10575000       341.59200       5.6330037     0.038251268
       875.00000       289.43139       98892.103       14384.365       3.9340000      -3.1245000     -0.16100000       341.87400       4.5102473     0.030068444
       879.99997       289.38488       98896.560       14298.821       4.2845000      -2.1357500      0.16875000       342.10700       5.9905617     0.022528619
       884.99999       289.40110       98904.451       14244.293       3.8582500      -1.4107500      0.29950000       342.17900       5.1481536     0.014565930
       890.00000       289.37128       98907.718       14153.723       3.8130000      -1.1172500       1.0120000       342.30200       5.1487582     0.027704160
       894.99997       289.34480       98923.796       14039.060       5.9222500     -0.41500000      0.12175000       341.67700       5.3876706     0.024547425
       899.99999       289.34538       98904.249       14007.215       4.4622500      0.58425000      0.10825000       341.70900       4.0382815     0.030653099
       905.00000       289.34392       98901.290       13998.829       3.2400000    -0.037750000     -0.14450000       342.11600       3.5733098     0.020844187
       909.99997       289.38517       98922.888       14086.486       3.7887500    -0.070500000      0.80075000       341.83300       3.3624108     0.021670898
       914.99999       289.40623       98923.513       14150.660       2.7235000     -0.32400000      0.33675000       342.29400       4.2407030     0.025741619
       920.00000       289.41501       98918.000       14211.683       3.6802500      -1.2900000      0.11250000       341.76400       3.0898730     0.028240637
       925.99997       289.39310       98910.945       14270.945       3.3885000     -0.45775000     0.079000000       342.18400       2.5679493     0.015775902
       930.99998       289.48200       98893.800       14397.681       5.1230000      -1.4640000      0.31200000       341.44400       3.8568919     0.015854774
       935.99999       289.51070       98890.819       14477.774       4.3395000       1.0225000     -0.72300000       341.73900       3.5081278     0.021717089
       940.99997       289.53202       98921.478       14556.372       4.7910000      -1.1020000     -0.16725000       341.29500       2.6570563     0.015894694
       945.99998       289.56066       98925.687       14629.208       5.9602500      0.76350000     -0.25650000       341.63400       3.5491245     0.026905693
       950.99999       289.54382       98902.788       14675.098       3.9197500      0.92550000      0.15975000       341.74900       2.8770038     0.027367547
       955.99996       289.54522       98903.377       14706.958       5.0100000     -0.59875010     -0.18325000       341.87200       8.3428902     0.024849213
       960.99998       289.60449       98909.861       14765.232       5.8330000      -1.3085000       1.6225000       341.68500       3.5872196     0.019904744
       965.99999       289.61203       98909.092       14769.466       5.3257500      -2.2010000    -0.060750000       341.55200       7.3284393     0.022488432
       970.99996       289.55263       98926.089       14684.389       4.8857500      -1.2342500     0.076750000       341.45400       2.7925066     0.016191074
       975.99998       289.54410       98930.230       14656.009       5.8995000    0.0082500000      0.15350000       341.73900       4.6927061     0.015433877
       980.99999       289.53020       98904.472       14615.412       4.1682500      -1.0040000     -0.27050000       341.95300       3.8240991     0.034210775
       985.99996       289.54267       98901.385       14606.654       4.6295000      0.49825000      -1.2455000       341.98600       2.2331710     0.021863919
       990.99998       289.62478       98919.367       14651.455       4.1397500     -0.71900000     -0.14950000       341.98100       4.6522673     0.022696311
       995.99999       289.66407       98922.218       14687.651       4.6460000     -0.42625000     -0.29150000       341.80000       4.6180743     0.048853745
       1001.0000       289.70476       98923.387       14736.992       4.9790000     -0.25200000      0.16125000       341.75500       5.6915439     0.022918766
       1006.0000       289.71222       98927.083       14776.921       3.9577500     -0.30200000     -0.43925000       342.21600       3.8423778     0.013481858
       1011.0000       289.68131       98918.230       14843.068       2.9260000      0.93375000      0.95275000       342.34600       4.7790735     0.021386725
       1017.0000       289.64185       98918.226       14863.157       5.1122500     -0.23775000     -0.28325000       341.36100       5.9218374     0.017162526
       1022.0000       289.55418       98940.407       14818.084       4.8680000      0.46825000     -0.28900000       341.79500       3.5023445     0.013380407
       1027.0000       289.53152       98937.199       14827.623       5.2897500     -0.81675000     -0.39475000       341.62300       2.9811359     0.024579848
       1032.0000       289.58205       98910.124       14867.726       4.7667500    -0.074750010     -0.83300010       341.67800       4.7717248     0.017029566
       1037.0000       289.54480       98906.523       14850.931       4.0047500     -0.34000000     -0.32100000       342.17100       5.8534352     0.037109940
       1042.0000       289.50589       98902.221       14884.893       3.8447500      0.41450000     0.071500000       341.76500       4.8796278     0.018254377
       1047.0000       289.43466       98902.469       14808.739       2.9987500     -0.94975010     -0.12225000       342.13100       4.3202744     0.034274974
       1052.0000       289.25261       98931.679       14599.252       2.7212500     0.046750000      0.31700000       342.46300       2.9133354     0.030616130
       1057.0000       289.15080       98935.736       14450.559       2.6700000      -1.2885000     -0.18300000       342.34200       3.7822466     0.035342957
       1062.0000       289.05956       98915.059       14244.012       2.4260000     -0.28375000      0.45250000       342.13800       6.3879883     0.037192076
       1067.0000       289.02094       98913.173       14118.043       1.6550000      -1.3835000     -0.26500000       342.31700       4.6467195     0.032294334
       1072.0000       289.05600       98913.216       14044.185       2.6705000     -0.83900000     -0.71575000       342.19600       6.1601681     0.027097773
       1077.0000       289.04562       98914.254       13975.507       2.1967500     -0.20650000      0.52125000       342.59200       4.8841689     0.025191357
       1082.0000       289.04363       98932.706       13921.674       3.1087500     -0.43700000      0.51025000       342.30900       4.2103098     0.022378252
       1087.0000       289.05359       98933.589       13919.175       2.5467500      -1.8720000     0.061000000       341.74900       3.6084420     0.044425403
       1092.0000       289.05617       98913.797       13973.816       3.5832500      -2.4402500     -0.18725000       342.11800       5.4514906     0.028617497
       1097.0000       289.04628       98913.316       13999.399       3.0945000     -0.95000000      0.61750000       342.50200       7.0499689     0.023454609
       1102.0000       289.04456       98916.529       14049.402       4.2420000     -0.97900000     0.014750000       341.78500       3.6730154     0.034060052
       1108.0000       289.05641       98920.811       14119.558       4.9517500     -0.39825000      0.79650000       341.67000       7.8012765     0.045227875
       1113.0000       289.05385       98943.059       14168.803       2.5547500      -1.9567500      0.17475000       342.00200       3.9038979     0.037395394
       1118.0000       289.04344       98943.603       14210.165       3.0805000      -1.4415000      0.58050000       342.10200       5.4558370     0.024627856
       1123.0000       289.05701       98924.226       14286.682       2.6030000      -1.5930000      0.23200000       342.21000       4.2950411     0.034756743
       1128.0000       289.05098       98923.157       14321.800       4.9312500     -0.81725000    -0.066000000       341.70800       5.5106520     0.031540042
       1133.0000       288.98985       98923.178       14296.051       1.8620000      -1.1390000      0.41975000       342.17600       4.7759296     0.024173152
       1138.0000       288.99265       98925.090       14321.517       2.5087500      -2.2830000     -0.17250000       341.67200       4.6876451     0.023975152
       1143.0000       289.06475       98939.984       14401.478       3.0262500      -2.6370000      0.47225000       341.92900       2.7033854     0.019497626
       1148.0000       289.05257       98944.102       14389.369       2.7740000      -2.3595000      0.13100000       341.55700       3.9521137     0.033610760
       1153.0000       289.02876       98940.381       14358.205       4.0250000      -2.7410000    -0.073250000       341.47600       2.1736313     0.027428492
       1158.0000       288.98569       98940.397       14297.113       4.2842500      -3.0085000     -0.29550000       341.38100       1.9749760     0.019940411
       1163.0000       288.84932       98943.494       14136.069       3.6230000      -2.0382500    -0.069750000       341.61500       2.1521053     0.033194569
       1168.0000       288.81761       98938.538       14060.943       2.3625000      -1.8007500      0.55975000       341.96900       4.1815701     0.040657882
       1173.0000       288.83233       98925.393       14000.234       3.0490000      -1.0947500      0.32175000       341.80500       3.4867770     0.031254423
       1178.0000       288.85464       98922.639       13980.809       2.1690000      -1.6425000      0.65850000       341.78200       4.2110933     0.033274738
       1183.0000       288.95220       98917.921       14023.655       3.0240000     -0.97750000      0.43550000       341.66200       5.2750310     0.043861104
       1188.0000       288.96933       98919.428       14021.639       4.1795000      -2.3992500      0.95875010       341.70600       4.8788314     0.050501913
       1193.0000       288.93511       98938.933       14005.150       4.0847500     -0.21325000      0.40350000       341.98700       8.2121946     0.037902891
       1199.0000       288.96833       98935.706       14056.289       3.8662500      -2.1917500      0.28650000       341.46800       5.4294510     0.038556238
       1204.0000       288.99865       98921.369       14108.962       4.7910000      -2.1985000     -0.35075000       341.51100       5.1186349     0.030122286
       1209.0000       289.00878       98916.437       14160.955       6.1822500      -3.0350000     -0.36125000       341.72200       3.9265825     0.018718317
       1214.0000       289.05091       98900.994       14263.762       3.1540000     -0.64975010      0.97025010       341.79800       5.9638472     0.021684436
       1219.0000       289.07213       98904.069       14342.454       3.7765000      -1.9747500     -0.23800000       341.68600       3.6463421     0.015980174
       1224.0000       289.03420       98927.795       14379.812       3.3815000      -1.4730000      0.32075000       341.66300       3.5357878     0.016935007
       1229.0000       289.06153       98927.325       14463.671       3.2107500      -1.3170000      0.40850000       341.72100       3.6566250     0.037039600
       1234.0000       289.16710       98920.118       14628.249       2.5085000      -1.7182500     -0.13250000       341.83600       5.2548837     0.024430367
       1239.0000       289.16132       98921.079       14656.365       2.2770000      -1.6847500    -0.042500000       341.76200       3.8607002     0.042857970
       1244.0000       289.10366       98911.538       14621.317       2.3210000      -1.6470000    -0.086750000       341.59700       7.0269184     0.040077332
       1249.0000       289.09347       98914.970       14618.083       3.2952500      -1.6725000     -0.73775010       341.65500       5.5224791     0.039075848
       1254.0000       289.03273       98939.439       14543.438       4.1875000      -1.2757500     0.034000000       341.83200       4.3829158     0.028548233
       1259.0000       289.04917       98937.440       14541.331       3.4417500      -1.8755000     -0.37550000       341.69200       3.8292954     0.028815459
       1264.0000       289.15039       98919.132       14605.055       2.7105000      -1.5872500     0.077250000       341.87400       5.5971485     0.042380512
       1269.0000       289.18190       98917.820       14617.788       2.7405000      -2.2907500    -0.095750000       341.81500       3.8289237     0.030470433
       1274.0000       289.20267       98911.888       14606.763       2.9660000     -0.72625010     -0.36575000       341.87500       4.1090898     0.028775084
       1279.0000       289.21378       98915.166       14622.419       2.6272500     -0.78325000     -0.15150000       341.87700       3.4435565     0.018383868
       1285.0000       289.20036       98939.667       14643.157       3.3775000     -0.88975010      0.53600000       341.80500       2.9811601     0.037823149
       1290.0000       289.20048       98935.576       14671.554       2.7567500     -0.78800000      0.39425000       341.74800       5.2582920     0.030126535
       1295.0000       289.20631       98919.244       14727.245       3.2632500     -0.27100000      0.15925000       341.85400       5.9084342     0.046307892
       1300.0000       289.16941       98913.977       14702.677       3.7912500       1.2880000      0.55775000       341.69900       4.4016839     0.033551072
       1305.0000       289.14916       98912.352       14699.096       4.1932500     -0.84200010     -0.14400000       341.77000       5.1652349     0.038847224
       1310.0000       289.11467       98933.482       14675.918       2.9462500     -0.51600000      0.42725000       341.80100       8.0246440     0.038765653
       1315.0000       289.09371       98939.107       14660.955       3.7342500      0.24275000     -0.74875000       341.73000       5.1819484     0.017472476
       1320.0000       289.10004       98926.745       14669.469       5.4465000      -1.4815000     -0.18750000       341.44000       5.0228194     0.033029012
       1325.0000       289.10001       98924.605       14677.247       4.7635000     -0.91250000     0.066750000       341.54700       4.6289625     0.035177993
       1330.0000       289.09994       98923.687       14684.786       5.2217500  -0.00075000000     -0.13125000       341.75200       6.6269703     0.018473369
       1335.0000       289.09975       98917.417       14684.822       2.8565000     -0.51700000      0.29025000       341.80700       3.4730830     0.023016612
       1340.0000       289.09963       98920.972       14694.241       1.8792500      -1.1235000      0.54975000       341.79800       3.6897445     0.027497926
       1345.0000       289.10000       98939.100       14717.323       3.8177500      -1.4310000     -0.32200000       341.86600       5.1957609     0.032825877
       1350.0000       289.11512       98925.125       14732.891       3.1855000      -1.5662500      0.41950000       341.79600       4.3932972     0.031617470
       1355.0000       289.10667       98920.035       14717.190       2.0042500      -1.1340000      0.60100000       341.70500       3.9369106     0.023495644
       1360.0000       289.06957       98904.717       14646.479       3.4400000      -1.4850000      0.47175000       341.86500       7.6538608     0.026825264
       1365.0000       289.04966       98900.909       14610.679       3.2582500      -1.9417500     0.080250000       341.53000       5.7049297     0.023488056
       1370.0000       289.02976       98905.712       14580.589       3.6965000      -1.5835000     -0.12975000       341.54400       5.3126054     0.024431015
       1376.0000       288.99087       98928.044       14531.961       3.1522500      -1.4092500      0.60225000       341.51700       7.9669709     0.036752924
       1381.0000       289.01440       98924.207       14549.191       2.6255000      -1.2892500      0.59800000       341.58800       5.7068869     0.040680118
       1386.0000       289.00321       98926.116       14546.680       2.0277500      -1.3352500       1.0685000       341.84700       6.7188786     0.035864905
       1391.0000       288.96507       98918.590       14539.178       3.3130000      0.27875000      0.61450000       341.54500       8.2246737     0.039666071
       1396.0000       288.94477       98918.008       14525.416       2.4350000     -0.29725000      0.80100010       341.84800       4.5805820     0.033529334
       1401.0000       288.92372       98933.242       14510.869       5.3347500      -2.3962500     0.082000000       341.65600       7.0141848     0.025712841
       1406.0000       288.89398       98937.787       14484.866       4.5120000      -1.9407500      0.50875000       341.72400       4.1094873     0.040707852
       1411.0000       288.86651       98938.644       14437.348       2.8255000      -1.4042500      0.29000000       341.89300       4.8515005     0.025484578
       1416.0000       288.84698       98936.255       14404.893       4.2212500      -2.1110000      0.26100000       341.63800       3.7875923     0.035045942
       1421.0000       288.79527       98920.015       14358.636       3.5242500      -1.9397500     -0.30900000       341.57700       4.8061476     0.026303670
       1426.0000       288.78799       98917.473       14338.546       3.0382500      -1.3145000      0.30375000       341.45800       4.0871946     0.033589682
       1431.0000       288.81996       98923.932       14340.985       3.3937500      -3.5477500    -0.065250000       341.51700       4.2051385     0.027135317
       1436.0000       288.85152       98925.035       14345.774       3.8305000      -2.5642500     -0.67775010       341.45600       2.4150266     0.018893877
       1441.0000       288.91061       98938.156       14342.627       3.5315000      -2.2530000    -0.035750000       341.48300       2.6161613     0.037121667
       1446.0000       288.96086       98938.535       14381.889       3.2965000     -0.37950000      0.16175000       341.77900       5.1619431     0.034825778
       1451.0000       289.03893       98915.475       14481.790       4.2345000     -0.46025000      0.55550000       341.54500       6.0804200     0.034105364
       1456.0000       289.06619       98912.205       14531.978       3.2327500     -0.24650000      0.18875000       341.63200       3.9381307     0.035947451
       1461.0000       289.08647       98916.621       14622.689       2.5382500     -0.91400000     0.094250000       341.74000       7.1462422     0.038699789
       1467.0000       289.05269       98920.084       14644.236       3.9020000      -2.5892500      0.11625000       341.32200       5.5414258     0.022321346
       1472.0000       288.90372       98943.309       14531.595       2.5332500      -1.3715000     0.084750000       341.78500       7.5193187     0.039188858
       1477.0000       288.87508       98944.334       14530.345       2.3497500      -1.8670000      0.13950000       341.78200       3.1060178     0.021970753
       1482.0000       288.89943       98919.556       14579.036       1.8207500     -0.51725000      0.58275000       341.91500       4.5167316     0.026471543
       1487.0000       288.89303       98916.959       14583.728       4.4560000      -3.1375000     -0.11225000       341.56000       5.7144248     0.026262021
       1492.0000       288.93948       98917.540       14632.979       2.5465000      -2.4717500      0.29975000       341.87800       2.0523232     0.038190240
       1497.0000       288.96548       98919.095       14643.901       2.2070000      -2.0632500      0.34550000       341.68300       2.7023260     0.034514885
       1502.0000       288.91678       98943.471       14540.781       5.5275000      -2.6662500      -1.2350000       341.37400       4.8122654     0.046578185
       1507.0000       288.94733       98944.506       14558.083       4.4182500      -2.8327500     -0.38725000       341.21100       3.7473671     0.018230022
       1512.0000       289.08303       98921.601       14679.856       1.5847500      -2.1347500      0.46375000       341.51900       5.0741967     0.035479243
       1517.0000       289.12559       98917.796       14726.140       4.1805000      -1.3220000      0.34725000       341.48600       3.1917379     0.031764047
       1522.0000       289.15108       98912.483       14801.871       3.7012500      -2.3145000     -0.26250000       341.47300       4.2303008     0.021684472
       1527.0000       289.16392       98913.268       14836.756       3.4095000      -1.3735000    0.0067500000       341.51000       4.4929247     0.028838307
       1532.0000       289.09199       98936.367       14772.185       3.9622500      -2.6185000     -0.18450000       341.54500       2.7898524     0.029372104
       1537.0000       289.08907       98939.184       14784.088       2.7450000     -0.75000010      0.80500010       341.83300       4.0297343     0.026402812
       1542.0000       289.15104       98929.809       14864.190       3.7380000      -1.4467500     -0.36650000       341.38400       5.7949299     0.025315039
       1547.0000       289.15723       98924.121       14879.015       3.7825000     -0.91300000     -0.36225000       341.63700       4.5388647     0.033438303
       1552.0000       289.15803       98902.659       14888.114       2.6632500      -1.1410000      0.61575000       341.65600       4.9527983     0.030553121
       1558.0000       289.15163       98902.216       14884.179       2.1715000      -2.1630000      0.21375000       341.91100       6.7537384     0.021214704
       1563.0000       289.10090       98918.365       14820.834       2.7700000     -0.94625000      0.35525000       341.87300       5.0466186     0.019337966
       1568.0000       289.08698       98923.430       14804.072       2.8537500      -1.3320000     0.081000000       341.74300       4.3377706     0.040791668
       1573.0000       289.11119       98939.144       14837.880       1.8450000    0.0035000000      0.93800000       341.88000       4.9991663     0.030319271
       1578.0000       289.09504       98937.831       14807.306       1.4315000     -0.18175000      0.78725000       342.11900       5.8424378     0.037902605
       1583.0000       289.05814       98914.592       14750.925       3.3055000     -0.69975000     -0.10075000       341.93900       4.2863249     0.027744905
       1588.0000       289.03852       98912.256       14698.646       4.5560000      0.91675000      0.13650000       341.78100       7.2010756     0.034204529
       1593.0000       289.00090       98912.203       14606.194       3.4112500     -0.13525000    -0.069250000       341.41900       4.3944010     0.035539783
       1598.0000       288.98711       98915.714       14543.166       2.6985000     -0.51575010     -0.24050000       341.76500       3.8302637     0.031659644
       1603.0000       289.01204       98938.877       14505.948       2.3060000    0.0047500000      0.73775010       342.03100       4.0254888     0.033660395
       1608.0000       288.99584       98938.435       14446.151       3.1890000      -2.4512500     -0.48100000       341.19500       3.6772197     0.015997486
       1613.0000       288.95798       98923.376       14355.780       2.6845000      0.32700000      0.58275000       341.84900       6.9569956     0.027603865
       1618.0000       288.93795       98916.763       14320.429       4.7322500      -1.7537500      -1.1430000       341.57400       5.1805738     0.020481034
       1623.0000       288.90024       98896.039       14302.514       2.6917500     -0.89600000      0.68825000       341.56700       4.4738433     0.022035651
       1628.0000       288.88617       98896.904       14292.727       4.5210000     -0.30475000    -0.085750010       341.57100       12.251364     0.034151176
       1633.0000       288.92256       98920.468       14351.041       4.0300000      -1.2380000     -0.27575000       341.59000       3.5669493     0.021559832
       1638.0000       288.89044       98923.592       14328.304       2.9062500     -0.73175000     0.094000000       342.01600       4.2318222     0.016855089
       1643.0000       288.80617       98928.815       14252.880       3.0587500      -2.1832500     -0.59050010       341.80000       3.5985675     0.019350102
       1649.0000       288.77910       98925.331       14208.651       2.8015000      -1.2335000      0.31400000       342.08000       3.0330056     0.016477279
       1654.0000       288.74064       98902.313       14150.956       3.6642500     -0.74400000     -0.40525000       341.87800       2.7617793     0.016604058
       1659.0000       288.73805       98902.591       14112.628       3.6212500     -0.38100000      0.44900000       341.80000       3.8849611     0.017993655
       1664.0000       288.80338       98913.277       14101.173       7.9517500     -0.50000000     0.028500000       341.31100       3.6103525     0.019550167
       1669.0000       288.81475       98920.099       14085.085       4.5632500      -2.5200000     -0.13700000       341.52500       8.4785420     0.019459616
       1674.0000       288.79147       98938.763       14046.319       4.5057500     -0.65700000     -0.48825000       341.34600       3.1858417     0.024806554
       1679.0000       288.81020       98938.513       14060.329       4.0120000      -1.2525000    -0.045250000       341.79900       5.9912603     0.042515265
       1684.0000       288.85527       98926.840       14118.190       4.9235000     -0.27475000     -0.35675000       341.40400       4.6660625     0.015413189
       1689.0000       288.85675       98922.030       14150.016       4.4115000       1.5190000       1.1215000       341.43900       5.6653783     0.020232818
       1694.0000       288.87703       98906.545       14225.099       6.3152500      -1.6492500     -0.12625000       341.38800       6.1360023     0.042663342
       1699.0000       288.83027       98908.926       14202.845       5.9282500      -2.1377500     -0.24200000       341.22800       5.8134647     0.034479995
       1704.0000       288.69706       98925.175       14118.108       3.4205000     -0.86525010     -0.47400000       341.28000       4.4408716     0.015167294
       1709.0000       288.66441       98929.412       14077.602       5.0925000      -1.0885000     -0.54600000       341.26000       5.2285474     0.028783262
       1714.0000       288.63116       98939.203       13987.278       5.2037500      -2.3935000      0.15875000       341.49300       6.9829592     0.016594978
       1719.0000       288.64694       98935.010       13966.149       5.2277500      -2.8187500     -0.39700000       341.24900       3.1285947     0.013378300
       1724.0000       288.75867       98913.761       14012.889       4.3507500      -1.9032500    -0.030750000       341.27400       4.7986086     0.013847803
       1729.0000       288.77147       98912.372       14006.650       3.9012500      -2.1652500      0.32900000       341.50600       3.7855887     0.021890573
       1734.0000       288.75774       98912.976       13992.871       4.7580000      -2.3692500     0.065000010       341.42200       3.3662667     0.016087105
       1740.0000       288.74506       98916.755       13981.098       2.9975000      -1.3490000      0.49575000       341.57600       4.8983853     0.023889525
       1745.0000       288.69423       98932.202       13960.229       2.7092500      -1.7917500     -0.10700000       341.58200       5.1610987     0.030022381
       1750.0000       288.68530       98934.743       13926.746       3.6612500      0.13450000      0.21225000       341.78300       3.8027322     0.020719903
       1755.0000       288.69396       98932.178       13925.384       3.1005000     -0.52075000      0.19800000       341.55400       5.2189051     0.024982027
       1760.0000       288.73064       98915.323       13945.967       4.2437500     -0.48400000     -0.23925000       341.61400       6.0360118     0.025898669
       1765.0000       288.75052       98912.921       13958.060       3.5745000      0.21225000      0.17550000       341.91400       3.0660629     0.028308601
       1770.0000       288.80009       98916.842       14019.190       3.5927500     -0.49150000    -0.035500000       341.71100       3.9043216     0.023235839
       1775.0000       288.81267       98918.457       14037.999       2.7070000     -0.29975000       1.0465000       341.75600       3.4140354     0.021047835
       1780.0000       288.80066       98923.752       14031.595       4.6225000     -0.91925010      0.13200000       341.26700       4.4674394     0.025089473
       1785.0000       288.74405       98945.273       13979.702       4.4400000      -1.3235000      0.13425000       341.54300       6.8463792     0.038074525
       1790.0000       288.74513       98940.049       13986.981       5.3040000      0.78675000      0.25100000       341.32700       7.9856352     0.018205710
       1795.0000       288.74409       98918.639       13989.529       1.1257500      0.18125000      0.82450000       341.83700       3.1869594     0.019909435
       1800.0000       288.79989       98914.073       14075.947       4.4747500      -1.6490000     -0.37650000       341.41800       2.5749615     0.011626610
       1805.0000       288.81306       98912.433       14098.744       5.3940000      -2.4155000      0.56575000       341.30400       2.7692927    0.0088360579
       1810.0000       288.75509       98928.952       14046.561       5.3140000      -1.5972500     0.072000000       341.27800       3.8232461     0.040748245
       1815.0000       288.74396       98937.252       14032.654       4.9307500      -1.3150000      0.61625000       341.43800       5.1829271     0.024752044
       1820.0000       288.74507       98941.843       14019.118       3.3907500      -1.7680000      0.78075000       341.70600       5.4698489     0.028075026
       1826.0000       288.74460       98942.427       13973.313       2.8297500      -1.6140000       1.4700000       341.67800       4.6179248     0.024158100
       1831.0000       288.79003       98922.672       14027.871       4.5380000      -1.3602500   -0.0067500000       341.57200       3.8979023     0.020101062
       1836.0000       288.80905       98918.169       14042.086       4.1632500      -1.4270000    0.0027500000       341.58700       4.5006137     0.015566062
       1841.0000       288.77202       98913.120       14004.185       6.9632500     -0.52875000      0.13475000       341.32500       3.9435365     0.020850271
       1846.0000       288.79433       98912.705       14030.278       6.2980000    -0.095750000     -0.37275000       341.24600       4.9604224     0.022254397
       1851.0000       288.86832       98930.824       14091.326       5.3442500     -0.90750000      0.40175000       341.35500       4.7965301     0.021654536
       1856.0000       288.90790       98938.332       14137.007       3.5325000     -0.19025000   -0.0017500000       341.79100       3.4571466     0.019980178
       1861.0000       289.00904       98944.950       14262.850       4.2115000      0.62150000      0.58000000       341.89400       2.5044425     0.042971824
       1866.0000       289.02417       98942.306       14307.233       2.8570000     -0.66700010      0.59900000       341.85900       2.1398416     0.020011062
       1871.0000       288.91917       98925.727       14263.144       4.2762500      -1.7765000      0.64825000       341.74700       3.1911654     0.015243101
       1876.0000       288.89050       98918.925       14256.609       2.6575000      -1.5752500     -0.15125000       341.87600       3.6110227     0.020715130
       1881.0000       288.86797       98903.605       14260.279       2.5895000      -3.3062500      0.37525000       341.60600       5.4492658     0.025421277
       1886.0000       288.83859       98901.434       14219.497       2.3835000      -1.7762500      0.52150010       341.59500       4.6809576     0.018812650
       1891.0000       288.84152       98921.168       14153.094       4.2010000     -0.83000000      0.10850000       341.67700       5.0706641     0.036409746
       1896.0000       288.85148       98928.086       14108.393       4.2780000     -0.77650000     -0.85025010       341.45700       4.4834475     0.031619314
       1901.0000       288.82918       98936.884       14003.057       3.4922500     -0.81250010    -0.010000000       341.78900       7.9101303     0.036240847
       1906.0000       288.84139       98938.220       13960.244       4.4615000     -0.28725000      0.63275000       341.77600       4.9078943     0.022061931
       1911.0000       288.92347       98921.657       13988.183       3.8930000     -0.85825000     -0.43675000       341.60800       4.6717856     0.022545762
       1917.0000       288.96816       98917.821       14005.605       4.8690000     -0.60550000      0.54375000       341.73800       4.4578721     0.028997570
       1922.0000       288.99481       98917.668       14042.374       3.8512500      -2.3657500     -0.59300010       341.56600       6.9872724     0.035523521
       1927.0000       289.01117       98919.825       14069.965       2.5857500      -1.8252500      0.88575010       341.59400       5.9828190     0.018027493
       1932.0000       289.00000       98934.534       14086.920       5.8162500      0.51650000      0.89325000       341.74800       4.0635148     0.031601392
       1937.0000       289.00000       98938.479       14124.758       4.6250000     -0.40850000     0.097750010       341.51300       5.5767511     0.019211972
       1942.0000       288.99972       98938.441       14180.176       3.4552500     -0.31675000     0.089750010       341.57800       3.2964198     0.031884609
       1947.0000       288.99960       98935.254       14223.254       3.4587500    -0.075000000     0.025000000       341.81100       3.4224475     0.015295684
       1952.0000       289.01265       98923.323       14282.787       5.6627500      0.21350000     -0.20300000       341.42900       5.3398431     0.027622654
       1957.0000       288.99888       98917.738       14321.009       4.9855000     -0.19200000      0.44000000       341.59900       4.3944984     0.015271552
       1962.0000       288.94989       98907.330       14346.213       4.8232500     0.012500000      0.37475000       341.38500       6.0734450     0.022414307
       1967.0000       288.94380       98908.257       14360.153       3.8212500     0.096500000      0.30200000       341.53100       3.8914095     0.016131266
       1972.0000       288.95659       98921.614       14382.627       4.0055000      -1.1307500      0.37850000       341.81900       3.7586678     0.031442151
       1977.0000       288.94656       98927.640       14358.495       4.2930000      -1.5510000     -0.63950000       341.45500       3.1522359     0.015407726
       1982.0000       288.94377       98944.025       14262.509       2.7955000     -0.64300000     0.083250000       341.93000       3.1553879     0.018952087
       1987.0000       288.95374       98943.534       14234.538       3.8272500     -0.79000000      0.41000000       341.89100       2.6674590     0.018285772
       1992.0000       288.94260       98924.954       14203.656       2.6870000     -0.56900000     0.019250000       341.71100       3.0234477     0.035638282
       1997.0000       288.94613       98916.972       14195.590       2.7885000     -0.55875000      0.19575000       341.84300       2.5050395     0.021488565
       2002.0000       289.02230       98896.905       14303.840       3.7005000     -0.10350000      0.99025010       341.80900       2.3544085     0.019948613
       2008.0000       289.00366       98897.094       14267.058       4.7015000     -0.41700000      0.29825000       341.43300       2.2592797     0.021355823
       2013.0000       288.91604       98917.042       14158.070       3.3022500      -1.7250000     -0.26250000       341.86900       2.2657616     0.016988949
       2018.0000       288.87605       98925.042       14072.270       2.5550000      -2.2850000      -1.1137500       341.45300       2.3569864     0.018980907
       2023.0000       288.78930       98941.057       13897.239       3.5710000     -0.72475000      0.12250000       341.61800       2.0451344     0.034597000
       2028.0000       288.77768       98944.918       13820.793       2.4467500     -0.86925010    -0.082000000       341.59200       2.0621771     0.020533939
       2033.0000       288.84213       98939.412       13797.423       3.6565000      -3.1680000     -0.52650000       341.39900       2.1266076     0.024352382
       2038.0000       288.86192       98932.567       13779.956       2.8430000      -3.9165000      0.67875000       341.74400       2.0167616     0.022166340
       2043.0000       288.89924       98914.297       13801.382       3.4275000      -2.8372500      0.31725000       341.53500       2.1188574     0.019642991
       2048.0000       288.91297       98911.764       13815.020       3.8402500      -3.1695000     -0.46775000       341.72700       2.1568081     0.018018620
       2053.0000       288.88829       98911.622       13830.589       4.9902500      -4.2640000     -0.31300000       341.63400       2.0526839     0.018349087
       2058.0000       288.90466       98915.218       13876.349       4.1460000      -3.9257500      0.31125000       341.47900       1.7528218     0.041890781
       2063.0000       288.94212       98935.308       13941.792       4.4127500      -3.4672500     -0.10000000       341.41800       2.1449552     0.028114829
       2068.0000       288.96231       98939.944       14010.340       4.0152500      -2.7235000      0.23375000       341.69100       2.0896304     0.023720235
       2073.0000       288.98792       98939.293       14117.530       3.1407500      -1.3845000     -0.59400000       341.68700       2.1637205     0.016754798
       2078.0000       289.01796       98933.848       14189.031       2.2827500      -1.0875000      0.59300010       341.75900       2.2350254     0.030268941
       2083.0000       289.04180       98916.733       14260.051       3.8472500     -0.60725000      0.60275000       341.71200       2.0864791     0.014583946
       2088.0000       289.06142       98911.035       14293.524       3.1870000      -1.2420000     0.011250000       341.80100       2.0192573     0.032888198
       2093.0000       289.11170       98901.199       14314.972       2.6957500     -0.87175010      0.14500000       341.60400       2.2638586     0.028599247
       2099.0000       289.10558       98905.618       14287.465       4.0372500      -1.1732500      0.19375000       341.65700       2.0557143     0.020712290
       2104.0000       289.04531       98924.258       14199.335       4.7465000      -3.9640000     -0.42350000       341.72000       2.2499165     0.037103079
       2109.0000       289.04420       98931.389       14171.059       3.1087500     -0.96275000      0.31600000       341.78900       2.0507196     0.034552369
       2114.0000       289.04379       98942.089       14134.471       3.0160000      -2.0522500      0.57800000       341.81100       2.0957058     0.024597849
       2119.0000       289.05265       98943.597       14121.224       2.2955000      -2.9985000     -0.61150000       341.70400       2.0991053     0.021735824
       2124.0000       289.11186       98938.337       14157.237       3.4952500      -2.0545000     -0.31325000       341.56200       2.0241819     0.023359346
       2129.0000       289.10426       98930.756       14141.354       4.0737500      -2.0682500     -0.38875000       341.55200       2.1811460     0.023186460
       2134.0000       289.03640       98912.542       14077.896       3.7045000      -1.8637500      0.19200000       341.76000       2.3597568     0.037926487
       2139.0000       289.05374       98912.808       14101.998       3.2050000      -1.5822500      0.36850000       341.79900       2.0043795     0.024555154
       2144.0000       289.10563       98917.317       14162.794       4.8985000      -2.9632500      0.39450000       341.77500       2.2110563     0.018805640
       2149.0000       289.09679       98921.979       14183.268       2.4452500      -2.0247500      0.85175000       341.83600       1.9910111     0.021984021
       2154.0000       289.12196       98941.315       14262.395       6.2652500      -1.3600000     -0.68125000       341.21800       2.1265153     0.028388409
       2159.0000       289.08579       98945.883       14246.572       3.1482500      -2.8462500    -0.011750000       341.78000       2.1653700     0.020616526
       2164.0000       288.93753       98942.756       14127.258       3.7182500      -3.3080000      0.61875000       341.79200       2.1125426     0.019014629
       2169.0000       288.91321       98937.090       14102.058       3.9195000     -0.52950000      0.21525000       341.66300       2.0831796     0.019001309
       2174.0000       288.96061       98927.532       14104.358       2.4155000      -2.3495000     -0.39400000       341.59700       2.1835935     0.020939392
       2179.0000       288.93203       98919.750       14071.226       4.2392500      -1.9400000      0.15650000       341.45300       2.1912208     0.022132678
       2184.0000       288.92231       98902.272       14076.916       3.9672500      -2.2652500     -0.65625010       341.57300       2.1491654     0.024732006
       2190.0000       288.86125       98903.737       13984.991       2.8952500      -1.2830000      0.97675010       341.77900       2.0443549     0.021891654
       2195.0000       288.73261       98914.024       13837.332       5.3272500      -2.5505000    -0.077000010       341.38000       2.0905813     0.019211723
       2200.0000       288.74545       98930.312       13744.194       3.9377500      -1.1947500      0.19550000       341.64600       2.1620464     0.019261310
       2205.0000       288.74421       98937.895       13670.497       4.2950000      -2.0985000     0.091250000       341.56000       2.2198182     0.028255870
       2210.0000       288.78559       98940.294       13618.777       1.6510000      -2.0580000      0.20900000       342.06200       2.0535296     0.020078414
       2215.0000       288.80667       98937.778       13596.479       3.1180000      -1.6090000      0.22825000       341.60200       2.0798243     0.014933974
       2220.0000       288.78489       98922.918       13578.145       3.5767500      -2.1782500      0.97900000       341.77800       2.1660448     0.024539632
