MIRICO/SHELL project - Processed LDS file generated on
Wed Jul 26 17:11:41 2017
Time stamp for record start
05/12/2017  14:02: 9.0000
Nb of points in the record
         546
Beam position index
       1.0000000
Beam angle (degrees)
      -18.455000
Open Path length (m)
       34.890000
****************** Temporal data record ************************
Elapsedtime_sec Temp_K Press_Pa Humidity_ppmv WindX_m/s WindY_m/s WindZ_m/s Speedofsound_m/s CH4vmr_ppmv CH4vmrerror_ppmv  
      0.00000000       288.64239       98933.039       13836.647       4.5360000      -2.4955000     0.050750000       341.42300       2.1278542     0.013756850
       5.0000131       288.64782       98945.727       13852.338       4.0245000     -0.77150010      0.70550000       341.49500       2.0943393     0.011878717
       10.000026       288.65760       98952.114       13878.393       4.6177500      -1.3402500     -0.37650000       341.32900       2.0651712     0.016847959
       14.999999       288.64232       98944.678       13883.664       5.3827500      -1.5957500      0.60450010       341.50300       2.0732439     0.012669496
       20.000012       288.65146       98943.548       13910.485       3.4205000      -1.2357500      0.11825000       341.50700       2.0565455     0.013226217
       25.000025       288.69416       98954.653       13967.814       2.2812500      0.11150000      0.34575000       341.49300       1.9943377     0.014743907
       29.999998       288.72449       98948.416       14011.276       3.8825000      -2.4800000     -0.17325000       341.30100       2.0471342     0.013097926
       35.000011       288.75591       98925.566       14056.913       2.7492500      -2.3597500    -0.041500000       341.39300       2.0789536     0.012671444
       40.000024       288.75736       98917.328       14070.731       5.4612500      -1.6802500     -0.18400000       341.43100       2.3341064     0.027301310
       44.999997       288.75659       98907.393       14077.829       4.4432500      -2.0615000    -0.024000000       341.25800       1.9303470     0.023684411
       50.000010       288.74770       98907.698       14078.793       5.6077500      -1.2752500     0.037750000       341.32000       2.0723593     0.015714294
       55.000024       288.69771       98917.031       14040.881       4.4322500      -2.2432500      0.11875000       341.25400       2.0476479     0.012921155
       59.999996       288.68668       98926.661       14038.531       3.1795000      -1.4015000      0.61050000       341.46700       2.1188253     0.016456298
       65.000010       288.70914       98946.268       14065.268       3.6157500      -1.4327500      0.25275000       341.46700       2.0029787     0.018091086
       71.000017       288.68462       98951.025       14053.251       2.4850000     -0.77225010     -0.37175000       341.40600       2.0770059     0.013195154
       75.999990       288.64428       98952.524       14024.379       1.5282500     -0.71825000      0.59175000       341.61200       2.0231637     0.014506613
       81.000003       288.66026       98944.617       14061.544       3.0105000     -0.75050000     0.016250000       341.41600       2.0677200     0.011533320
       86.000016       288.65035       98935.709       14063.562       2.4340000     -0.90000000     -0.17025000       341.60000       2.0339243     0.015480912
       90.999989       288.65512       98921.383       14074.765       2.5752500     -0.81225000      0.38550000       341.67900       2.0871796     0.015142923
       96.000002       288.65625       98914.278       14080.898       2.6892500      -1.8975000     -0.30675000       341.63200       2.0365305     0.012841310
       101.00002       288.64504       98909.617       14070.867       4.5320000     -0.84450010     0.024750000       341.44600       2.1311866     0.013183214
       106.00003       288.59385       98901.391       14011.942       3.7930000     -0.41150000     -0.39600000       341.53600       2.0772850     0.012915427
       111.00000       288.58539       98907.308       14005.749       5.8220010      -2.3345000    -0.075500000       341.24800       2.0802707     0.013964336
       116.00001       288.60530       98925.950       14033.523       3.1962500     -0.94550000      0.21150000       341.44500       2.0513777     0.014720634
       121.00003       288.56935       98935.877       13993.867       5.4655000      -2.2257500      -1.0120000       341.29300       2.0473239     0.012746521
       126.00000       288.54922       98942.368       13962.765       3.9662500       1.2142500      0.37825000       341.60600       1.9484518     0.015194625
       131.00001       288.49992       98944.848       13883.269       3.0770000      0.44200000      0.77375000       341.65600       2.0275819     0.015885510
       136.00003       288.48783       98942.179       13847.375       5.4485000      -1.1110000     -0.59725000       341.21700       2.0161734     0.014387753
       141.00000       288.54524       98931.388       13872.115       7.4702500     -0.34350000      0.10175000       341.40500       2.0646081     0.014730011
       146.00001       288.55656       98925.486       13864.438       4.2350000     -0.97925010      0.26650000       341.45500       2.0466935     0.013271473
       151.00003       288.55559       98919.569       13852.375       3.2412500     -0.87250010      0.32450000       341.43900       1.9415207     0.027170534
       156.00000       288.55760       98908.729       13850.616       4.5195000      -1.0135000     -0.66400000       341.36400       2.0408422     0.015215307
       162.00001       288.50998       98907.305       13805.087       5.9337500      0.73625000     -0.12675000       341.22500       2.0060448     0.015290864
       167.00002       288.49089       98909.475       13791.743       6.2015000     -0.74000000     -0.84125010       341.16100       2.1362001     0.013271246
       171.99999       288.52805       98915.662       13845.482       4.0525000     -0.33975000     -0.22150000       341.32900       2.0432161     0.011695415
       177.00001       288.50591       98920.781       13826.127       5.3697500      -2.2160000      0.62125000       341.34400       2.1266972     0.015195984
       182.00002       288.43179       98931.868       13763.547       3.4115000     -0.40600000     0.099500010       341.34900       2.0417791     0.012574623
       186.99999       288.39206       98937.578       13713.067       4.5915000     -0.37575000      0.39350000       341.42000       2.0553214     0.013192154
       192.00000       288.31919       98940.794       13597.625       4.4497500      -1.0445000     -0.17625000       341.32000       2.0139325     0.014732763
       197.00002       288.28204       98941.494       13532.728       4.3445000     -0.37425000      0.10875000       341.26400       1.9717650     0.016610025
       201.99999       288.30037       98941.315       13515.198       4.1217500      -1.5332500     -0.13300000       341.34900       2.0011917     0.014160795
       207.00000       288.30064       98935.997       13486.027       3.7850000      0.13850000      0.26525000       341.35100       2.0739855     0.017653380
       212.00002       288.30005       98919.413       13465.104       3.6755000      0.78900000      0.14425000       341.42600       2.1203792     0.017735736
       216.99999       288.30002       98912.576       13446.418       5.8462500      -1.2847500     -0.53400000       341.33100       2.0579428     0.011910311
       222.00000       288.28595       98903.595       13412.938       3.9565000     0.074000000      0.38725000       341.32600       1.9859421     0.019735624
       227.00002       288.29730       98902.270       13409.601       5.9415000    -0.035000000     -0.72225000       341.18600       1.9953737     0.013751006
       232.00003       288.33396       98911.822       13433.670       5.0145000      -1.6460000     -0.49475000       341.16700       1.9788487     0.013432614
       237.00000       288.35372       98920.949       13450.345       5.4875000      -1.5022500     -0.44675000       341.25400       2.0456048     0.014480456
       242.00002       288.39032       98938.147       13484.151       4.2272500      -1.9785000     -0.15400000       341.34300       1.9815438     0.018376183
       247.00003       288.40902       98947.822       13514.603       4.6137500     -0.59875010     -0.16650000       341.36500       2.0026809     0.016918919
       253.00000       288.40009       98961.296       13533.389       5.6090000      -1.1680000     -0.67525010       341.20100       2.0227003     0.016273779
       258.00001       288.40009       98963.536       13570.848       3.4937500     -0.53325000       1.3935000       341.53600       2.0024905     0.011961765
       263.00002       288.38721       98956.474       13628.209       4.5630000      -1.6837500       1.1472500       341.41200       2.0913538     0.011763332
       267.99999       288.40075       98948.387       13681.042       3.6842500      -2.5137500     -0.52850000       341.43600       2.0600008     0.010894837
       273.00001       288.45084       98931.034       13779.532       4.3675000      -1.3465000     -0.32925000       341.30700       2.0308345     0.012083772
       278.00002       288.45708       98920.444       13803.193       4.7880000      -3.0975000      0.38225000       341.28900       2.0319336     0.012012094
       282.99999       288.45793       98903.916       13781.423       4.3117500      -4.1180000     -0.43075000       341.11300       2.1497928     0.011818554
       288.00001       288.45400       98901.240       13767.776       4.9722500      -1.2500000      0.49150000       341.30200       2.0444097     0.014251482
       293.00002       288.39267       98911.057       13689.436       5.6295000      -1.5722500     -0.28250000       341.15000       2.0203025     0.014799786
       297.99999       288.39031       98916.865       13666.576       4.8200000     -0.86800000      0.56000000       341.22900       2.0992884     0.016792622
       303.00001       288.43844       98930.197       13693.457       2.8687500      -1.9375000       1.0410000       341.26900       2.0181589     0.014172805
       308.00002       288.45848       98939.851       13688.707       2.2630000      -1.0077500     -0.20550000       341.46000       2.0803535     0.011379132
       312.99999       288.50861       98947.459       13694.401       5.0682500      -2.8270000     -0.81150000       341.13000       2.0069975     0.014082287
       318.00001       288.51111       98953.043       13676.357       2.5455000     -0.75650010     -0.34325000       341.31300       2.0189684     0.014998205
       323.00002       288.44882       98963.123       13594.006       3.7212500     -0.85575000    -0.057500000       341.25900       1.9629883     0.014647148
       327.99999       288.44242       98962.267       13591.902       4.0152500      -1.8805000      0.14350000       341.33800       1.9728976     0.016390108
       333.00000       288.45555       98951.842       13636.736       5.6215000      -2.6352500     -0.87250010       341.27000       2.0640753     0.011984524
       338.00002       288.44553       98943.058       13654.687       5.3487500     -0.79100000     -0.56750010       341.32800       2.0618282     0.011706932
       344.00003       288.44581       98922.383       13707.967       4.3130000     -0.74400000     -0.36200000       341.18800       2.0494970     0.014846660
       349.00000       288.45600       98914.259       13756.427       3.4800000     -0.50225000    -0.011750000       341.41400       2.0848763     0.012326370
       354.00001       288.43265       98908.112       13764.761       4.9907500     -0.63425000     -0.32775000       341.50000       2.0182145     0.019281802
       359.00002       288.45503       98908.515       13830.811       4.1807500     -0.63525000      0.24425000       341.42300       2.0556514     0.015556497
       364.00000       288.55266       98915.184       13985.232       3.7070000      -1.3122500     -0.35725000       341.45700       2.0575633     0.013143590
       369.00001       288.57002       98923.940       14046.319       3.8612500      -1.0160000     -0.97500000       341.30300       1.9625262     0.021172955
       374.00002       288.55851       98942.467       14086.738       3.5647500      -1.5465000    0.0067500000       341.33400       2.0193767     0.017687733
       379.00000       288.55212       98951.195       14110.861       4.6500000      -2.1045000     0.010750000       341.41200       2.0420212     0.014741609
       384.00001       288.50147       98960.050       14071.934       4.3795000      -1.8100000    -0.066500000       341.20900       2.0243973     0.012575093
       389.00002       288.48794       98964.260       14073.056       4.1912500     -0.84850000     0.032750000       341.54500       2.0420892     0.016939494
       394.00000       288.51079       98963.534       14116.892       3.3647500      -2.1165000      0.81450000       341.43600       2.0061328     0.016270967
       399.00001       288.49447       98958.651       14085.308       3.5610000      -2.0687500     -0.38150000       341.47400       2.0339521     0.011771737
       404.00002       288.45786       98950.128       14017.490       2.8100000      -1.1880000      0.43925000       341.55200       1.9910687     0.012172088
       408.99999       288.43795       98941.051       13953.933       2.4737500     -0.76825000     -0.15225000       341.58400       2.0577124     0.015537055
       414.00001       288.40069       98923.109       13824.485       3.9762500      -1.5650000     -0.10875000       341.21200       2.0444309     0.013853612
       419.00002       288.38696       98913.347       13762.955       3.2010000     -0.19650000      0.30750000       341.50700       1.9973022     0.014676613
       423.99999       288.38793       98902.756       13721.557       3.6167500      -1.8667500      0.14300000       341.39900       2.0584946     0.012848317
       429.00001       288.40425       98902.886       13714.601       2.9997500      -1.7310000     -0.12975000       341.45100       2.0674510     0.013262169
       435.00001       288.45455       98913.036       13760.670       4.0682500      -1.3177500     -0.53675000       341.30300       2.0316289     0.013851453
       440.00003       288.45565       98919.825       13773.820       2.8555000      -1.1907500    -0.079000000       341.38500       2.0060024     0.013098443
       445.00000       288.45646       98935.848       13805.641       3.3082500     -0.77475010    -0.056000000       341.51100       1.9916230     0.012992798
       450.00001       288.44794       98941.271       13823.791       3.5985000     -0.73475000     -0.43950000       341.46000       1.9708358     0.012200053
       455.00003       288.38847       98938.942       13810.587       3.2000000      -1.4510000     -0.11900000       341.59800       1.9286292     0.022804999
       460.00000       288.39613       98943.821       13842.238       3.1165000      -1.0637500    -0.027750000       341.19800       2.0480487     0.014741356
       465.00001       288.44564       98951.386       13906.986       4.0927500     -0.38325000     0.039500000       341.33200       1.9985099     0.012010159
       470.00003       288.46601       98951.682       13942.153       3.8527500     -0.39625000     -0.68175010       341.37700       1.9918002     0.013306639
       475.00000       288.50288       98954.180       13984.572       3.1102500     -0.76300000     -0.34625000       341.35700       2.0334368     0.011261776
       480.00001       288.51437       98946.791       14010.720       3.8727500    -0.067500000     -0.15275000       341.24800       2.0673865     0.012431230
       485.00002       288.50027       98926.421       14015.719       2.6107500     -0.78375010    -0.056000000       341.45600       2.0382018     0.016567805
       490.00000       288.50045       98916.327       14026.634       3.7590000     -0.31025000      0.51300000       341.57900       2.1301821     0.010593484
       495.00001       288.50033       98903.888       14038.809       3.7397500      0.97525010      0.21450000       341.38400       2.0738186     0.015095194
       500.00002       288.50044       98900.464       14043.428       2.5562500     -0.37275000     -0.22400000       341.50800       2.1715340     0.011786604
       505.00000       288.50007       98904.560       14042.263       2.7177500     -0.87250010      0.36875000       341.59900       2.4873542     0.011164718
       510.00001       288.50014       98905.400       14032.149       2.3475000     -0.73950000     -0.18225000       341.48800       2.3523800     0.013808812
       515.00002       288.49072       98908.013       14000.369       2.0965000      0.41775000    -0.069750000       341.75600       2.2916647     0.016063604
       520.00000       288.50970       98914.909       14012.577       4.5777500     -0.54075000     -0.47450000       341.24900       2.0843037     0.010728949
       526.00000       288.54988       98925.083       14036.012       3.1562500      -1.1795000    -0.038000000       341.53900       2.0676699     0.013634306
       531.00002       288.58498       98932.905       14098.757       2.5695000     -0.12950000    -0.040250000       341.72100       2.1031387     0.015539563
       535.99999       288.60661       98941.153       14146.319       4.1285000      -1.1112500    -0.044000000       341.59100       2.0550928     0.013882532
       541.00000       288.59986       98949.454       14171.862       4.0910000      -2.7335000    -0.021500000       341.16100       2.0716964     0.010683143
       546.00002       288.59972       98951.723       14210.782       3.8212500      -1.4757500     -0.85975000       341.15100       2.1027424     0.012221537
       551.00003       288.59953       98951.535       14254.499       3.7365000      -1.4577500      0.24975000       341.31500       2.0536876     0.011229150
       556.00000       288.60740       98952.489       14318.752       3.9502500      -1.5837500     -0.32700000       341.45800       2.0355401     0.012024339
       561.00001       288.58616       98948.044       14316.214       3.5680000      -1.7205000     -0.23375000       341.27300       2.0054066     0.012658388
       566.00003       288.53796       98935.152       14286.319       4.2767500      -1.6092500    -0.065500010       341.31600       1.9812301     0.012163282
       571.00000       288.59053       98927.036       14298.810       2.1845000      0.23000000      0.13350000       341.81600       2.0111981     0.018432013
       576.00001       288.60078       98919.956       14281.814       1.9535000      -1.0290000      0.26200000       341.60600       1.9614156     0.016874963
       581.00003       288.64061       98901.312       14286.280       1.8630000      -1.0142500     -0.11925000       341.66000       2.1495316     0.011974894
       586.00000       288.66260       98900.525       14284.426       2.2792500      -1.9257500     -0.40150000       341.67500       1.9719330     0.017535418
       591.00001       288.61492       98919.820       14221.773       1.8077500     -0.33975000     -0.14675000       341.51200       2.0375408     0.012954369
       596.00003       288.59376       98929.591       14189.223       2.7502500      0.11350000    -0.063750010       341.47200       1.9860721     0.017878018
       601.00000       288.58489       98940.584       14174.621       3.5800000     -0.33075000     0.099000010       341.65200       2.0398258     0.010878116
       606.00001       288.59423       98965.398       14187.805       4.6725000     -0.96225010     -0.35600000       341.53600       2.0208031     0.015465126
       611.00003       288.61598       98966.296       14207.783       3.2762500     -0.62875000     -0.32850000       341.65200       2.0376427     0.010663728
       616.99999       288.65694       98949.069       14247.684       3.2707500     -0.95000000      0.63425000       341.33500       2.0475432     0.010469686
       622.00001       288.65577       98949.117       14245.667       3.3897500      -2.0440000      0.22425000       341.49200       1.9910567     0.014050977
       627.00002       288.65470       98949.335       14254.401       4.0950000     -0.84500000     0.098750000       341.45600       2.0375924     0.015440812
       631.99999       288.60977       98961.328       14237.939       2.5735000     -0.96850000      0.32725000       341.68100       2.0310623     0.011496142
       637.00000       288.59128       98962.869       14234.844       5.7870000     -0.74600010     -0.68300000       341.23200       2.0373303     0.016884051
       642.00002       288.58553       98958.066       14253.840       6.1200000      0.60025000      -1.0752500       341.22800       2.0695087     0.013327229
       646.99999       288.59706       98950.649       14271.626       3.4257500     -0.36825000       1.3262500       341.48500       2.1046976     0.014342125
       652.00000       288.63398       98932.071       14287.538       4.3582500     -0.76050000     -0.23000000       341.17600       2.0526742     0.014298056
       657.00002       288.65397       98922.253       14302.316       3.8447500     0.053000000     -0.63525000       341.46800       1.9965073     0.011332141
       661.99999       288.69044       98913.008       14323.383       3.9247500     -0.49400000      0.25050000       341.60900       2.0318319     0.013927670
       667.00000       288.70957       98907.291       14344.950       2.3417500    0.0050000000      0.74000000       341.58100       2.0318761     0.015160020
       672.00002       288.69994       98910.306       14368.673       3.2505000     -0.21175000      0.97675010       341.64200       2.0119383     0.013583371
       676.99999       288.69982       98910.288       14380.821       2.0987500      -1.0695000      0.26975000       341.72000       2.0310214     0.013723389
       682.00000       288.70053       98907.527       14398.600       4.2285000     -0.92275010     -0.20025000       341.45700       2.0512503     0.017027583
       687.00002       288.70079       98909.797       14401.090       4.3755000      -1.1832500    -0.069250000       341.23700       2.0737313     0.011125543
       692.00003       288.68483       98915.326       14360.418       5.5467500      -1.6907500     -0.32025000       341.33500       2.1300071     0.011653861
       697.00000       288.69593       98920.410       14359.271       3.8350000     0.074500000    -0.047750000       341.36200       1.9443823     0.016744731
       703.00001       288.75129       98930.425       14391.265       3.3847500    -0.062000000      0.30850000       341.56300       2.0692560     0.014436720
       708.00002       288.75776       98938.485       14395.174       2.6575000     -0.66725000      0.93975000       341.62700       1.9713981     0.014083498
       713.00000       288.75597       98947.447       14410.016       4.2380000     -0.58825000    -0.041750000       341.50200       2.0199800     0.017212283
       718.00001       288.75216       98953.082       14413.023       2.7275000      -2.0715000      0.27700000       341.46200       1.9924666     0.014450778
       723.00002       288.69203       98962.029       14371.220       2.1192500      -2.7525000   -0.0082500000       341.26400       2.1670719     0.016264558
       727.99999       288.68965       98962.587       14372.318       2.8372500      -1.7365000      0.29100000       341.36000       2.0300638     0.013223468
       733.00001       288.73759       98952.804       14392.961       2.0577500     -0.83875010     -0.18000000       341.50800       2.0102675     0.018169110
       738.00002       288.75771       98948.766       14424.149       2.5612500     -0.76850000     -0.20900000       341.54100       2.0488980     0.010715666
       742.99999       288.80728       98942.365       14504.001       3.2100000     -0.39675000     -0.29300000       341.43800       2.0508903     0.010733625
       748.00001       288.80964       98937.624       14528.756       3.5110000     -0.75900010     -0.11225000       341.58500       1.9324273     0.029776845
       753.00002       288.76097       98938.967       14535.185       3.5490000     -0.56750010     0.091750000       341.55700       1.9989371     0.011818616
       757.99999       288.74069       98934.246       14536.051       4.7242500       1.7135000      0.87300000       341.51300       2.0323042     0.012899588
       763.00001       288.70457       98924.371       14497.423       4.6445000     0.017500000     -0.20250000       341.48200       2.0758495     0.013325558
       768.00002       288.68840       98917.397       14474.943       3.2047500      0.14400000      0.63950000       341.54800       2.6827441     0.017080152
       772.99999       288.72598       98906.256       14480.289       3.7955000      -1.4700000      0.37625000       341.39600       2.0979409     0.023004082
       778.00000       288.69881       98902.391       14443.877       3.2707500     -0.35800000     -0.47825000       341.28600       2.0974455     0.016721474
       783.00002       288.62576       98904.665       14385.532       3.0195000     -0.91500000    -0.051250000       341.38900       2.0230328     0.019231442
       787.99999       288.58554       98905.113       14319.899       3.1022500      -1.4775000      0.55425000       341.67300       1.9664770     0.013047350
       794.00000       288.50204       98907.798       14201.661       3.5342500      -1.1030000     -0.17700000       341.40200       2.0485746     0.016892140
       799.00001       288.47400       98912.381       14124.207       3.1202500      -1.4215000      0.52700000       341.54700       1.9975675     0.015746305
       804.00002       288.51092       98917.565       14046.491       3.2225000     0.043500000     -0.25550000       341.25700       1.9700851     0.015283476
       809.00000       288.49466       98923.167       13982.594       3.8007500     -0.11075000    -0.033750000       341.16500       1.9964680     0.012925256
       814.00001       288.44648       98934.449       13904.638       4.1977500      0.33175000     -0.52225000       341.18800       1.9519250     0.017229987
       819.00002       288.44263       98939.170       13894.857       4.6332500      0.87000010     -0.74400000       341.10200       2.0098717     0.012930425
       824.00000       288.43037       98940.385       13915.698       5.4870000     -0.44600000      0.13400000       341.50200       1.9085939     0.018093804
       829.00001       288.45330       98941.789       13965.757       3.8865000      -1.4867500      0.39375000       341.37300       2.0461467     0.022931447
       834.00002       288.55222       98938.138       14101.817       3.5422500     -0.56575000     -0.50275000       341.40800       2.0548447     0.011859751
       839.00000       288.56998       98941.468       14169.945       4.4332500     -0.88675000     -0.10700000       341.26000       2.0002264     0.013773180
       844.00001       288.55718       98951.198       14225.786       3.6415000     -0.77425000       1.0242500       341.60000       1.9754156     0.016980022
       849.00002       288.55105       98952.018       14276.504       3.8890000      0.18450000     -0.13250000       341.21200       1.9978728     0.013923135
       853.99999       288.50064       98951.681       14312.325       4.5900000      -1.1247500     -0.20300000       341.29000       2.5630516     0.013460264
       859.00001       288.48717       98950.397       14325.821       4.4522500      0.11975000     -0.15375000       341.19000       2.7145168     0.017093868
       864.00002       288.51088       98941.674       14347.550       3.4690000      0.57025000      0.15875000       341.28100       1.9856737     0.013389011
       868.99999       288.49464       98937.348       14316.567       5.4582500      -1.3822500     -0.13175000       341.10700       1.9976449     0.036293947
       874.00001       288.45906       98938.595       14224.316       5.2995000      0.98775010      0.36375000       341.14200       2.0658890     0.013382327
       879.00002       288.43894       98933.309       14160.630       3.9905000     -0.32150000      0.49600000       341.49900       2.0175021     0.018631739
       885.00003       288.38804       98920.711       14050.898       3.3087500      0.65775000      0.65000000       341.52400       2.0032153     0.013942505
       890.00000       288.39521       98915.480       14009.297       3.6942500      0.90850000     -0.20650000       341.38700       2.0136549     0.015344918
       895.00001       288.45552       98910.418       14005.912       2.7022500      0.23175000      0.29125000       341.44900       1.8653870     0.022118450
       900.00003       288.45690       98906.240       13973.948       4.5477500     -0.30175000     -0.60050000       341.18000       2.1020222     0.016133794
       905.00000       288.45677       98904.766       13950.543       4.9165000      0.21350000     -0.71150000       341.11800       2.2007642     0.018177218
       910.00001       288.44809       98904.620       13928.978       4.4942500      0.25300000     -0.26975000       341.13100       2.1234694     0.013945176
       915.00003       288.39670       98904.693       13888.529       4.0007500      0.34075000      0.41650000       341.34400       2.0399508     0.015306023
       920.00000       288.38554       98905.662       13876.305       2.9345000     -0.49125000      0.58475010       341.42100       2.0293624     0.021844139
       925.00001       288.40009       98908.908       13894.651       3.0820000     -0.58300000      0.51975000       341.58600       2.0186254     0.021078251
       930.00003       288.40009       98913.886       13887.122       3.7915000   -0.0012500000     0.053750000       341.24600       1.9496148     0.025394992
       935.00000       288.39122       98918.804       13857.214       2.5927500     -0.17375000      0.67175000       341.49500       1.9757388     0.014451952
       940.00001       288.40987       98924.671       13882.855       4.9492500     -0.21475000    -0.033500000       341.45600       1.9802612     0.014987873
       945.00002       288.44578       98935.461       13930.401       5.3317500      -1.2657500      -1.0035000       341.30500       2.0249878     0.013402799
       950.00000       288.46539       98939.655       13968.282       3.8597500      -1.4865000      0.42750000       341.39800       1.9824040     0.015421291
       955.00001       288.50236       98940.590       14053.478       6.7397500     -0.57725000     -0.36300000       341.28300       2.0104066     0.015737702
       960.00002       288.51339       98941.706       14080.843       4.9482500      -2.8672500     -0.64275000       341.42900       1.9874390     0.013649031
       965.00000       288.50968       98940.385       14081.723       4.9227500     -0.50725000      0.68900000       341.45100       1.9879021     0.016266638
       970.00001       288.49088       98940.398       14061.666       4.9502500      0.19475000       1.1757500       341.35700       2.0524553     0.015014730
       976.00002       288.44388       98939.144       14002.444       2.8762500     -0.43325000      0.79700010       341.35800       2.0036035     0.015321588
       980.99999       288.46054       98946.414       13994.849       3.9837500     -0.39175000    -0.090750000       341.32800       1.9683911     0.019609656
       986.00000       288.45074       98950.473       13960.399       3.7872500     -0.76500000    -0.057750000       341.31200       1.9997774     0.017132222
       991.00002       288.45480       98960.281       13922.725       3.9442500      -1.2690000     0.091500010       341.24600       1.9650243     0.012972030
       996.00003       288.45596       98962.711       13896.102       4.6960000      -1.0770000     -0.34700000       341.29700       1.9603096     0.017679911
       1001.0000       288.44482       98960.210       13863.519       4.6190000     -0.70950000   -0.0052500000       341.41500       2.0067753     0.014283134
       1006.0000       288.38071       98950.340       13780.441       3.7815000      -2.8055000      0.37800000       341.34700       2.0095003     0.015745189
       1011.0000       288.41530       98946.291       13810.076       3.4630000      -2.3880000    -0.045250000       341.20900       1.9998373     0.014036526
       1016.0000       288.50633       98939.704       13907.870       2.6077500      -1.4572500     -0.14150000       341.38000       1.9460929     0.017426616
       1021.0000       288.55460       98937.114       13968.423       3.6385000      -1.7992500     -0.25525000       341.47300       2.0131419     0.015227892
       1026.0000       288.56869       98935.050       14003.022       2.9655000     -0.79025010      0.44350000       341.51500       1.9576296     0.014785216
       1031.0000       288.46929       98934.840       13943.773       4.0845000      -1.6192500    -0.098000000       341.07000       2.0122621     0.016265096
       1036.0000       288.43734       98930.999       13940.403       4.6797500     -0.66025000    -0.084750000       341.18700       1.9145099     0.023476341
       1041.0000       288.45985       98924.296       13992.358       4.8205000      -2.2625000     -0.37450000       341.06100       1.9273289     0.020066578
       1046.0000       288.44992       98920.385       14009.438       2.4472500     -0.20900000      0.17800000       341.41300       1.9724343     0.016152834
       1051.0000       288.44005       98916.474       14022.097       5.1560000      -1.6435000     -0.15925000       341.16700       2.0218526     0.014778117
       1056.0000       288.45031       98908.913       14048.565       2.6770000      -3.1557500      0.69325010       341.45800       1.9577196     0.013317485
       1061.0000       288.46015       98907.116       14064.383       5.5807500     -0.80625000     -0.96800010       341.13600       1.9927939     0.016378378
       1067.0000       288.44822       98910.479       14054.335       4.5367500     -0.49150000     -0.50225000       341.23900       1.9942093     0.017362897
       1072.0000       288.45564       98910.177       14076.058       3.7820000      -1.0597500      0.77575000       341.33700       2.0531608     0.014928357
       1077.0000       288.45453       98910.118       14061.276       3.1775000      -2.0585000     0.064000000       341.34200       2.0040675     0.016509806
       1082.0000       288.42390       98907.435       14007.608       2.7685000      -1.0635000      0.18675000       341.36800       1.8923506     0.027744542
       1087.0000       288.39415       98909.665       13948.428       2.8040000      -1.2892500      0.16725000       341.40500       1.9759480     0.018774495
       1092.0000       288.35269       98915.489       13835.240       2.9922500     -0.63800000     -0.44225000       341.44500       1.9834960     0.015961537
       1097.0000       288.34438       98920.622       13781.633       3.8362500     -0.29575000      0.90525010       341.58700       1.9314375     0.016423926
       1102.0000       288.35841       98933.171       13754.973       2.9675000      0.39500000     -0.13800000       341.25100       1.9675221     0.016724281
       1107.0000       288.34826       98937.847       13723.177       3.1880000     -0.30250000     -0.22175000       341.41600       1.9713118     0.015551750
       1112.0000       288.35589       98934.305       13729.427       3.2565000     -0.59500000      0.21575000       341.18300       2.0026757     0.016413288
       1117.0000       288.35468       98935.231       13727.045       4.1030000      -2.3212500    -0.033000000       341.30700       2.0331223     0.012934386
       1122.0000       288.29541       98934.774       13680.429       6.1917510      -1.0550000      0.22375000       341.22300       1.9874486     0.015286812
       1127.0000       288.28829       98934.951       13688.972       4.5605000      -1.8462500     -0.24925000       341.38500       1.9626359     0.015551012
       1132.0000       288.33415       98939.299       13750.407       3.5612500      -1.2882500     -0.13050000       341.34200       2.0052007     0.015732028
       1137.0000       288.35403       98941.195       13793.531       3.6595000      -1.5215000      0.57350000       341.38400       2.0112066     0.014475039
       1142.0000       288.38968       98937.358       13868.907       3.0145000      -1.0060000    -0.030000000       341.33700       1.9288994     0.019002420
       1147.0000       288.40800       98939.676       13919.143       3.3225000      -1.2287500     -0.34400000       341.39800       1.9839641     0.014606553
       1152.0000       288.38591       98949.946       13932.659       3.4185000      0.13100000      0.59175000       341.46500       1.9794046     0.013036542
       1158.0000       288.40108       98951.809       13979.910       3.3717500     -0.30550000      0.29625000       341.41800       1.9458680     0.022029112
       1163.0000       288.45142       98949.000       14054.392       2.8360000     -0.93050000    -0.029500000       341.58000       2.0233708     0.022087473
       1168.0000       288.45796       98950.977       14073.862       2.5222500     -0.45250000   -0.0082500000       341.55200       1.9554793     0.016789952
       1173.0000       288.45705       98951.597       14073.022       3.6655000      -2.2802500      0.28025000       341.44400       1.9626573     0.020280168
       1178.0000       288.45328       98949.641       14072.096       4.0745000      -1.5680000     -0.28900000       341.28000       1.9709683     0.016047128
       1183.0000       288.40542       98949.260       14017.599       3.4392500      -1.1615000      0.53600000       341.29900       1.9912990     0.012036816
       1188.0000       288.38957       98951.293       13999.954       2.5922500      -1.0270000    -0.048500000       341.38600       1.9073415     0.016468872
       1193.0000       288.38764       98951.581       13997.841       2.0032500     -0.49375000    -0.071750000       341.47800       1.9409503     0.014211065
       1198.0000       288.40175       98949.588       14013.519       3.6427500      -1.2965000     -0.52450000       341.20500       1.9798420     0.018005444
       1203.0000       288.43844       98952.871       14048.723       3.0432500     -0.19125000      0.29000000       341.52300       1.9720509     0.018754260
       1208.0000       288.45848       98950.758       14075.958       4.6285000      -1.1010000     -0.33250000       341.18400       1.9764890     0.019978195
       1213.0000       288.49563       98937.434       14127.507       4.2715000     -0.63750000    -0.036750000       341.20000       1.9191578     0.019343766
       1218.0000       288.51179       98932.297       14158.235       4.1457500      -1.2112500     -0.21100000       341.30600       1.9812142     0.023432938
       1223.0000       288.50006       98933.511       14167.250       5.0130000     -0.71800010      0.62000000       341.46800       1.9388758     0.014726090
       1228.0000       288.50011       98929.196       14185.899       3.4952500     -0.41950000     -0.78625010       341.26600       1.9595755     0.013253452
       1233.0000       288.50074       98923.042       14205.217       3.1027500     -0.74925010     -0.47700000       341.43800       1.9715815     0.016267315
       1238.0000       288.50102       98919.086       14224.222       2.1955000      -1.1510000     -0.16675000       341.47700       1.9908041     0.018639968
       1244.0000       288.50013       98910.584       14242.787       3.0640000     -0.62800000      0.27625000       341.44900       1.9636392     0.016079445
       1249.0000       288.50024       98907.834       14267.479       4.1712500      -2.5615000     -0.28675000       341.35200       1.9457058     0.019543139
       1254.0000       288.50024       98910.154       14307.276       3.7435000      -2.1087500      0.46725000       341.41600       1.9689912     0.015142667
       1259.0000       288.50041       98910.094       14321.222       3.7897500      -1.1815000     -0.18325000       341.21500       1.9961594     0.016727867
       1264.0000       288.52284       98910.430       14348.314       2.2075000      -2.0817500     -0.34675000       341.33700       1.9342879     0.015533284
       1269.0000       288.49072       98910.489       14323.958       3.7677500      -1.3327500     -0.16250000       341.22200       1.9507900     0.024146608
       1274.0000       288.40591       98910.243       14241.252       2.3730000     -0.38400000      0.31425000       341.44300       2.0503437     0.011075178
       1279.0000       288.38220       98910.243       14200.167       4.1650000      -2.5212500    -0.028750000       341.26400       1.8100580     0.022345846
       1284.0000       288.34407       98910.425       14151.950       3.5672500      -2.1307500      0.13125000       341.28700       1.9467288     0.016795479
       1289.0000       288.33631       98910.456       14102.085       3.0425000    -0.016250000      0.93150000       341.36400       1.9868841     0.018586924
       1294.0000       288.41047       98910.306       14081.699       4.4245000     -0.86025010      0.17400000       341.35100       1.9588377     0.017218866
       1299.0000       288.40806       98910.306       14023.897       3.3202500      -1.2210000      0.18725000       341.36000       1.9660861     0.020237726
       1304.0000       288.34673       98908.171       13901.616       4.0105000      -2.2720000    -0.053000000       341.39000       2.1909257     0.016295971
       1309.0000       288.34309       98911.470       13867.072       3.0100000      -1.9540000     -0.16175000       341.17300       2.0398293     0.010523733
       1314.0000       288.33159       98918.772       13848.235       2.2855000     -0.23225000      0.51150000       341.47300       1.9465160     0.015846791
       1319.0000       288.35372       98922.786       13869.982       3.4552500     -0.89425000      0.10825000       341.26700       1.9365511     0.013533611
       1324.0000       288.44069       98930.126       13972.971       3.3665000      -1.6452500      0.19150000       341.27800       2.0359248     0.015423542
       1329.0000       288.47469       98932.864       14031.808       3.8062500      -1.6005000      0.45850000       341.26100       1.8343703     0.027420860
       1335.0000       288.49444       98930.446       14095.010       1.8282500     -0.93375000    -0.036750000       341.39100       1.9549085     0.014021645
       1340.0000       288.52501       98930.538       14174.889       2.5117500     -0.96925000     -0.13775000       341.52100       1.9923487     0.016694848
       1345.0000       288.54721       98929.150       14268.650       2.3922500      -1.9410000      0.38875000       341.53300       2.0579339     0.011079264
       1350.0000       288.56756       98930.911       14340.400       3.8362500      -1.2530000    -0.074250010       341.27900       1.9146062     0.015295716
       1355.0000       288.61193       98934.884       14447.617       2.5000000      -2.1440000     0.042750000       341.41600       1.9489459     0.019883862
       1360.0000       288.60446       98936.887       14471.154       2.2727500      -1.7942500      0.18525000       341.57900       1.9197938     0.015270719
       1365.0000       288.55508       98940.767       14433.880       1.7127500      -1.3287500     -0.12250000       341.41300       1.9683384     0.019271065
       1370.0000       288.53501       98941.918       14415.967       2.0127500      -1.2895000     -0.71925000       341.35400       1.9866561     0.027565080
       1375.0000       288.49688       98940.103       14363.282       2.4167500      -2.5975000      0.16325000       341.35100       2.0093741     0.014734163
       1380.0000       288.48540       98940.010       14331.552       2.7652500     -0.98800000      0.88650010       341.34800       1.9728259     0.014798706
       1385.0000       288.50020       98938.460       14316.865       4.5697500      -2.0720000      0.10700000       341.44000       2.1955441     0.014046798
       1390.0000       288.50031       98942.194       14274.090       3.1785000      -1.6470000      0.56650000       341.51000       2.0026322     0.014394375
       1395.0000       288.50842       98951.416       14214.675       3.3165000      -2.4565000      0.38375000       341.30700       1.9721992     0.018698013
       1400.0000       288.48951       98951.699       14160.548       2.5345000     -0.85850010      0.15400000       341.59400       1.9909828     0.015442497
       1405.0000       288.44545       98950.028       14077.388       3.0410000      -2.0215000     -0.24950000       341.40900       1.9807546     0.012796763
       1410.0000       288.44426       98952.056       14058.152       4.0117500     -0.65075000      0.50625000       341.32300       1.9729813     0.012536129
       1415.0000       288.44156       98948.726       14062.238       2.3837500     -0.79150000     -0.12250000       341.43000       2.1284847     0.013810403
       1420.0000       288.45025       98950.513       14078.194       3.4040000     -0.53400000      0.39325000       341.55100       1.9836814     0.020320906
       1426.0000       288.50524       98961.400       14147.343       4.1377500      -1.7332500     0.013750000       341.33800       1.9547613     0.019218645
       1431.0000       288.48503       98960.302       14163.624       3.0322500      -1.4135000   -0.0067500000       341.47100       2.0577505     0.016189224
       1436.0000       288.49358       98960.337       14204.125       2.7545000      -1.4612500     -0.26275000       341.44500       1.9824348     0.014902323
       1441.0000       288.57486       98963.295       14318.972       3.0985000    -0.056250000     -0.48775000       341.40700       2.0797228     0.012663483
       1446.0000       288.56834       98961.559       14347.702       2.4372500      -1.0660000      0.19900000       341.62400       2.0066979     0.020715499
       1451.0000       288.52490       98957.351       14340.006       2.4492500     -0.89750000      0.24375000       341.61600       2.0067063     0.016432122
       1456.0000       288.45201       98950.391       14321.500       3.3270000     -0.83725010     -0.20850000       341.48300       1.9707091     0.014979705
       1461.0000       288.42126       98946.303       14263.818       4.6805000      -2.6625000     -0.76850000       341.32200       1.9888674     0.017765810
       1466.0000       288.33252       98938.926       14123.513       3.2695000      -1.4572500     0.090750000       341.41200       2.0031094     0.018813071
       1471.0000       288.39990       98940.302       14084.297       2.8252500      -2.0875000      -1.1757500       341.40100       1.9667952     0.014506914
       1476.0000       288.41276       98940.337       14010.059       1.9547500      -2.4632500      0.23000000       341.53300       1.9187432     0.016178867
       1481.0000       288.35481       98940.277       13877.383       1.7147500     -0.98825000      0.71100000       341.64200       1.9882133     0.016509549
       1486.0000       288.34377       98940.241       13804.339       2.0947500      -1.2200000      0.21775000       341.40800       1.9807091     0.015720414
       1491.0000       288.34512       98940.186       13735.186       3.9580000      -2.2865000      -1.3955000       341.32500       2.0040925     0.014947929
       1496.0000       288.34387       98940.127       13690.851       3.2862500      -2.1017500     -0.78000000       341.32600       2.0239730     0.015324163
       1501.0000       288.35491       98940.068       13679.539       3.4727500      -2.1362500      0.14725000       341.40400       1.9295095     0.016776770
       1506.0000       288.40629       98940.389       13733.679       2.3897500     -0.57750000      0.49200000       341.54500       2.0257979     0.017319159
       1511.0000       288.41490       98940.399       13748.098       2.1982500     -0.65900000     -0.51800000       341.34700       1.9804279     0.013411726
       1517.0000       288.39695       98940.070       13759.276       2.1120000      -1.8290000      0.24425000       341.70400       1.9801135     0.026763426
       1522.0000       288.43429       98940.308       13821.041       2.9410000      -1.7422500      0.58575000       341.42400       1.9863513     0.011127318
       1527.0000       288.45436       98940.345       13868.574       3.1597500      -2.6502500    -0.071500000       341.43400       1.9377000     0.015953421
       1532.0000       288.50435       98941.691       13965.619       3.4080000      -1.8460000     0.027500000       341.35900       1.9833360     0.015888143
       1537.0000       288.51155       98940.555       13998.165       3.3545000     -0.51150000     -0.17475000       341.26000       1.9805961     0.017958022
       1542.0000       288.45210       98935.563       13958.094       3.4397500     -0.16550000     -0.22850000       341.14000       1.9380265     0.016572223
       1547.0000       288.44355       98934.741       13960.262       3.4587500      -1.3700000      0.15550000       341.30700       1.9651759     0.015968304
       1552.0000       288.43023       98936.259       13939.862       3.3675000      -1.1832500      0.55100000       341.25000       1.9539034     0.017692755
       1557.0000       288.44302       98935.327       13944.092       4.6102500      -1.2975000     -0.70925000       341.33200       1.9856498     0.015782638
       1562.0000       288.53996       98936.065       14028.014       4.2900000      -1.3187500     -0.56900000       341.33400       1.9979757     0.016820005
       1567.0000       288.56812       98936.001       14040.325       4.3980000      -1.2480000     -0.78675000       341.40700       1.9390451     0.015655226
       1572.0000       288.55661       98931.280       13997.162       3.0402500      -3.3882500      0.10575000       341.47900       1.8398492     0.026421003
       1577.0000       288.55544       98929.463       13978.802       6.4617510      -3.0117500     -0.57750000       341.28000       1.8922701     0.034292175
       1582.0000       288.50940       98933.116       13925.294       4.1987500     -0.35975000      0.23825000       341.36400       1.9404356     0.012513078
       1587.0000       288.49044       98930.846       13894.263       5.0082500      -2.0765000     -0.86700000       341.25500       2.1699030     0.014125569
       1592.0000       288.50019       98920.745       13904.221       3.9270000      -1.8557500     0.073750000       341.40500       1.9361651     0.017674540
       1597.0000       288.50034       98919.005       13891.194       3.4040000      -1.0217500      0.34475000       341.54000       1.9610778     0.016759809
       1602.0000       288.51407       98921.968       13872.167       3.9260000      0.30425000      0.72550000       341.27100       1.9576784     0.015308626
       1608.0000       288.49908       98919.550       13835.466       3.9735000      0.22775000     0.066250000       341.39000       1.9123333     0.022684689
       1613.0000       288.44894       98921.654       13762.423       4.2887500     -0.33925000      0.47475000       341.55300       1.9235812     0.018643608
       1618.0000       288.44247       98920.942       13749.055       3.2305000      -1.5202500      0.69175000       341.51800       1.9251141     0.014884664
       1623.0000       288.44260       98912.511       13761.240       6.1070000      -1.2865000     -0.40300000       341.34500       1.9540477     0.019157678
       1628.0000       288.44608       98907.906       13771.722       4.2720000     -0.74800000      0.19625000       341.43000       1.9773464     0.016126120
       1633.0000       288.49485       98905.115       13830.811       3.9587500     0.034250000      0.48500000       341.44700       1.9423002     0.024262266
       1638.0000       288.51070       98904.443       13862.252       3.8715000      -2.9190000     -0.76975010       341.52400       1.9504159     0.015110419
       1643.0000       288.50022       98905.896       13875.699       3.9910000      -2.1725000      0.20350000       341.49400       1.9510037     0.015696308
       1648.0000       288.50038       98904.889       13889.858       4.6325000      -2.6075000   -0.0045000000       341.39700       2.0462500     0.021281236
       1653.0000       288.51254       98904.661       13926.144       4.8077500      -1.0812500      0.39775000       341.53000       1.9841018     0.014933223
       1658.0000       288.49874       98905.649       13914.986       4.5167500     -0.51975000    -0.057500000       341.38000       1.9432692     0.014413658
       1663.0000       288.44874       98904.566       13847.920       2.1022500      -1.4717500     -0.39850000       341.48200       2.0135916     0.016255635
       1668.0000       288.44254       98904.931       13826.553       2.9072500      -1.6585000    -0.020250000       341.51400       1.9765224     0.015678987
       1673.0000       288.44262       98911.068       13797.110       4.4997500      -2.7015000     -0.30875000       341.22700       1.9130364     0.022516255
       1678.0000       288.44601       98911.325       13779.272       4.9217500     -0.59825000     0.095750000       341.22600       1.9905623     0.015384822
       1683.0000       288.49467       98905.126       13812.989       4.4877500      -3.0832500     -0.56475000       341.24500       1.9590013     0.016071293
       1688.0000       288.51062       98904.444       13804.236       4.7090000      -1.1765000     -0.40075000       341.48700       1.9850183     0.011988003
       1693.0000       288.50022       98904.668       13755.874       3.6205000      0.14200000      0.66775010       341.50200       1.9653213     0.014745010
       1699.0000       288.50041       98905.334       13735.197       3.0467500     0.035250000      0.61625000       341.58900       1.9244035     0.023886766
       1704.0000       288.48889       98910.209       13700.302       4.5617500      0.60175000      0.23450000       341.48800       1.8920219     0.025053723
       1709.0000       288.50493       98911.578       13719.599       3.3232500      -2.0292500     0.018000000       341.62600       1.9598882     0.016809495
       1714.0000       288.55327       98911.397       13804.255       4.5817500      -3.4027500      0.13250000       341.56900       1.9624469     0.027794452
       1719.0000       288.55695       98909.787       13827.640       6.6085000      -2.4857500     -0.19075000       341.29900       1.9940136     0.014205834
       1724.0000       288.54674       98904.882       13835.834       4.3970000      0.25650000    -0.062250000       341.35000       1.9993640     0.012683637
       1729.0000       288.55670       98904.457       13879.417       7.5850010     -0.44200000      0.55825000       341.36000       1.8168778     0.022938383
       1734.0000       288.54330       98905.695       13907.955       5.3445000      -1.0355000      0.93625000       341.24800       1.9500025     0.015187455
       1739.0000       288.54969       98904.687       13947.919       3.6407500     -0.63150000      0.34100000       341.34600       2.0017253     0.018433096
       1744.0000       288.61119       98904.857       14065.054       3.5260000      -1.1630000     -0.50800000       341.53100       2.0314083    0.0097194752
       1749.0000       288.60913       98905.849       14085.110       3.6875000      -1.0660000      -1.0795000       341.38000       1.9520750     0.017820005
       1754.0000       288.54675       98904.540       14019.659       3.2405000      -1.0800000      0.45325000       341.48600       1.9692339     0.017511446
       1759.0000       288.54317       98905.152       14014.684       2.5115000      -1.1077500      0.62400000       341.59200       1.9526173     0.015528315
       1764.0000       288.54290       98911.317       13997.427       2.6577500     -0.43950000      0.79525010       341.65700       1.9884901     0.016300994
       1769.0000       288.54897       98911.080       13993.967       4.5240000      -1.9212500      0.34700000       341.37400       1.9543549     0.018561353
       1774.0000       288.59897       98904.890       14029.372       1.7622500     -0.46525000      0.64575000       341.71400       1.8897941     0.018251559
       1779.0000       288.61257       98904.456       14035.685       3.8127500    -0.089250010     0.021750000       341.50200       1.9791360     0.019861240
       1785.0000       288.59130       98900.331       14010.074       2.0097500     -0.56500000     -0.40675000       341.65900       2.0870495     0.020402585
       1790.0000       288.61023       98910.656       14027.219       3.6280000     -0.61925010      0.34150000       341.68600       1.9094618     0.028133461
       1795.0000       288.65546       98938.342       14073.819       3.4632500      -1.1582500     -0.59975000       341.43400       1.9075099     0.021462984
       1800.0000       288.65672       98940.163       14078.390       3.5742500      -1.3587500     -0.49450000       341.50700       1.9445181     0.015796012
       1805.0000       288.65691       98939.802       14083.593       2.8615000      -1.3595000      0.50150000       341.53300       1.9638796     0.013818996
       1810.0000       288.64823       98933.626       14081.984       2.6360000     -0.93100010     0.028750000       341.64700       2.0241587     0.010055917
       1815.0000       288.59758       98903.362       14035.416       3.6175000      -1.2592500     -0.19950000       341.35600       1.9083712     0.018087903
       1820.0000       288.58678       98897.783       14047.417       4.2962500     0.026000000     -0.39250000       341.44100       1.9564168     0.021701496
       1825.0000       288.60897       98904.616       14105.122       3.4680000      -1.0285000      0.89750000       341.68600       1.9841819     0.013019048
       1830.0000       288.59025       98905.506       14111.636       4.8575000      -1.8057500     -0.95150010       341.32700       2.0041872     0.016134872
       1835.0000       288.55302       98910.607       14121.224       5.2000000      -1.4982500     -0.52650000       341.29000       1.9585346     0.019240825
       1840.0000       288.53304       98911.739       14103.025       3.3115000      -1.7332500      0.11325000       341.39700       1.9471473     0.022701214
       1845.0000       288.49709       98910.442       14043.547       2.3450000      -1.8415000     -0.49775000       341.28000       1.9810468     0.016240316
       1850.0000       288.48607       98910.502       14007.579       1.8855000      -1.1005000      0.78000000       341.63000       1.9789557     0.018486906
       1855.0000       288.49111       98910.393       13963.303       3.8047500      -1.1962500     -0.15700000       341.40200       1.9233429     0.025832356
       1860.0000       288.50971       98910.439       13944.227       2.9482500      -1.4085000       1.4382500       341.64700       1.8693217     0.026982943
       1865.0000       288.54583       98910.527       13941.236       4.4207500      -1.9315000     -0.75100000       341.30100       1.9380167     0.022546823
       1870.0000       288.56624       98910.632       13923.155       3.2577500     -0.79425000    0.0042500000       341.56200       1.9244606     0.020289376
       1876.0000       288.61220       98910.950       13915.888       4.9285000      -1.0462500     -0.13800000       341.26500       1.9876692     0.016235771
       1881.0000       288.55486       98905.768       13835.450       4.4212500      -1.4080000     -0.21850000       341.41400       1.9867613     0.015012777
       1886.0000       288.54315       98904.596       13814.029       3.8122500     -0.91700010      0.29650000       341.62000       1.9310927     0.021114728
       1891.0000       288.52987       98906.298       13821.027       3.7177500     -0.51075000     -0.20050000       341.54100       1.9376508     0.020892003
       1896.0000       288.53728       98905.291       13841.824       4.3310000     0.044000000      0.17450000       341.27600       1.9294884     0.016953165
       1901.0000       288.56928       98904.283       13889.317       3.0092500     -0.91850010      0.10125000       341.47800       1.9216982     0.036386046
       1906.0000       288.65643       98905.431       13992.433       3.1877500      -1.2495000     -0.59650000       341.39700       1.9724540     0.018047546
       1911.0000       288.68550       98906.488       14058.631       4.3920000      -1.1702500     0.055000000       341.46100       1.9282785     0.020198521
       1916.0000       288.70639       98904.692       14126.127       3.1495000      -2.1087500     0.059500000       341.32200       2.0198063     0.019922635
       1921.0000       288.71456       98910.272       14200.110       3.1945000      -1.8040000      0.12625000       341.46400       1.9525415     0.016502288
       1926.0000       288.70578       98911.538       14220.553       2.2965000      -1.0655000      0.43550000       341.58200       1.9030035     0.018369988
       1931.0000       288.68488       98907.332       14187.435       3.5370000      -1.0550000     0.074000000       341.41400       1.9902319     0.015851256
       1936.0000       288.65630       98905.376       14149.662       3.0697500      -1.6132500     -0.37875000       341.47500       1.9671714     0.019149405
       1941.0000       288.57004       98900.427       14040.097       2.5895000      -1.6865000     -0.48750000       341.46500       1.9277903     0.022578019
       1946.0000       288.53770       98899.240       13975.143       2.0162500      -1.5367500      0.23100000       341.62600       1.9784570     0.019830522
       1951.0000       288.52999       98900.525       13927.906       2.3965000      -1.4192500     0.044000000       341.66800       2.0025834     0.012788334
       1956.0000       288.54390       98906.043       13901.542       2.4097500      -1.4907500     -0.74050000       341.61900       2.0087357     0.014633585
       1961.0000       288.55589       98905.984       13858.221       2.6667500     -0.53000000     -0.17150000       341.69900       2.0095017     0.017405171
       1967.0000       288.60844       98905.643       13820.348       2.8187500      -1.1045000      0.40350000       341.78800       1.9543787     0.019331028
       1972.0000       288.59979       98901.216       13772.672       2.3245000     -0.91625010    -0.012750000       341.47500       1.9711770     0.017017531
       1977.0000       288.59970       98899.293       13760.295       3.5715000     -0.85900000     -0.66250000       341.54300       1.9185287     0.028006713
       1982.0000       288.60023       98900.504       13801.007       3.0370000      -1.5642500     -0.33250000       341.57100       1.9116886     0.015964544
       1987.0000       288.60035       98900.601       13823.049       1.9955000      -1.3457500      0.77375000       341.85400       1.9416033     0.018575119
       1992.0000       288.59998       98898.753       13850.468       3.6015000      -2.2357500     -0.30125000       341.50800       1.9060053     0.019672605
       1997.0000       288.59998       98899.866       13879.514       4.6690000      -1.7012500      0.20225000       341.58300       1.9975697     0.017043214
       2002.0000       288.58577       98903.595       13897.569       2.1045000      -2.7085000      0.11950000       341.51400       1.9459404     0.015624468
       2007.0000       288.59711       98905.572       13931.132       5.8532510      -2.7590000     -0.43175000       341.36700       1.9757663     0.014084814
       2012.0000       288.63459       98910.665       13999.851       4.4167500      -2.4052500      0.59275000       341.53100       1.9660578     0.014159101
       2017.0000       288.65466       98911.425       14031.520       4.9265000      -1.6615000      0.53925000       341.45400       1.9865369     0.016746689
       2022.0000       288.69060       98905.428       14051.163       3.3852500      -1.4395000     -0.39925000       341.57400       1.9613040     0.017165621
       2027.0000       288.70896       98904.559       14064.172       3.7600000     -0.70175000      0.41475000       341.51500       1.9836506     0.016928693
       2032.0000       288.68589       98906.205       14033.188       3.1025000      -1.8522500     -0.43150000       341.37600       1.9502521     0.015287116
       2037.0000       288.69708       98905.256       14032.617       2.5787500     -0.75500010      0.27250000       341.61000       1.9632600     0.017907781
       2042.0000       288.73294       98904.556       14058.077       2.3580000     -0.81800000     -0.26250000       341.76800       1.8900513     0.032884459
       2047.0000       288.75295       98905.585       14066.783       2.4755000     -0.62575000     -0.27425000       341.72700       1.9748524     0.016282071
       2052.0000       288.77595       98904.832       14062.384       3.1680000     -0.64100000       1.3192500       341.85500       1.8807117     0.029751108
       2058.0000       288.81248       98905.193       14089.050       3.0727500      -1.1270000     0.057250000       341.44700       1.9417986     0.021307476
       2063.0000       288.82591       98909.922       14102.108       3.5510000      -1.7105000     -0.11275000       341.66700       1.9476059     0.020884828
       2068.0000       288.85981       98911.630       14147.422       2.5550000      -1.1507500      0.37100000       341.93300       1.9748544     0.017599543
       2073.0000       288.95894       98910.418       14287.550       3.7330000      -1.1370000     -0.18275000       341.28100       1.9257236     0.017404442
       2078.0000       288.96752       98910.477       14311.254       2.6492500      -1.2322500      0.10100000       341.60200       2.0708158     0.012369729
       2083.0000       288.92060       98910.448       14287.644       2.3265000      -1.2330000     0.093000000       341.44100       1.9400822     0.017558193
       2088.0000       288.89650       98910.508       14259.400       2.9082500      -1.1055000      0.22125000       341.70100       1.9204355     0.017524540
       2093.0000       288.81065       98910.234       14137.313       1.9945000      -1.8340000    -0.038250000       341.82100       1.8748291     0.028284428
       2098.0000       288.77803       98910.194       14078.825       2.8385000      -1.3037500     -0.30000000       341.54400       1.9701358     0.014834383
       2103.0000       288.81317       98907.711       14074.197       3.4320000     -0.81375000      0.10925000       341.57000       1.9743333     0.017624088
       2108.0000       288.79976       98910.479       14030.678       1.7582500     -0.59950000      0.50425000       342.05800       1.9978625     0.016827654
       2113.0000       288.73626       98920.491       13944.096       3.4255000      -1.4700000     -0.31625000       341.47400       1.9657685     0.023777519
       2118.0000       288.74393       98921.657       13926.021       2.2967500      -2.1467500     -0.39225000       341.88100       2.1056291     0.011904063
       2123.0000       288.78104       98921.675       13922.184       2.4300000      -1.0717500      0.14725000       341.86600       1.9577664     0.018203526
       2128.0000       288.80449       98920.966       13937.218       1.7677500      -1.1080000     -0.33075000       342.03800       1.9805164     0.018044342
       2133.0000       288.93019       98908.412       14070.349       3.4745000      -1.6315000      0.36400000       341.76500       1.9925432     0.014202108
       2138.0000       288.92091       98907.847       14073.457       3.5917500      -1.3412500      0.16075000       341.71400       1.9813099     0.017824780
       2143.0000       288.77366       98917.881       13995.542       4.2355000       1.2507500    -0.015750000       341.52200       1.9940660     0.017200158
       2149.0000       288.71951       98922.717       13936.884       4.7212500      -1.9147500     -0.10975000       341.29800       1.9362587     0.014925625
       2154.0000       288.63333       98929.188       13800.983       2.4617500     -0.77350000    -0.033500000       341.56600       1.9661727     0.016450187
       2159.0000       288.62768       98933.665       13768.504       5.7120000     -0.88950000      0.95300010       341.38400       1.9505597     0.021076152
       2164.0000       288.75218       98935.666       13823.810       4.1852500      -1.3285000      0.29375000       341.46800       1.9243910     0.019133474
       2169.0000       288.76932       98936.028       13819.018       4.9052500      -1.0225000      0.47175000       341.23800       1.9381253     0.017744152
       2174.0000       288.74639       98935.009       13817.685       5.0610000     -0.86225000     -0.24450000       341.31000       2.0141710     0.016892378
       2179.0000       288.75624       98936.032       13826.385       3.0300000    -0.079500000     -0.25150000       341.68000       1.8897927     0.023478984
       2184.0000       288.74325       98935.883       13810.730       2.6697500      -1.5895000     -0.59325000       341.70800       1.9732252     0.020969979
       2189.0000       288.74958       98934.962       13822.599       3.5237500      -1.6152500     -0.25400000       341.49200       1.9217232     0.016327521
       2194.0000       288.82222       98934.901       13889.453       4.1380000      -1.6357500     -0.47050000       341.57600       1.8407992     0.031486637
       2199.0000       288.80374       98935.908       13898.000       3.6982500      -1.3100000      0.20375000       341.72300       1.9999647     0.014326471
       2204.0000       288.70412       98932.370       13863.188       4.4870000     -0.55675000     0.025750000       341.73100       1.9783807     0.019832794
       2209.0000       288.68046       98936.252       13868.126       5.1572500      -1.0317500     -0.25275000       341.27700       1.9566684     0.018263712
       2214.0000       288.64373       98950.944       13875.079       3.7542500      -2.0842500     -0.11825000       341.53500       1.9172995     0.014191356
       2219.0000       288.63612       98953.122       13874.204       3.7597500      -1.7745000     -0.20325000       341.63200       1.9117172     0.025343288
       2224.0000       288.72295       98951.777       13927.308       5.7050000     -0.96100000     -0.22100000       341.47400       1.9673672     0.017165630
       2229.0000       288.70392       98950.417       13887.162       2.5555000     -0.24575000     -0.25875000       341.72900       2.0192569     0.012940978
       2234.0000       288.59392       98940.394       13743.887       4.7942500      -1.7125000     -0.21500000       341.61600       2.0193958     0.013988594
       2240.0000       288.58785       98937.253       13709.213       3.0757500      -1.0700000      0.65825000       341.82200       1.9698002     0.017532205
       2245.0000       288.58692       98938.441       13681.996       3.8447500    -0.017500000      0.87425010       341.77300       1.9970677     0.017117004
       2250.0000       288.60401       98942.154       13684.722       5.4830000      0.76700000     0.094500010       341.30600       1.9178708     0.020803627
       2255.0000       288.70573       98951.404       13773.396       4.1822500      0.28775000      0.16025000       341.59100       1.9203675     0.017560940
       2260.0000       288.72789       98951.707       13801.380       5.4565000      0.30225000     -0.60875000       341.26300       1.9345821     0.022377049
       2265.0000       288.70904       98951.708       13798.146       4.9602500      0.43475000      0.22025000       341.38200       1.9105875     0.020249245
       2270.0000       288.68978       98949.808       13809.714       3.1320000    -0.041750000     0.049750000       341.65500       1.9138071     0.027927137
       2275.0000       288.65438       98937.961       13834.996       2.9362500    -0.087500010      0.30625000       341.63900       2.0513537     0.021067578
       2280.0000       288.63447       98939.476       13837.965       6.4375000     -0.70100000     -0.40950000       341.44900       2.2824615     0.024687958
       2285.0000       288.59697       98949.700       13820.774       6.1037500     -0.94875000     -0.97550000       341.36300       2.0703052     0.016929471
       2290.0000       288.58571       98953.691       13820.155       5.8790000     -0.48800000     -0.70375000       341.27000       2.1189336     0.026878107
       2295.0000       288.60002       98962.627       13818.376       5.0495000      -1.4917500    -0.087250000       341.47700       1.9307114     0.013745261
       2300.0000       288.59996       98961.073       13820.122       4.8760000      -1.7585000      0.17675000       341.35300       1.9321592     0.024594599
       2305.0000       288.60021       98951.323       13834.361       6.5775000     -0.90075000     -0.29150000       341.24800       1.9170069     0.023407090
       2310.0000       288.60014       98947.412       13830.166       5.2857500     -0.18525000      0.17350000       341.59100       1.9667580     0.013654900
       2315.0000       288.59998       98937.873       13814.090       4.1237500       1.0440000     -0.51325010       341.59500       1.9412643     0.015119940
       2320.0000       288.59998       98939.416       13809.962       5.9775000       1.1900000     -0.48950000       341.44700       2.2151788     0.012070408
       2326.0000       288.59408       98951.586       13796.579       5.6907500     -0.85650000      0.58700000       341.53700       2.2873371     0.015127429
       2331.0000       288.64516       98951.211       13849.886       6.5112500     -0.41725000      -1.1842500       341.40200       2.1239910     0.021317798
       2336.0000       288.65672       98951.475       13857.388       4.7105000      -1.1535000     -0.25925000       341.48600       2.0135576     0.015349279
       2341.0000       288.65517       98943.169       13833.574       7.1660000     -0.74025010     -0.25050000       341.35300       1.9779079     0.022525748
       2346.0000       288.65642       98938.944       13825.787       7.2360010      -1.2705000      0.97600010       341.24800       1.8741925     0.026129433
       2351.0000       288.64532       98937.176       13811.062       3.4207500    -0.032750000      0.30950000       341.66000       2.0679644     0.011616463
       2356.0000       288.59322       98940.996       13755.928       4.4092500      -1.2945000     -0.48125000       341.44800       1.9123260     0.016451425
       2361.0000       288.58452       98938.833       13760.831       3.7710000     -0.84500000      0.24000000       341.53600       1.9354492     0.022929926
       2366.0000       288.60638       98935.455       13816.388       5.2470000      -1.7780000     -0.13950000       341.62200       1.9562536     0.021013672
       2371.0000       288.56925       98931.610       13777.773       4.1640000     -0.79700010      0.43775000       341.10900       1.9388744     0.022189344
       2376.0000       288.54900       98929.418       13755.346       3.6660000      -1.7690000     -0.31350000       341.42400       1.9414024     0.021778784
       2381.0000       288.51457       98934.875       13688.526       4.1890000     -0.26600000     -0.21900000       341.60400       1.9073466     0.015826397
       2386.0000       288.49363       98932.277       13651.486       4.6185000     -0.36550000     -0.33125000       341.35900       1.9607914     0.015961500
       2391.0000       288.51482       98915.279       13665.580       3.6747500     -0.42825000     0.098000000       341.51300       2.0219333     0.020059205
       2396.0000       288.50612       98912.774       13657.499       2.6880000      -1.0265000      0.15250000       341.57400       1.8952906     0.023471346
       2401.0000       288.48512       98915.186       13644.498       2.6607500      -1.3722500      0.23275000       341.73000       1.9351214     0.017462652
       2406.0000       288.44408       98920.025       13622.539       4.0087500      -1.2422500     -0.81025000       341.44900       1.9052765     0.024496194
       2411.0000       288.44524       98919.115       13631.002       5.7525000      -3.7972500     -0.16925000       341.19900       1.9463579     0.015677330
       2417.0000       288.44282       98927.758       13640.384       4.6415000      -1.6227500     -0.26525000       341.41700       1.9732897     0.018416330
       2422.0000       288.53901       98913.100       13742.741       4.8622500      -2.1957500      0.32225000       341.45500       1.9343147     0.024719916
       2427.0000       288.56720       98907.353       13781.827       4.8020000      -1.3030000     -0.45500000       341.48100       1.9970687     0.014772255
       2432.0000       288.55618       98910.372       13795.145       5.9522500      -3.8770000    -0.015750000       341.38600       1.9965863     0.018819392
       2437.0000       288.55487       98910.410       13809.736       4.9920000      -1.7555000     -0.76425000       341.44600       2.1244664     0.017728215
       2442.0000       288.49505       98910.471       13764.384       4.2740000     -0.59975000      0.21025000       341.43100       1.9966218     0.016701523
       2447.0000       288.48786       98910.568       13764.915       5.2675000      -2.3135000     -0.26175000       341.37600       1.9292903     0.021787611
       2452.0000       288.54853       98911.736       13826.770       4.7822500      -1.7887500      0.45450000       341.37700       2.0083567     0.013363067
       2457.0000       288.55736       98910.617       13836.232       3.2690000     -0.81400000      0.14500000       341.55500       1.7798960     0.033979937
       2462.0000       288.54198       98906.697       13814.568       4.1737500      -1.1682500     -0.29700000       341.39800       1.9640536     0.015180553
       2467.0000       288.55203       98904.617       13820.223       4.5845000      0.34025000       1.1040000       341.41400       1.8754471     0.025718453
       2472.0000       288.52939       98901.277       13793.872       4.0845000      -1.1337500     -0.70425000       341.44700       1.9501681     0.014667462
       2477.0000       288.54191       98899.439       13802.029       4.6040000     -0.38125000     -0.25475000       341.47400       1.9305324     0.024485151
       2482.0000       288.62396       98900.178       13864.434       5.2267500       1.0112500      0.27275000       341.60400       1.9407271     0.020681426
       2487.0000       288.66230       98900.157       13909.216       4.0607500      -1.4672500     -0.21225000       341.50300       1.9681255     0.021328409
       2492.0000       288.69056       98900.113       13954.610       4.3752500     -0.37525000      0.24325000       341.46200       1.8565640     0.026773261
       2497.0000       288.70938       98900.054       14000.491       5.3360000     -0.50375000     0.026000000       341.28200       2.0020114     0.016880899
       2502.0000       288.70052       98900.243       14057.633       6.2567500      0.16975000     -0.57175000       341.21700       1.9493896     0.022862813
       2508.0000       288.70084       98900.266       14102.291       5.0030000     -0.65850000      0.86250000       341.57900       1.9609764     0.019074097
       2513.0000       288.72582       98900.345       14158.655       5.4465000     -0.80350010     -0.47375000       341.24100       2.0274489     0.019703032
       2518.0000       288.69866       98900.385       14150.020       4.9437500     -0.93900010    -0.029750000       341.24600       1.9785431     0.018543078
       2523.0000       288.61071       98900.378       14070.326       5.0880000      -1.6872500     0.055750000       341.40100       1.9036917     0.016570223
       2528.0000       288.58461       98900.419       14033.316       4.1135000      -2.4175000      0.22700000       341.52800       1.9544489     0.023706133
       2533.0000       288.54762       98899.263       13974.779       5.9012500     0.057250000      0.72450010       341.46800       1.9568660     0.021865257
       2538.0000       288.53582       98900.788       13924.920       4.5255000     -0.25400000     -0.16975000       341.45500       1.9165544     0.023643934
       2543.0000       288.59451       98904.126       13916.369       3.7332500       1.2137500      0.29700000       341.66000       1.9582899     0.018789649
       2548.0000       288.61080       98906.163       13869.955       2.7835000     -0.57425000     0.038000000       341.66900       1.9511881     0.015838630
       2553.0000       288.59976       98907.158       13762.844       3.6685000      -1.4492500      0.51075000       341.78500       1.9651128     0.030687064
       2558.0000       288.59969       98911.504       13716.857       5.5400000      -2.6232500    -0.062500000       341.39500       1.8937479     0.019341843
       2563.0000       288.58694       98918.137       13677.784       5.2170000     -0.18775000     -0.51350000       341.22000       1.9002490     0.025757721
       2568.0000       288.60064       98922.167       13675.799       4.3505000     -0.37550000     -0.32150000       341.32800       1.9570518     0.024105729
       2573.0000       288.63784       98929.402       13735.147       5.6712500      -1.1792500      0.21300000       341.31900       1.9798832     0.015536735
       2578.0000       288.65764       98932.704       13771.855       4.9502500     -0.12675000    -0.072750000       341.52300       1.9667242     0.019603128
       2583.0000       288.68160       98930.378       13800.985       5.3132500     -0.70775000     -0.17025000       341.48700       1.9100057     0.023163235
       2588.0000       288.71159       98930.418       13868.543       3.9922500      -1.8942500     -0.42150000       341.12200       1.9990799     0.014702040
       2593.0000       288.75049       98928.951       13989.132       4.6090000      -1.0625000     -0.58925000       341.15600       1.9442629     0.027422361
       2599.0000       288.75625       98930.705       14050.801       4.6902500      -2.2017500     0.010500000       341.22300       1.9730752     0.015197285
       2604.0000       288.75649       98934.446       14112.242       4.0862500     -0.31325000    0.0070000000       341.37000       1.9712087     0.020422566
       2609.0000       288.75033       98936.434       14130.181       6.4805000      -1.2577500      -1.2897500       341.44600       2.0562265     0.010471157
       2614.0000       288.68958       98941.480       14055.635       5.6192500      -2.2547500     -0.23750000       341.50300       1.9709259     0.020759834
       2619.0000       288.69213       98941.283       14050.947       3.7815000     -0.72575000     0.095000010       341.57800       1.9782051     0.013970234
       2624.0000       288.75253       98936.123       14086.391       3.1797500      -1.7157500     -0.55325000       341.60200       2.0181215     0.013702621
       2629.0000       288.75605       98934.096       14076.945       3.5115000      -1.5305000    -0.052750000       341.33600       1.8987350     0.021133381
       2634.0000       288.75753       98930.379       14068.598       2.1777500     -0.59400000     -0.27600000       341.61800       1.9457913     0.015002160
       2639.0000       288.75155       98928.986       14042.427       4.3225000     -0.84750000      0.32725000       341.52400       1.9503969     0.015082465
       2644.0000       288.68898       98930.352       13951.532       2.5807500     -0.77475010     -0.16275000       341.58900       2.0276851     0.010963908
       2649.0000       288.69121       98930.396       13942.217       2.8182500     -0.86475000      0.24475000       341.92100       1.9351494     0.025590257
       2654.0000       288.74246       98932.725       13973.563       3.3402500     -0.95400010     -0.40625000       341.63800       2.0344498     0.024719162
       2659.0000       288.76237       98929.574       13995.403       2.3587500     -0.60975000    -0.087250000       341.80400       1.9329642     0.019936928
       2664.0000       288.79915       98921.995       14062.764       3.0735000     -0.48800000      0.29650000       341.85300       1.9568770     0.022469783
       2669.0000       288.81276       98918.040       14094.129       3.6770000     -0.12000000     -0.42200000       341.46100       1.9357422     0.015923007
       2674.0000       288.78880       98910.612       14089.316       1.7897500     -0.93275000     0.044000000       341.61800       1.9429856     0.017533325
       2679.0000       288.80535       98907.961       14126.460       3.2520000     -0.87625000      0.40600000       341.46300       1.9529970     0.017088795
       2684.0000       288.85335       98910.462       14191.892       3.5755000      0.11125000     0.028750000       341.52100       2.0039028     0.018516741
       2690.0000       288.85666       98910.569       14229.643       2.9592500     -0.78550000      0.18450000       341.55700       1.9232605     0.022541161
       2695.0000       288.84733       98910.142       14263.813       4.5665000      -1.3515000      0.22400000       341.56700       1.9815957     0.015414793
       2700.0000       288.85731       98910.082       14294.269       3.9617500     -0.55500000     -0.39300000       341.23900       1.9649587     0.015926812
       2705.0000       288.83409       98910.442       14291.457       4.3540000     -0.50400000     -0.42700000       341.22100       1.9343991     0.014664972
       2710.0000       288.86128       98910.501       14325.040       4.4225000     -0.40175000     -0.46950000       341.38400       1.9761985     0.022296251
       2715.0000       288.96655       98911.304       14414.236       2.8525000      -1.1760000      0.23525000       341.64100       1.9031535     0.018423653
       2720.0000       288.95938       98909.400       14404.238       2.4660000      -1.1052500      0.45700000       341.83800       1.9797750     0.025272812
       2725.0000       288.91915       98904.593       14371.923       2.1292500     -0.71400000     -0.58825000       341.86300       1.9615622     0.019465226
       2730.0000       288.87144       98904.428       14299.133       3.7525000      -1.6610000     -0.31475000       341.56200       1.9272538     0.029780693
       2735.0000       288.73774       98904.371       14141.042       2.3737500     -0.97325000      0.27675000       341.84200       1.9443489     0.015455148
       2740.0000       288.71390       98905.194       14049.968       3.4115000      -1.8292500     -0.65850000       341.56600       1.9803428     0.018593302
       2745.0000       288.74331       98910.666       13964.654       4.2175000      -1.8905000     -0.38075000       341.47600       1.9339892     0.018667219
       2750.0000       288.75202       98911.775       13886.710       3.7810000      -1.3892500     -0.14625000       341.69700       1.9423915     0.021180816
       2755.0000       288.80316       98911.246       13814.707       2.8390000      -2.1660000     -0.24875000       341.34000       1.9068868     0.020597587
