MIRICO/SHELL project - Processed LDS file generated on
Thu Jul 27 04:28:16 2017
Time stamp for record start
05/12/2017  14:02: 5.0001
Nb of points in the record
         547
Beam position index
       5.0000000
Beam angle (degrees)
       8.5250000
Open Path length (m)
       83.010000
****************** Temporal data record ************************
Elapsedtime_sec Temp_K Press_Pa Humidity_ppmv WindX_m/s WindY_m/s WindZ_m/s Speedofsound_m/s CH4vmr_ppmv CH4vmrerror_ppmv  
      0.00000000       288.65043       98930.659       13826.618       4.9542500      -2.5267500     -0.74175010       341.34600       1.9658552     0.010489420
       4.9999729       288.63997       98937.958       13831.852       3.5297500     -0.47325000     0.019500000       341.59700       1.9398070     0.011063780
       10.999981       288.65174       98948.725       13862.700       4.0430000      -1.9970000      0.44325000       341.62900       2.0053322     0.018974735
       15.999994       288.64300       98945.984       13873.137       3.6787500      -2.5000000     -0.11050000       341.43300       1.9700291     0.012205482
       21.000007       288.64444       98944.069       13892.999       4.8675000     -0.60950010     -0.10800000       341.44900       1.9911153     0.013676665
       25.999980       288.67597       98954.782       13941.203       1.9762500      -2.4212500    -0.032500000       341.57600       2.0304987     0.013085241
       30.999993       288.70629       98953.062       13985.332       2.8035000      -2.8942500    -0.085750010       341.36000       1.9771307    0.0099546275
       36.000006       288.74887       98931.776       14041.652       2.9645000     -0.20500000      0.33050000       341.52800       2.0261081     0.011160101
       40.999979       288.75803       98921.954       14064.184       5.3157500      -1.1747500      0.40300000       341.41400       1.9735269     0.012923345
       45.999992       288.75603       98910.157       14071.426       3.1787500     -0.98800000     -0.10275000       341.41800       1.9682819     0.010112183
       51.000005       288.75451       98906.778       14079.671       3.1827500     -0.87875000      0.52100000       341.45800       1.9963549     0.011299283
       55.999978       288.71026       98913.033       14047.442       5.6885000      -2.4030000     -0.40325000       341.21500       1.9890297     0.012121153
       60.999991       288.69182       98920.438       14038.654       4.5445000      -1.3765000     -0.64350000       341.27300       1.9996531     0.012465523
       66.000004       288.71450       98941.197       14065.393       3.7462500      -2.4025000      0.19600000       341.42200       1.9830457     0.010663612
       70.999977       288.70301       98948.651       14063.005       3.9057500      -1.3735000     -0.12700000       341.44800       1.9916682     0.011611592
       75.999990       288.65223       98951.731       14022.919       3.4405000     -0.33275000      0.23625000       341.48800       1.9649662    0.0091096110
       81.000003       288.64353       98952.220       14026.181       3.1217500      -1.2032500     -0.49300000       341.49400       1.9798293     0.011900913
       85.999976       288.65830       98942.932       14062.330       2.5475000     -0.77225010      0.15100000       341.56900       1.9965365     0.011932874
       90.999989       288.64834       98933.783       14063.392       2.7725000     -0.74675010     0.038250000       341.63600       1.9639871     0.011284381
       96.000002       288.65634       98919.766       14077.284       2.3122500     -0.31050000      0.80525000       341.75900       1.9462856    0.0099660447
       101.99997       288.65325       98912.120       14078.824       2.4070000     -0.93175010      0.34325000       341.65000       1.9998270     0.011586781
       106.99998       288.60497       98901.488       14022.850       3.6605000     -0.11350000      0.10900000       341.37000       1.9563800    0.0096512097
       112.00000       288.58896       98902.846       14007.668       3.9490000      -1.0545000     0.021250000       341.47100       1.9836732     0.011629404
       116.99997       288.61224       98921.200       14042.109       3.5685000     -0.84475000     -0.12875000       341.39800       1.9631223     0.010109335
       121.99998       288.59817       98928.863       14024.183       4.0390000     -0.56225000      0.39225000       341.45300       1.9919453     0.011324479
       127.00000       288.56126       98938.929       13982.398       4.5800000      -2.1715000      0.11125000       341.31500       1.9643094    0.0096707599
       131.99997       288.54126       98943.903       13948.060       4.8842500      0.29500000      -1.0590000       341.33900       1.9316089    0.0090134369
       136.99998       288.49214       98944.227       13865.918       5.3945000      0.14650000     0.099250000       341.46700       1.9679089    0.0099682426
       141.99999       288.48986       98940.069       13839.989       5.9017500      -1.8615000     -0.73150000       341.23200       1.9152938     0.010819928
       147.00001       288.55124       98929.028       13869.572       5.2945000      -1.1462500      0.38300000       341.30800       1.9656804     0.011144796
       151.99998       288.55765       98923.121       13860.137       4.8565000      -1.0915000     -0.71700000       341.43000       1.9948872     0.011125637
       156.99999       288.55828       98912.030       13854.837       4.7720000     -0.15650000      0.22975000       341.38900       1.9684792    0.0098321512
       162.00001       288.55457       98907.284       13846.285       6.2757500     -0.31425000      0.60225000       341.41700       1.9192815    0.0087732166
       166.99998       288.50516       98907.540       13801.183       6.0527500      -1.3597500     -0.77125000       341.41300       1.9416744    0.0085215017
       171.99999       288.48858       98910.207       13790.926       5.9602500      -1.6415000     -0.46025000       341.21100       1.9110454    0.0086973950
       177.00001       288.52563       98916.589       13843.992       5.8315000      -1.0895000     -0.38575000       341.28100       1.9232346    0.0087635021
       181.99998       288.49846       98921.950       13818.691       4.0752500      -2.2370000     -0.23550000       341.28300       1.8971766    0.0095126336
       186.99999       288.42385       98933.208       13754.656       3.6552500     -0.44400000     -0.17975000       341.39800       1.9891862     0.011889516
       193.00000       288.37615       98939.170       13688.670       4.4007500      0.32425000     -0.16225000       341.31400       1.9529665    0.0096563517
       197.99997       288.30132       98941.379       13568.699       5.4565000     -0.25175000     -0.22250000       341.26700       1.9694650     0.010307271
       202.99999       288.27421       98941.062       13513.666       5.1140000     -0.32575000     -0.11750000       341.23000       1.9455091    0.0093885950
       208.00000       288.30047       98939.636       13502.924       5.1040000     -0.78200010     0.010000000       341.18700       1.9775195     0.011487766
       212.99997       288.30076       98932.824       13475.771       5.9550000      -1.0115000      0.16900000       341.23600       1.9412616    0.0097294499
       217.99998       288.30004       98916.363       13457.383       4.8645000    -0.047500000      0.16300000       341.29700       1.9667882     0.010449899
       223.00000       288.29999       98910.576       13439.518       4.7320000     -0.44000000     -0.73250000       341.32500       1.9013424    0.0097387891
       227.99997       288.28901       98902.327       13409.625       5.3335000      0.31625000     0.076000010       341.44200       1.9721386     0.011062756
       232.99998       288.30529       98903.463       13412.883       5.7975000      0.79150000     -0.63325010       341.28500       1.9405530    0.0093659010
       238.00000       288.34187       98915.180       13439.591       4.4207500     -0.32875000     -0.18125000       341.35900       1.9497147    0.0082769173
       242.99997       288.36160       98925.284       13458.766       4.6650000      -1.4862500    -0.092500000       341.21000       1.9286808    0.0095769629
       247.99998       288.39932       98942.309       13496.506       4.1227500      -1.3127500     -0.24350000       341.34600       1.9819960     0.011233569
       253.00000       288.41297       98951.012       13526.373       4.4757500    -0.069500010     0.069500010       341.29900       1.9630850    0.0098450670
       257.99997       288.40009       98962.244       13539.910       5.3757500     -0.64300000      0.37675000       341.36900       1.9718438     0.010893920
       262.99998       288.40009       98963.233       13579.797       5.9272500      -2.5460000     0.031500000       341.32100       1.9203978    0.0088544590
       267.99999       288.38892       98955.153       13638.420       6.6132500      -3.5495000     -0.30800000       341.07200       1.9483712    0.0089907187
       272.99997       288.40496       98946.324       13692.146       4.6450000     -0.95475010      0.23250000       341.33600       1.8606519     0.010578808
       277.99998       288.45307       98928.818       13786.934       3.9235000     -0.73300000      0.80100010       341.32100       1.9322167    0.0092607022
       283.99999       288.45615       98916.550       13803.308       3.7925000     0.058500000      0.90800010       341.44000       1.9778570     0.011118250
       289.00000       288.45790       98901.939       13778.049       5.7137500      -2.7680000     -0.54125010       341.18000       1.9552381     0.010019337
       293.99997       288.44881       98902.286       13757.458       5.1925000      -2.0522500      0.26950000       341.30500       1.9532496     0.010558631
       298.99999       288.38872       98913.080       13677.651       4.5520000      -1.0162500     -0.33050000       341.23800       1.9181959    0.0080695690
       304.00000       288.39638       98919.889       13663.587       3.7192500      -1.5900000    -0.083250000       341.32500       1.9500859    0.0096527666
       308.99997       288.44649       98934.217       13692.089       3.3485000      -2.3612500      0.28300000       341.23800       1.9361041     0.011525200
       313.99999       288.46642       98943.343       13685.565       2.4532500      -1.6405000     -0.36375000       341.41600       1.9947251     0.011053677
       319.00000       288.51255       98949.837       13688.983       4.8245000      -1.3772500      0.16925000       341.31500       1.7747510     0.016919510
       323.99997       288.50525       98954.938       13664.947       3.9665000      -1.1395000      -1.0852500       341.13900       1.9437582    0.0083471141
       328.99999       288.44478       98963.520       13589.625       3.3952500      -1.3692500     -0.25225000       341.23700       1.9518650     0.010383720
       334.00000       288.44329       98960.198       13599.319       4.3772500      -1.8302500     -0.35750000       341.24500       1.9565130     0.010700663
       338.99997       288.45151       98948.645       13642.991       3.7770000     -0.81325010     0.093000000       341.32500       1.9964932     0.011944930
       343.99998       288.44159       98938.805       13664.026       4.9665000      -2.0902500    -0.022500000       341.32700       1.9555782    0.0088731332
       349.00000       288.44785       98920.457       13717.696       4.3925000      -1.7867500    0.0022500000       341.17100       1.9645328    0.0081325902
       353.99997       288.45804       98913.086       13766.064       5.0895000      0.40225000     0.061500000       341.22000       1.9039670    0.0090003564
       358.99998       288.43514       98907.788       13775.529       4.0070000      -2.3977500      0.95300010       341.31900       1.9567311    0.0087084501
       364.00000       288.46249       98909.202       13847.697       5.2302500     -0.13800000     -0.87850000       341.35800       1.9827307     0.010070929
       368.99997       288.55810       98916.640       13999.636       2.5410000      -1.4160000      0.71150000       341.47400       1.9313985    0.0090235226
       374.99998       288.57007       98928.477       14063.066       3.2622500      -1.6980000      0.41400000       341.40100       1.9638045    0.0091028357
       379.99999       288.55750       98946.248       14099.391       4.0387500      -1.3827500      0.36575000       341.45000       1.9887141     0.010708236
       385.00000       288.54595       98954.010       14113.498       4.4622500      -1.7327500     -0.37150000       341.21200       1.9675066    0.0096465009
       389.99998       288.49454       98962.182       14071.477       4.8105000      -1.0197500     -0.56350000       341.42800       2.0026699     0.011620812
       394.99999       288.51454       98964.657       14120.684       4.3542500      -1.9517500      0.51375000       341.22400       2.0074051     0.013026990
       400.00000       288.50577       98962.033       14108.043       2.9040000      -2.2597500     -0.25725000       341.48600       2.0045253     0.012657561
       404.99998       288.46980       98954.401       14047.315       3.1900000     -0.92900000      0.59725000       341.52100       1.9489019    0.0096239693
       409.99999       288.44989       98946.791       13994.142       3.3802500      -1.4342500     -0.22575000       341.44500       1.9315471    0.0095978998
       415.00000       288.41485       98930.147       13873.019       2.9837500      -1.2160000     -0.29675000       341.62200       1.9918668     0.012703292
       419.99997       288.39371       98918.909       13796.977       3.4520000      -1.6920000     -0.35425000       341.37600       1.9697078     0.011772455
       424.99999       288.38492       98910.130       13745.085       4.2827500      -1.5767500      0.25125000       341.46400       1.9740959     0.011040623
       430.00000       288.39293       98902.053       13715.358       3.4560000     -0.89825000    0.0052500000       341.54000       2.0138397     0.012675224
       434.99997       288.41434       98904.700       13719.795       2.7900000      -1.8200000      0.37300000       341.54300       1.9587044    0.0093238508
       439.99999       288.45578       98914.194       13763.143       4.1847500      -1.3990000      0.26275000       341.40600       1.9828544     0.011556764
       445.00000       288.45438       98928.748       13786.596       4.1727500     -0.39550000     0.095000010       341.31900       1.9785704    0.0098173588
       449.99997       288.45574       98937.239       13809.775       3.8692500   -0.0057500000      0.15900000       341.48600       2.0449852     0.012609698
       454.99999       288.40013       98935.928       13797.951       3.2110000     -0.85075000      -1.0302500       341.38900       2.0462644     0.015726589
       460.99999       288.38857       98940.745       13821.127       2.6572500      -1.6057500     -0.26150000       341.52900       1.8305960     0.011494873
       466.00001       288.43361       98950.022       13884.144       2.5062500     -0.18675000      0.38375000       341.58600       2.0114369     0.011489882
       470.99998       288.45374       98951.801       13921.489       3.9835000     -0.88025000    -0.041750000       341.43300       2.0427251     0.010550786
       475.99999       288.49003       98955.626       13963.915       3.7607500      0.20475000     0.020250000       341.33500       2.0662270     0.010853557
       481.00001       288.50897       98951.971       13996.276       3.3145000      0.28350000     -0.40450000       341.32900       2.1253742     0.012958124
       485.99998       288.50019       98933.152       14007.937       3.3692500     -0.43650000     -0.58950000       341.43500       2.2011272     0.013029005
       490.99999       288.50034       98922.215       14020.393       4.2942500      -1.2212500     -0.11800000       341.38400       2.5296650     0.010023415
       496.00001       288.50026       98908.309       14033.555       3.3507500      0.58600000      0.40475000       341.50500       2.5149419     0.011174907
       500.99998       288.50037       98901.927       14041.277       4.2975000    -0.072750000     -0.14125000       341.37100       4.5199872     0.016002730
       505.99999       288.50006       98904.650       14045.058       2.2475000     -0.51950000      0.43225000       341.53800       4.3745893     0.012061709
       511.00000       288.50009       98904.748       14039.036       2.6045000     -0.61150000      0.15325000       341.60500       3.4479612     0.011221482
       515.99998       288.48544       98905.103       14000.568       2.4790000     -0.90775010   -0.0055000000       341.49800       3.0093020     0.011461136
       520.99999       288.49678       98910.465       14003.370       3.1882500      -1.2775000      0.24950000       341.49700       2.3296580     0.010982836
       526.00000       288.53384       98920.313       14019.169       2.9060000      -1.0577500      0.64600000       341.36700       2.1966217     0.011694903
       530.99998       288.55390       98926.276       14041.826       2.7845000      -1.4565000      0.26825000       341.62400       2.1405904     0.011753919
       535.99999       288.59032       98934.658       14108.829       2.2945000     -0.88375000     -0.68225000       341.57500       2.0451056     0.012654371
       541.00000       288.60943       98942.647       14154.988       4.3930000     -0.88700000     -0.39600000       341.30500       2.0088093     0.011302297
       545.99998       288.59984       98950.104       14179.262       4.4060000      -1.6152500    -0.050000000       341.13900       1.9756098     0.010648742
       551.99998       288.59965       98951.943       14227.693       4.9562500      -1.7362500      0.50475000       341.52200       2.0291753     0.014609025
       557.00000       288.61409       98953.315       14307.308       2.7040000      -1.1052500     -0.41875000       341.32500       1.9853902     0.010178069
       561.99997       288.60042       98951.171       14320.977       2.2102500      -1.9375000       1.3612500       341.61400       2.0020020     0.012224489
       566.99998       288.53633       98939.990       14282.057       3.7110000      -1.9065000      0.14450000       341.35600       1.9733470    0.0099049807
       572.00000       288.54408       98931.934       14289.737       3.8540000      -1.4067500     0.069500010       341.37800       2.0152587     0.011949257
       576.99997       288.59468       98924.194       14292.036       2.1422500     -0.89200000    -0.030250000       341.62200       2.0095466     0.011340928
       581.99998       288.60476       98917.147       14274.960       2.8727500      -1.0037500      0.22375000       341.76000       2.1102694     0.010911444
       586.99999       288.65236       98899.816       14287.653       2.1522500      -1.3282500      0.21225000       341.39700       2.0356677     0.012530682
       592.00001       288.66450       98902.968       14278.756       2.5162500      -1.1140000     -0.38950000       341.49800       2.0219396     0.014514014
       596.99998       288.60498       98923.582       14206.594       2.1090000      -1.2087500     0.061250000       341.53900       1.9921577     0.012546283
       601.99999       288.58874       98933.842       14181.233       3.7772500      0.40900000     -0.55825000       341.64600       1.9517966    0.0095190494
       607.00001       288.58729       98960.024       14182.173       5.8187500      0.52075000      0.40925000       341.31500       1.9849129     0.011771305
       611.99998       288.60140       98966.965       14194.206       4.5432500      -2.4310000     -0.97250000       341.36300       1.9786154    0.0090973211
       616.99999       288.65089       98950.249       14240.059       5.2290000      -2.4985000     -0.33450000       341.31200       1.9715734    0.0088862229
       622.00001       288.65721       98949.026       14248.629       3.3982500      -1.9510000     -0.78200010       341.17100       1.9635910    0.0095452529
       626.99998       288.65654       98948.964       14247.806       3.6250000     -0.71400000      0.22750000       341.47300       1.9632965     0.010811611
       631.99999       288.65301       98949.673       14255.558       3.3920000     -0.11625000    0.0072500000       341.48400       2.0088396     0.011030468
       637.00000       288.60509       98962.029       14236.532       4.5282500      -1.1287500      0.15425000       341.64400       2.0228499     0.011523816
       642.99997       288.58733       98962.109       14236.364       5.6782500      0.44775000    -0.095000010       341.32000       2.3950971     0.012731963
       647.99999       288.58862       98955.564       14260.853       6.0550000     -0.40750000     0.019750000       341.21100       2.1991702     0.010354258
       653.00000       288.60521       98946.596       14278.975       5.3582500      -1.2160000      0.50725000       341.50600       2.1580191     0.011822144
       657.99997       288.64198       98927.847       14293.223       5.4045000      -1.0307500     0.042250000       341.29900       2.1238750     0.010592082
       662.99998       288.66195       98919.017       14308.757       4.6690000      -1.3492500     -0.26425000       341.14100       1.9663251    0.0086520985
       668.00000       288.69961       98910.263       14332.100       3.6687500      0.38925000      0.22725000       341.49800       1.9749607    0.0097178075
       672.99997       288.71368       98906.074       14353.364       3.2145000     -0.34725000     0.056250000       341.55100       1.9813536    0.0089491352
       677.99998       288.69989       98910.302       14374.075       4.3692500     -0.31950000      0.59300010       341.26800       1.9844443     0.011325752
       683.00000       288.69977       98910.273       14384.414       2.7222500      -1.1637500      0.19700000       341.64300       1.9235819    0.0084939053
       687.99997       288.70062       98908.138       14400.991       4.0642500      -1.9615000     -0.46750000       341.34900       1.9875872     0.011585812
       692.99998       288.70091       98911.397       14398.832       4.2995000      -1.3642500     -0.28750000       341.29500       1.9562610    0.0092893066
       698.00000       288.68774       98917.199       14358.294       3.0050000     -0.57900010     -0.96675000       341.26400       1.9734040     0.011135468
       702.99997       288.70394       98922.817       14362.699       4.2535000      -1.3207500     -0.31825000       341.31700       1.9494292     0.010468014
       707.99998       288.75359       98932.037       14392.248       3.6077500      -1.1482500    -0.055250000       341.44700       1.9355091    0.0096043217
       713.00000       288.75755       98940.096       14395.653       2.5395000     -0.16475000      0.50300000       341.83400       2.0797682     0.010340774
       717.99997       288.75619       98948.680       14411.537       3.7245000     -0.96175000     -0.29150000       341.62200       2.1103232    0.0091558939
       722.99998       288.74991       98954.051       14412.245       3.8232500      -2.2555000     -0.33825000       341.22900       2.0508541     0.011903715
       727.99999       288.68958       98962.534       14370.082       2.5697500      -2.6895000      0.19900000       341.19400       1.9827643     0.010763323
       734.00000       288.69559       98961.434       14377.513       3.0205000      -1.6697500     0.033500000       341.30500       1.9861979     0.010768789
       738.99997       288.74560       98951.199       14403.719       1.7380000     -0.39350000     0.020750000       341.47300       1.8608652     0.011392342
       743.99999       288.76584       98947.128       14440.637       3.1317500     -0.60875000     0.080250000       341.38100       1.9849598     0.010610976
       749.00000       288.81123       98940.318       14516.207       3.0625000     -0.51725000      0.24950000       341.47100       2.2277475     0.011928084
       753.99997       288.80357       98936.078       14533.271       3.5295000     -0.38100000      0.73450010       341.62800       2.1487244     0.010814666
       758.99999       288.75282       98937.377       14537.432       4.0662500     -0.48250000    -0.011750000       341.49000       2.3572709     0.011237876
       764.00000       288.73266       98931.662       14531.968       5.1815000     0.056250000     0.049000000       341.41700       2.8643916     0.012396919
       768.99997       288.69663       98921.583       14488.123       5.2230000      0.18875000      0.43675000       341.22600       2.9734106     0.013870162
       773.99999       288.68538       98914.603       14466.668       3.5942500    -0.053000000     -0.35000000       341.64600       2.5113984     0.010194884
       779.00000       288.71807       98904.267       14468.019       3.1102500     -0.62525000      0.23425000       341.63600       2.0707240    0.0094282193
       783.99997       288.68105       98901.880       14423.974       3.9535000     -0.84100000    0.0062500000       341.22800       1.9220956    0.0092566110
       788.99999       288.60975       98904.691       14361.021       4.4290000     -0.91275010     -0.39400000       341.39000       1.9570283    0.0095323102
       794.00000       288.56927       98905.649       14289.593       4.0285000      -1.2287500      0.54050000       341.29500       1.9648078    0.0097160694
       798.99997       288.49443       98908.616       14185.770       3.5947500      -1.9772500      0.21775000       341.51700       1.9493551    0.0096788863
       803.99998       288.47139       98913.446       14109.307       3.6945000    -0.079750000    -0.022250000       341.33200       1.9710350     0.010123703
       809.00000       288.50868       98918.589       14032.946       3.2040000     -0.95750000      0.29100000       341.44600       2.1060542     0.014163588
       813.99997       288.48989       98924.433       13970.966       3.4580000     -0.22950000      0.21775000       341.50500       2.0856783    0.0092464025
       818.99998       288.44472       98935.591       13899.808       2.6370000      0.22275000     0.081000000       341.46600       2.1145425     0.010066606
       824.99999       288.44453       98940.367       13901.000       5.5402500      0.84900000      0.52225000       341.17100       2.1003266    0.0092739460
       830.00000       288.43648       98941.098       13931.503       4.3067500      0.37050000      0.13000000       341.47300       2.0710292    0.0084736609
       834.99998       288.46962       98941.997       13995.656       4.5740000      -2.2095000      0.43400000       341.12300       2.2003872     0.012403718
       839.99999       288.56231       98939.169       14130.750       3.9635000     0.081500000     -0.42650000       341.21600       2.0412923    0.0094779625
       845.00000       288.55489       98949.465       14189.710       4.6817500     -0.17625000     -0.18775000       341.37300       2.2051393     0.011882164
       849.99998       288.55622       98951.836       14247.489       2.9730000     -0.31325000      0.86000000       341.40300       3.1988895     0.010151182
       854.99999       288.51463       98951.265       14297.020       3.7997500     -0.48175000     0.047500000       341.48500       3.9273548     0.011057987
       860.00000       288.49378       98951.464       14319.520       3.3512500      -1.0642500      0.68475000       341.54900       3.5325052     0.012443226
       864.99998       288.51471       98944.863       14349.811       3.4727500      -1.1197500    -0.097500000       341.10200       2.3911020    0.0094990984
       869.99999       288.50587       98939.795       14339.235       4.7522500     -0.68300000     -0.55900000       341.16700       2.0573670     0.010618721
       875.00000       288.48468       98935.963       14294.673       5.2882500      -1.2737500     -0.80050000       341.38600       1.9778458    0.0094567069
       879.99997       288.45105       98936.790       14199.414       3.5895000      0.86200000       1.1330000       341.42600       1.9611378    0.0088451157
       884.99999       288.43080       98930.470       14133.822       3.9900000      0.41875000    -0.022750000       341.24800       1.9738021    0.0093991564
       890.00000       288.38747       98919.567       14040.763       4.9250000      0.74675010     -0.24850000       341.04500       1.9973082    0.0091618676
       894.99997       288.44513       98914.681       14031.354       4.8195000      0.17150000      0.29650000       341.25600       2.1337845    0.0089474832
       899.99999       288.45683       98909.480       13999.531       3.3960000      0.12175000      0.27550000       341.48600       2.2457345    0.0098275680
       905.00000       288.45487       98905.762       13967.639       2.7597500      -1.2357500     -0.71225010       341.42800       2.5143023    0.0098537003
       909.99997       288.45602       98904.639       13946.247       3.7995000     -0.66525000   -0.0032500000       341.27300       2.2390604     0.010912577
       915.99998       288.40941       98904.725       13902.306       4.6412500      0.21225000     -0.26750000       341.21300       2.0139513     0.010659697
       920.99999       288.39074       98904.927       13882.030       3.3532500     -0.71050010      0.23100000       341.33900       2.0611504     0.010484789
       926.00001       288.40009       98906.534       13896.916       3.0967500      -1.2880000   -0.0047500000       341.37600       1.9627755    0.0087982841
       930.99998       288.40009       98910.745       13892.202       2.8140000      -1.4720000      0.58250000       341.40300       1.9451132    0.0085699626
       935.99999       288.38604       98915.857       13852.667       4.7065000     -0.32500000    -0.023250000       341.23500       1.9835464    0.0094149460
       941.00001       288.39718       98921.007       13864.758       3.8680000      -1.3147500     0.076250000       341.27100       1.9862848     0.010294056
       945.99998       288.43399       98931.764       13912.111       3.8530000     -0.52775000     -0.23725000       341.42300       1.9665820    0.0099004021
       950.99999       288.45363       98937.433       13944.442       4.2655000     -0.22825000      0.65350000       341.18400       1.9857971     0.010803698
       956.00000       288.48982       98939.327       14026.392       3.4755000     -0.93000010      0.14975000       341.38700       1.9092474     0.010783554
       960.99998       288.50825       98941.184       14067.095       4.5660000      -1.5042500     -0.58375000       341.43700       1.9746549     0.010321680
       965.99999       288.51487       98940.371       14083.784       5.8527500     -0.47550000   -0.0022500000       341.11700       1.9483590     0.010735142
       971.00000       288.50368       98940.392       14076.191       4.0777500     -0.58525000     0.068000000       341.32700       1.9948623     0.011435077
       975.99998       288.45191       98937.502       14020.162       4.8197500     -0.72150000     -0.83400010       341.08000       1.9191900    0.0087071633
       980.99999       288.44312       98939.806       13998.444       5.1682500      -4.2520000      0.33050000       341.32100       1.9313480    0.0097174189
       986.00000       288.45860       98947.233       13988.316       4.8645000      -1.2867500    -0.020250000       341.22000       1.9323050    0.0087379257
       990.99998       288.44875       98951.275       13952.974       4.5092500      -1.1217500      0.67725000       341.37700       1.9340206    0.0086689892
       995.99999       288.45602       98961.161       13917.880       4.6855000      -1.5805000     -0.36700000       341.09300       1.9514139    0.0084725340
       1001.0000       288.45471       98962.605       13890.061       3.4082500      -1.5917500     -0.20300000       341.33300       1.9465945    0.0083435936
       1007.0000       288.37818       98952.743       13785.552       3.8807500      -1.1055000     0.099250000       341.45700       1.9866637     0.010522757
       1012.0000       288.38999       98948.727       13786.566       4.2457500      -2.4090000    -0.078000000       341.09300       1.9719604     0.010284071
       1017.0000       288.48902       98942.640       13886.994       3.9660000      -2.2430000    -0.097750010       341.24100       1.9032997     0.010567568
       1022.0000       288.51538       98938.000       13920.872       2.9687500      -1.3985000     -0.17125000       341.38100       2.0145720     0.011953652
       1027.0000       288.56475       98936.285       13985.839       3.3550000     -0.18425000     -0.15950000       341.34800       1.9390307    0.0093186344
       1032.0000       288.56379       98934.233       14008.498       4.6477500      -2.0422500      0.92250000       341.50800       1.9446106     0.010872845
       1037.0000       288.45356       98933.452       13939.725       4.1090000      -1.5465000     -0.78325000       341.31600       1.9558688     0.010070846
       1042.0000       288.43146       98929.117       13945.358       3.1315000      -2.1032500      0.87150000       341.55200       1.9480649    0.0094954015
       1047.0000       288.45587       98922.732       13999.721       4.2965000      -2.0142500     -0.14750000       341.17600       1.9419535     0.010110173
       1052.0000       288.44596       98918.820       14015.032       3.4597500     0.097250010      0.65925000       341.42400       1.9431489    0.0092222378
       1057.0000       288.44433       98911.191       14035.609       4.2042500      -1.3540000     -0.25300000       341.16500       1.9680824     0.010518173
       1062.0000       288.45427       98907.894       14055.759       4.8637500      -1.1682500      -1.1622500       341.08000       1.9646615    0.0099780693
       1067.0000       288.45637       98910.417       14057.767       5.7410000     -0.55750000      0.36050000       341.02100       1.9650533     0.010792557
       1072.0000       288.44619       98910.498       14053.250       6.1815000      -1.7040000      0.31025000       341.28100       1.9327469    0.0085769789
       1077.0000       288.45641       98910.165       14075.101       3.8470000      -1.9857500      0.23750000       341.31100       1.9617852    0.0092818609
       1082.0000       288.45283       98910.106       14055.323       3.2537500      -1.0070000      0.41800000       341.37400       1.9181125    0.0082947146
       1087.0000       288.41795       98907.683       13996.851       2.5985000     -0.42575000    -0.065500010       341.40800       1.9521842    0.0099701275
       1093.0000       288.38225       98911.250       13920.989       2.3110000     -0.54500000      0.12775000       341.47400       1.9557243     0.010426762
       1098.0000       288.34788       98917.380       13811.159       3.2157500      -1.0897500      0.18450000       341.39500       1.9878078    0.0092404797
       1103.0000       288.34452       98923.053       13766.334       3.6712500      0.31050000      0.12600000       341.25200       1.9133047     0.010643810
       1108.0000       288.35434       98935.488       13740.562       3.0025000     -0.35525000      0.26100000       341.19500       2.3101889     0.012350957
       1113.0000       288.34421       98938.675       13714.404       3.9182500     -0.73350010     -0.45000000       341.24700       2.0017664     0.010254704
       1118.0000       288.35689       98934.673       13728.989       2.7615000     0.036500000      0.90425000       341.55800       1.9545867    0.0097918082
       1123.0000       288.35074       98935.606       13724.892       3.5995000      -3.4490000     -0.60825000       341.19400       1.9748209     0.011177862
       1128.0000       288.28960       98934.696       13680.439       5.6167500      -3.0775000     -0.32000000       341.21300       1.9868081     0.010963948
       1133.0000       288.29234       98935.368       13700.344       4.1072500      -1.9767500     -0.36500000       341.37700       1.9897538     0.011759725
       1138.0000       288.34211       98940.204       13766.837       2.9830000     -0.94850000      0.70325010       341.47200       1.9449056    0.0088065150
       1143.0000       288.36196       98941.611       13812.696       2.9625000      -2.0342500      0.22675000       341.38700       1.9740243     0.010154832
       1148.0000       288.39853       98937.976       13890.645       2.3147500      -1.3357500      0.43825000       341.47800       1.9476779    0.0097101742
       1153.0000       288.41178       98941.323       13935.390       3.6485000      -1.4650000      0.11525000       341.17700       1.9954684     0.010816571
       1158.0000       288.38895       98950.965       13947.237       3.5372500     -0.39500000      0.55975000       341.49400       1.9637024     0.011118851
       1163.0000       288.40536       98951.771       13988.815       3.3295000     -0.20225000      0.23025000       341.40700       1.9875455     0.011253353
       1168.0000       288.45376       98949.393       14059.972       2.4220000     -0.77025000    0.0072500000       341.46200       1.9643428     0.011180400
       1173.0000       288.45772       98951.376       14075.224       4.2947500      -2.6262500     -0.55250000       341.41400       1.9585069     0.010400108
       1178.0000       288.45728       98951.206       14074.094       2.6685000      -1.1235000      0.35025000       341.46900       1.9223481    0.0096880798
       1184.0000       288.44834       98948.859       14067.326       4.1295000      -1.1727500     -0.40700000       341.14100       1.9163995    0.0096466857
       1189.0000       288.39756       98950.074       14008.883       3.0835000     -0.29875000      0.21500000       341.42100       1.9569016    0.0090120991
       1194.0000       288.38677       98952.102       13996.761       3.4730000     -0.95700000     -0.59725000       341.31800       1.9670075     0.010171209
       1199.0000       288.39178       98950.781       14002.463       2.3885000     -0.81800000      0.49400000       341.53800       1.9833442     0.010639338
       1204.0000       288.41092       98948.799       14023.641       4.0435000      -1.4870000      0.20175000       341.40300       1.9984545     0.011013714
       1209.0000       288.44649       98952.473       14059.039       4.9485000      -1.2315000      0.31700000       341.19700       1.9606151     0.010576231
       1214.0000       288.46642       98948.871       14088.203       4.2480000     -0.28925000      0.82850000       341.28200       1.9270376    0.0085329287
       1219.0000       288.50357       98935.082       14140.926       3.9545000      -1.8047500    -0.083000000       341.21900       1.9559064    0.0087619447
       1224.0000       288.51482       98930.934       14167.890       2.9117500     -0.45050000      0.46575000       341.35300       1.9338198    0.0086635948
       1229.0000       288.50007       98931.934       14174.681       3.6937500     -0.52475010       1.3492500       341.49100       1.9859688     0.010674684
       1234.0000       288.50014       98927.123       14193.423       2.2975000      -1.4195000     -0.46325000       341.41500       1.9373724    0.0087054997
       1239.0000       288.50084       98921.466       14212.792       2.4730000     -0.75475000     -0.31275000       341.44700       1.9551105    0.0096219132
       1244.0000       288.50114       98917.488       14231.889       3.4515000      -1.3757500     -0.51300000       341.35600       1.9926392     0.010806673
       1249.0000       288.50015       98909.832       14247.383       4.0565000      -2.3355000      0.68225000       341.39900       1.9622923     0.010719028
       1254.0000       288.50028       98907.587       14272.931       4.3295000      -1.8907500     -0.21250000       341.20500       1.9636340     0.010250061
       1259.0000       288.50027       98910.142       14310.814       3.3622500      -1.7915000     -0.11475000       341.19800       1.9389937     0.010575949
       1264.0000       288.50045       98910.082       14322.889       4.1067500     -0.85100000      0.19650000       341.39200       1.9763253     0.011202735
       1269.0000       288.51838       98910.442       14345.814       1.5142500      -1.2710000      0.71175000       341.34900       1.9269677    0.0084973301
       1275.0000       288.47099       98910.513       14305.936       2.9870000      -1.8517500     -0.13150000       341.22400       1.9608467    0.0099317320
       1280.0000       288.39498       98910.243       14224.561       3.2500000      -1.5167500     0.061250000       341.36800       1.9833733     0.010549369
       1285.0000       288.37610       98910.243       14184.326       3.9867500      -1.6497500     0.020000000       341.28900       1.9347376    0.0094447510
       1290.0000       288.33797       98910.441       14131.665       4.5125000      -2.0592500     -0.17925000       341.27600       1.9603776    0.0099412492
       1295.0000       288.39980       98910.306       14107.715       4.4312500     -0.71325000     -0.43775000       341.17900       1.9730755     0.010221323
       1300.0000       288.41253       98910.306       14060.734       4.1065000      -1.2702500   -0.0037500000       341.22000       1.9731071     0.010357795
       1305.0000       288.35481       98907.379       13937.083       3.6115000      -2.3202500     -0.30900000       341.37900       1.9474155    0.0098982715
       1310.0000       288.34380       98909.194       13884.119       2.8880000      -1.8757500      0.10700000       341.37800       1.9745808    0.0099648896
       1315.0000       288.33013       98916.370       13853.283       3.7145000      -2.0807500   -0.0072500000       341.25500       1.9690926    0.0097169205
       1320.0000       288.33748       98920.376       13852.407       3.1817500     -0.97050010      0.86925010       341.37900       1.9985525     0.011533029
       1325.0000       288.36948       98924.395       13889.265       3.0805000     -0.52125000    -0.018250000       341.28400       1.9452857    0.0087731721
       1330.0000       288.45575       98931.521       13996.647       2.6150000      -1.3015000      0.40650000       341.42400       2.0030581     0.011462801
       1335.0000       288.48488       98933.259       14055.007       2.6670000      -1.6560000      0.20875000       341.30100       1.9378238     0.010017199
       1340.0000       288.50054       98930.462       14110.048       2.6532500      -1.3105000     0.020250000       341.47500       1.9858050     0.010793440
       1345.0000       288.53078       98928.652       14209.025       3.5825000    -0.060000000      0.52250000       341.30000       1.9777489     0.010121120
       1350.0000       288.55130       98929.401       14283.248       3.0165000      -1.8087500     -0.53450000       341.26400       1.9811911     0.010808993
       1355.0000       288.60017       98933.293       14399.180       3.1555000      -2.1770000     -0.29400000       341.47000       1.9700622    0.0094694087
       1360.0000       288.61240       98935.284       14455.620       2.3705000      -2.4525000     0.048750000       341.43300       1.9541162    0.0093253992
       1366.0000       288.56697       98939.469       14437.958       2.5565000      -1.8425000     -0.33475000       341.41800       2.0055867     0.013126073
       1371.0000       288.54709       98941.379       14428.379       1.8990000      -1.3515000     -0.21400000       341.43200       1.9847215     0.010429664
       1376.0000       288.50977       98940.145       14383.602       1.5387500      -1.9765000    -0.014000000       341.39200       1.9607366    0.0095242064
       1381.0000       288.49079       98940.069       14350.272      0.83025000      -1.3822500      0.55900000       341.55000       2.0021276     0.010408273
       1386.0000       288.50013       98937.427       14337.019       2.8575000      -1.6707500      0.34375000       341.23500       2.0174184     0.011619973
       1391.0000       288.50025       98939.652       14301.133       2.0645000      -1.5737500     -0.81800000       341.29600       2.0306499     0.012664792
       1396.0000       288.51384       98950.066       14245.095       1.9405000      -1.6072500      0.21850000       341.51900       1.9920986     0.010777422
       1401.0000       288.50234       98951.824       14193.534       1.9117500      -2.4292500      0.61925010       341.53500       1.9472484    0.0094802390
       1406.0000       288.45209       98948.805       14101.843       2.3942500     -0.19025000      0.59350000       341.65000       1.9644197     0.010048061
       1411.0000       288.44349       98950.841       14066.469       2.7285000      -3.0617500     -0.14425000       341.56800       2.0076595     0.011779107
       1416.0000       288.44251       98948.888       14062.529       3.6270000     -0.77075000      0.35375000       341.46600       1.9628830    0.0093557397
       1421.0000       288.44350       98949.133       14066.153       2.2847500     -0.63575010      0.39925000       341.47400       1.9831845    0.0095609462
       1426.0000       288.48927       98958.188       14118.544       3.3907500     -0.67775010     -0.43200000       341.43200       1.9832276     0.010768024
       1431.0000       288.50797       98961.950       14154.337       4.0250000      -2.3460000    -0.096000000       341.26200       1.9764280    0.0095479217
       1436.0000       288.48573       98960.308       14170.635       3.1590000     -0.79800000     -0.48025000       341.41200       1.9844377     0.011217311
       1441.0000       288.49680       98960.345       14213.863       3.1097500      -1.3540000      0.26275000       341.44600       1.9765619     0.010060985
       1446.0000       288.57651       98963.146       14327.626       2.4467500     -0.85425000     -0.31425000       341.58400       1.9529653    0.0091436930
       1451.0000       288.56261       98960.915       14349.080       3.4227500     -0.53850000      0.42225000       341.54300       1.9589867     0.010393381
       1457.0000       288.47003       98952.804       14338.268       2.9745000      -1.9717500      0.27375000       341.33800       1.9757329     0.010705529
       1462.0000       288.43981       98948.766       14302.878       5.6967500      -1.0615000    -0.069500010       341.30200       2.0001075     0.010078190
       1467.0000       288.35431       98941.227       14171.727       3.2182500      -2.1692500      0.43650000       341.42500       1.9884869     0.012449791
       1472.0000       288.32551       98937.887       14093.778       1.8002500      -1.2160000     0.063250010       341.43600       1.9757158    0.0095811640
       1477.0000       288.40807       98940.314       14056.493       3.7347500      -1.9217500     -0.16425000       341.41700       2.0037632     0.010207497
       1482.0000       288.41083       98940.355       13975.989       2.8830000      -2.6440000    -0.081250000       341.26900       1.9968447     0.012373193
       1487.0000       288.34892       98940.264       13845.768       1.5435000      -1.6282500      0.17100000       341.47300       2.0067727     0.012194585
       1492.0000       288.34279       98940.223       13780.699       2.4127500      -1.7242500      0.11925000       341.47600       1.9424175    0.0082618412
       1497.0000       288.34314       98940.163       13713.484       1.2937500      -2.3987500      0.74750010       341.50100       1.9741364    0.0097322404
       1502.0000       288.34681       98940.103       13682.366       3.7040000      -2.9662500     -0.33925000       341.31600       1.9369305    0.0091128882
       1507.0000       288.39507       98940.376       13725.096       2.4500000      -1.2650000     0.087000000       341.47100       1.9867859     0.011532429
       1512.0000       288.41125       98940.395       13739.430       2.5332500     -0.19825000     0.079250000       341.45700       1.9650000     0.010155996
       1517.0000       288.38696       98940.132       13734.758       2.8282500     -0.50700000     -0.23600000       341.52100       1.9071455     0.010078391
       1522.0000       288.40070       98940.051       13767.209       3.5540000      -1.6355000     -0.53700000       341.41800       1.9708405    0.0093031939
       1527.0000       288.43833       98940.314       13830.223       3.2962500      -1.7002500      0.19050000       341.43800       1.9984617     0.012574406
       1532.0000       288.45834       98940.354       13878.569       2.5017500      -2.1500000     -0.32000000       341.40700       1.9777442     0.010578895
       1537.0000       288.50776       98941.562       13974.798       2.1690000      -1.1337500      0.92450000       341.50100       1.9804607    0.0097370962
       1542.0000       288.51003       98940.181       14000.664       2.7697500     -0.63975000    -0.077250000       341.35400       2.0038690     0.010468769
       1548.0000       288.44719       98935.084       13958.727       4.0832500    -0.044250000      0.21950000       341.16400       1.9942358     0.010843789
       1553.0000       288.44360       98934.763       13961.677       4.2455000     -0.42025000     -0.22950000       341.31500       1.9571054    0.0091431881
       1558.0000       288.43233       98935.883       13939.087       2.2202500      -1.2027500     -0.22725000       341.46100       1.9248196    0.0095480243
       1563.0000       288.45517       98934.962       13951.543       3.6722500     -0.36600000    -0.087500010       341.21900       1.9318171    0.0092804530
       1568.0000       288.55430       98936.191       14036.543       4.6540000      -1.3415000     -0.76475010       341.30400       1.9842609     0.010635071
       1573.0000       288.57219       98935.621       14036.835       3.4967500     -0.75775000      0.97450010       341.57700       1.9939524     0.010856551
       1578.0000       288.55762       98930.407       13990.645       4.4462500      -1.9605000      0.16125000       341.55800       1.9524968    0.0089425029
       1583.0000       288.55153       98929.079       13969.533       4.4605000     -0.96800010      0.85825000       341.45100       1.9198596    0.0090782897
       1588.0000       288.50035       98932.505       13911.236       3.9565000      0.40275000     -0.23550000       341.57000       1.9449384    0.0083104693
       1593.0000       288.48628       98929.246       13885.685       4.7785000     -0.83950010     -0.50225000       341.27200       1.9518292    0.0092812884
       1598.0000       288.50025       98919.752       13899.890       4.1602500      -1.1580000     -0.29250000       341.51900       1.9704319     0.010042741
       1603.0000       288.50042       98919.001       13883.931       4.4972500      -1.2405000     -0.18175000       341.31600       1.9607364    0.0096506188
       1608.0000       288.51107       98921.162       13861.370       4.0545000     -0.88425000      0.14900000       341.24700       1.9456237     0.010091300
       1613.0000       288.49483       98919.147       13828.096       4.4880000     -0.54200010     -0.35225000       341.39700       1.9788831    0.0099493098
       1618.0000       288.44662       98921.711       13757.881       2.5817500      -1.0672500      0.37725000       341.45500       1.9754368    0.0082587991
       1623.0000       288.44272       98920.500       13749.181       5.2440000      -3.1550000     -0.50725000       341.22100       1.9982066     0.010863167
       1628.0000       288.44232       98911.492       13762.117       6.0662500      -1.3130000     -0.16700000       341.22600       1.9869259     0.010900478
       1634.0000       288.45090       98906.406       13780.186       4.3727500     -0.55400000      0.37050000       341.33800       1.9674192    0.0091193001
       1639.0000       288.50270       98904.698       13844.478       3.3305000     -0.74575000    -0.026250000       341.40200       2.0006122     0.010036382
       1644.0000       288.51350       98904.521       13872.277       3.5855000     -0.73300000     -0.87050000       341.55800       1.9771737     0.011485686
       1649.0000       288.50027       98905.493       13881.629       4.6192500      -1.5880000    -0.013750000       341.28600       1.9886018     0.011136528
       1654.0000       288.50046       98904.486       13894.900       4.1222500      -1.0787500     -0.19325000       341.53900       1.9276281     0.010118104
       1659.0000       288.50853       98905.054       13924.697       3.6825000      -2.0130000     -0.50500000       341.42000       1.9321332    0.0091182789
       1664.0000       288.48970       98906.049       13903.492       2.7537500     -0.35100000     0.068750000       341.55600       1.9064823    0.0093459894
       1669.0000       288.44479       98904.564       13838.596       2.3415000     -0.85175000     -0.21275000       341.60600       1.9957091     0.011930593
       1674.0000       288.44349       98905.423       13819.815       2.5332500      -1.6130000    -0.010000000       341.63400       1.9489901    0.0093592955
       1679.0000       288.44251       98911.467       13788.348       4.2715000      -2.5687500      0.49425000       341.28800       1.9838910     0.011713275
       1684.0000       288.45079       98910.736       13775.927       5.4937500      -2.5960000     -0.10075000       341.30000       1.9556057    0.0090287423
       1689.0000       288.50257       98904.705       13811.447       6.0187500      -2.8375000     -0.32900000       341.39800       1.9444645    0.0081648360
       1694.0000       288.51347       98904.517       13796.165       4.8165000     -0.55600010      0.55650000       341.52900       1.9640158    0.0087357494
       1699.0000       288.50027       98904.686       13747.912       5.5392500      0.72400000      0.19275000       341.38000       1.9746433    0.0089715001
       1704.0000       288.50045       98905.624       13732.686       3.9677500      -1.3445000     0.057250000       341.27300       1.9447293    0.0085725107
       1709.0000       288.49110       98910.587       13701.792       2.5032500      -2.6517500      0.14200000       341.70400       1.8711845     0.010061771
       1714.0000       288.50964       98911.697       13727.016       3.8887500     -0.75625000     -0.43250000       341.43300       1.9424788    0.0093159605
       1719.0000       288.55500       98911.174       13809.804       5.1765000      -5.3037500      0.97675010       341.41500       1.9555923    0.0092159918
       1725.0000       288.55497       98908.797       13833.934       5.2932500     -0.46050000      0.41125000       341.43900       1.9711185    0.0089149228
       1730.0000       288.55075       98904.564       13852.455       4.5735000     -0.96950010      0.56100000       341.53400       1.9568158    0.0078799993
       1735.0000       288.56063       98904.633       13898.746       5.9667500     -0.68975000      0.15650000       341.30000       1.9377818    0.0083037112
       1740.0000       288.54434       98905.292       13922.290       4.6922500      -1.2927500      0.50400000       341.32200       1.9523469    0.0082540732
       1745.0000       288.60031       98904.269       14032.994       4.3317500     -0.60225000    -0.087000000       341.33900       1.9303751    0.0092641941
       1750.0000       288.61340       98905.252       14078.090       4.6275000      -1.0582500     -0.40500000       341.28900       1.9701825    0.0085287091
       1755.0000       288.55482       98904.766       14024.747       2.9715000      -1.4175000      0.64475010       341.37500       1.9532071    0.0084566655
       1760.0000       288.54383       98904.637       14017.143       2.8182500     -0.32325000      0.13300000       341.54300       2.0357073    0.0086054595
       1765.0000       288.54513       98910.272       14005.022       2.2667500     -0.47225000    -0.061000000       341.64100       1.9695276    0.0091495089
       1770.0000       288.54386       98911.519       13994.663       3.4790000      -1.3032500    -0.065500010       341.40300       1.9447386    0.0092893287
       1775.0000       288.55482       98910.293       13995.802       3.5510000     -0.17100000      0.12250000       341.63300       2.0629828     0.010198368
       1780.0000       288.60592       98904.568       14033.027       5.1482500     -0.17575000    -0.034000000       341.45300       3.0293880    0.0092180008
       1785.0000       288.61449       98904.628       14035.573       4.8010000      0.36225000      0.25750000       341.34900       2.6399626     0.010256195
       1790.0000       288.59408       98901.794       14012.305       4.7337500     -0.16400000      0.15050000       341.44900       2.3325503    0.0099030750
       1795.0000       288.64516       98931.333       14062.428       4.5947500     -0.24250000      0.17550000       341.27300       2.1500344    0.0091864566
       1800.0000       288.65674       98939.323       14075.593       3.2005000      -1.6555000      0.39775000       341.67400       1.9700582    0.0092733411
       1805.0000       288.65500       98939.414       14077.541       3.1800000     -0.57650000      0.20750000       341.68500       1.9639441    0.0096200065
       1810.0000       288.65615       98939.159       14084.086       3.6762500      -1.2602500      0.26325000       341.48800       1.9730374    0.0093470477
       1816.0000       288.61011       98910.336       14038.811       3.1845000     -0.49525000    -0.054250000       341.59200       1.9640607    0.0094388691
       1821.0000       288.59174       98900.223       14037.568       4.4485000      -1.1820000     -0.55750000       341.49200       1.9651061    0.0098197164
       1826.0000       288.61425       98904.696       14095.648       3.8950000     -0.66450010      0.60150000       341.61900       1.9213114    0.0097426558
       1831.0000       288.60297       98904.819       14109.120       3.3240000      -1.5920000      0.67325000       341.63100       1.9607062    0.0093833066
       1836.0000       288.56517       98909.320       14122.410       4.6580000      -1.4462500      0.47950000       341.43000       1.9230417    0.0091959436
       1841.0000       288.54499       98911.212       14116.374       4.1357500      -1.3542500     -0.23800000       341.33800       1.8805274     0.011449684
       1846.0000       288.50959       98910.407       14065.197       2.8012500     -0.89300010     -0.40575000       341.50900       1.9601836    0.0086880837
       1851.0000       288.49121       98910.466       14029.145       3.3910000      -1.1760000      0.19350000       341.41900       1.9352585    0.0092367353
       1856.0000       288.48588       98910.371       13980.109       2.5002500     -0.88625000    -0.037500000       341.58400       1.9464383    0.0088727703
       1861.0000       288.49707       98910.410       13954.334       3.6295000      -1.4042500     -0.43175000       341.39800       1.9649253     0.010058457
       1866.0000       288.53374       98910.470       13952.034       4.1970000      0.36775000     0.045750000       341.45900       1.9801514    0.0095602509
       1871.0000       288.55395       98910.567       13934.016       3.1585000     -0.78025000      0.00000000       341.48900       1.9513737    0.0088544690
       1876.0000       288.60400       98911.740       13931.846       3.0382500     -0.91075000      0.48700000       341.60000       1.9567321    0.0092611404
       1881.0000       288.61176       98910.631       13910.569       3.2932500      -2.0270000    -0.072750000       341.41300       1.9157065    0.0099370448
       1886.0000       288.55149       98905.431       13828.966       3.7242500      -1.0387500     0.010750000       341.35200       1.9506885    0.0093585915
       1891.0000       288.54235       98904.516       13813.042       2.8270000     -0.80650000     -0.67175000       341.53900       1.9560648    0.0093927760
       1896.0000       288.52938       98906.097       13823.058       4.5940000     -0.74050000      0.28775000       341.30300       1.9260156    0.0092145839
       1901.0000       288.54171       98905.089       13849.182       4.6280000     -0.53175000     -0.14825000       341.26400       1.9561329    0.0093349920
       1907.0000       288.63312       98904.804       13952.033       3.5152500     -0.48675000     -0.16275000       341.39800       1.9188481     0.010328464
       1912.0000       288.66953       98905.852       14019.086       3.5037500     -0.66125010     0.055750000       341.43300       1.9292538    0.0093043948
       1917.0000       288.69498       98904.618       14093.521       3.5580000     -0.85375010    -0.044000000       341.49100       1.9251425    0.0087659546
       1922.0000       288.71150       98904.997       14145.559       1.5782500    -0.080500010      0.89450000       341.46600       1.9484276    0.0092925989
       1927.0000       288.71255       98911.082       14212.725       2.9720000      -1.0955000      0.51900010       341.49400       1.9625687    0.0089702847
       1932.0000       288.69875       98911.336       14218.376       3.1902500      -1.5032500   -0.0082500000       341.57700       1.9472334    0.0083274534
       1937.0000       288.67492       98906.550       14175.029       2.3872500      -1.8012500     -0.39975000       341.60000       1.9462982    0.0087872721
       1942.0000       288.64143       98904.594       14128.261       1.9495000     -0.85650000    -0.011750000       341.61400       1.9988063     0.010322177
       1947.0000       288.55415       98899.656       14011.974       2.3817500      -1.0132500     0.068000000       341.66400       1.9914671     0.010065393
       1952.0000       288.53166       98899.457       13954.136       2.1812500      -1.6075000     -0.16525000       341.58500       1.9491987    0.0097298672
       1957.0000       288.54293       98905.486       13928.583       3.1225000     -0.71450000     -0.34100000       341.38400       1.9551042    0.0090076673
       1962.0000       288.54715       98906.168       13883.956       2.3990000      -1.7625000      0.17400000       341.50200       1.9738774     0.010642990
       1967.0000       288.59433       98905.852       13841.756       2.2287500      -1.7270000     -0.40700000       341.77700       1.9609725    0.0093006094
       1972.0000       288.61072       98905.468       13815.486       2.8527500     -0.73700000      0.64750000       341.55000       1.9830275     0.010614492
       1977.0000       288.59976       98900.729       13768.180       3.3450000      -1.1927500    -0.063000000       341.46900       1.9629741     0.010279876
       1982.0000       288.59969       98899.062       13760.845       4.4555000      -1.0657500     -0.20650000       341.35100       1.9805795    0.0099983939
       1987.0000       288.60026       98900.522       13805.236       3.0315000      -1.0992500      0.23325000       341.70000       1.9764487     0.010614173
       1992.0000       288.60037       98900.622       13827.727       4.0455000     -0.65475000    -0.047250000       341.31500       1.9740195    0.0091369975
       1998.0000       288.59998       98899.046       13862.082       3.2442500      -1.5767500     -0.19250000       341.58900       1.9477558    0.0089238834
       2003.0000       288.59998       98900.664       13891.142       3.1595000      -1.0172500     -0.11575000       341.42100       1.9315808    0.0086672462
       2008.0000       288.58880       98904.387       13909.904       2.0192500     -0.81450000      0.40675000       341.77600       1.9517216    0.0090291911
       2013.0000       288.60514       98906.359       13947.107       5.7717500      -1.9517500      0.15350000       341.35800       1.9618891    0.0090840290
       2018.0000       288.64266       98911.272       14014.180       4.8285000      -2.1725000     -0.73325000       341.40700       1.9750653    0.0092387064
       2023.0000       288.66259       98911.021       14040.306       3.0375000      -1.0702500       1.2855000       341.57800       1.9313186    0.0090108794
       2028.0000       288.69942       98904.933       14058.012       4.1100000      -1.3295000    -0.033750000       341.54700       1.9239580    0.0099940000
       2033.0000       288.71284       98904.554       14065.534       3.6797500      -1.3155000      0.25850000       341.38500       1.9026628    0.0086778156
       2038.0000       288.68889       98905.825       14031.609       2.6932500      -1.4045000     0.021250000       341.38600       1.9573408    0.0094262904
       2043.0000       288.70502       98904.877       14035.541       2.3620000     -0.78800000      0.39575000       341.67900       1.9776761     0.010035170
       2048.0000       288.74090       98904.969       14061.812       2.1570000      -1.0420000      0.20825000       341.87200       2.0383618     0.011603613
       2053.0000       288.76107       98905.992       14069.675       1.9790000      -1.0857500      0.70925000       341.83600       1.9511397    0.0096123850
       2058.0000       288.78813       98904.754       14069.816       2.6400000      -2.2590000    -0.056000000       341.90800       1.9546599    0.0089534488
       2063.0000       288.81857       98905.426       14094.771       2.5165000     -0.99250010      0.27575000       341.57000       1.9730667    0.0097951739
       2068.0000       288.83170       98910.365       14109.317       3.7277500     -0.33500000    -0.020250000       341.46800       1.9141941    0.0087025139
       2073.0000       288.86808       98911.819       14159.273       3.3460000      -1.7357500     -0.15625000       341.52500       1.9543630    0.0091051151
       2078.0000       288.96361       98910.430       14295.765       2.8452500      -1.7147500      0.11625000       341.71700       1.9677057    0.0092765501
       2083.0000       288.96480       98910.489       14310.776       1.6670000      -1.1497500      0.65200000       341.92600       1.9635872    0.0086806962
       2089.0000       288.91254       98910.472       14280.086       2.2607500      -1.0462500     -0.59125000       341.40200       1.9690799    0.0096899435
       2094.0000       288.88315       98910.531       14239.394       2.2657500      -1.4655000      0.50700000       341.93900       2.0030840    0.0099104967
       2099.0000       288.79460       98910.220       14111.420       3.0957500      -1.1147500    -0.057750000       341.60500       1.9402479    0.0096857800
       2104.0000       288.77199       98910.174       14061.234       3.7345000      -1.5575000     -0.35250000       341.69900       1.9748311    0.0089873165
       2109.0000       288.80931       98908.514       14057.884       2.8110000     -0.53500000      0.83425000       341.87400       1.9401313    0.0090222503
       2114.0000       288.79090       98912.294       14010.726       3.8272500     -0.50400000      0.31175000       341.57500       1.9921001     0.011634329
       2119.0000       288.73638       98921.254       13933.889       2.9340000     -0.96725000     0.090500000       341.65300       1.8865104     0.016278576
       2124.0000       288.75387       98921.431       13925.732       2.7457500      -1.3570000      0.17050000       341.91800       1.9518742    0.0095578457
       2129.0000       288.78894       98921.686       13924.911       1.9420000      -2.0452500    -0.088500000       342.03800       1.9970209     0.011137710
       2134.0000       288.81732       98919.994       13950.911       2.7007500      -2.6092500    -0.042750000       341.77600       1.9883923    0.0096787149
       2139.0000       288.93407       98907.579       14077.741       3.2850000      -2.0232500      0.27850000       341.86800       1.9856126    0.0099814408
       2144.0000       288.89949       98909.037       14060.355       3.2462500     -0.83800010     -0.41275000       341.75700       1.9523837    0.0087540011
       2149.0000       288.75362       98919.493       13978.586       3.8700000      0.49125000      -1.1147500       341.59300       1.9227100    0.0091639055
       2154.0000       288.71223       98923.523       13924.842       3.9595000      -1.1840000      0.19125000       341.61800       1.9694054    0.0091249722
       2159.0000       288.62817       98930.185       13791.004       4.3987500     -0.73875000     -0.80200000       341.20800       1.9786981    0.0091945580
       2164.0000       288.63260       98934.409       13767.222       3.1377500     -0.81725000      0.20775000       341.51200       1.9418909    0.0094265057
       2169.0000       288.75758       98935.839       13823.160       3.0950000      0.11475000      0.16075000       341.72000       1.9316678    0.0090590626
       2174.0000       288.76979       98935.950       13817.601       4.6240000     -0.55650000     -0.41750000       341.27700       1.9268223     0.010354277
       2180.0000       288.75035       98935.420       13821.188       3.9860000     -0.70750000     0.046750000       341.34000       1.9656130     0.010026746
       2185.0000       288.76012       98936.437       13829.811       3.0370000     0.031000000      0.14600000       341.58300       1.9704573    0.0094704889
       2190.0000       288.74427       98935.511       13813.570       3.1442500     -0.68950000      0.10950000       341.69800       1.9776126    0.0099765071
       2195.0000       288.81511       98934.296       13874.541       2.2235000      -1.0377500    -0.040500000       341.75000       1.9724934    0.0098633142
       2200.0000       288.81938       98935.304       13895.324       2.9662500     -0.80625000      0.13025000       341.79300       1.9697610    0.0092280026
       2205.0000       288.72421       98931.808       13863.094       4.8227500     -0.90625010      0.16100000       341.76000       1.9464070    0.0093783057
       2210.0000       288.69318       98933.482       13864.445       4.6660000      -1.0217500     -0.21475000       341.74900       1.9833548    0.0099563544
       2215.0000       288.66012       98947.864       13876.801       3.9847500      -1.3712500     -0.11675000       341.44000       1.9131948    0.0090999322
       2220.0000       288.63773       98952.258       13874.427       3.1572500      -1.0475000     0.071750000       341.72100       3.3323056     0.011638990
       2225.0000       288.63997       98952.958       13874.559       4.6045000     0.034250000      0.47700000       341.62400       3.6720023     0.010752220
       2230.0000       288.71990       98951.545       13916.465       4.9762500      -2.0670000      0.26300000       341.59400       3.6544570     0.011637230
       2235.0000       288.68566       98949.146       13858.972       4.5305000     -0.37375000     -0.54775010       341.52600       2.1978336    0.0099499960
       2240.0000       288.58789       98938.951       13728.075       4.9220000     -0.95250000      0.42425000       341.66100       1.9884569    0.0094768101
       2245.0000       288.59106       98937.280       13702.128       3.8312500    -0.080750000      -1.2920000       341.67700       2.0203267    0.0090044028
       2250.0000       288.58836       98938.982       13680.063       2.3895000      0.39800000      0.45875000       341.76200       1.9612154    0.0086921197
       2255.0000       288.67027       98949.391       13741.930       4.7977500     -0.69675000     -0.11400000       341.33800       1.9104973     0.010063075
       2260.0000       288.71214       98951.661       13780.003       4.5330000     -0.34250000    -0.010250000       341.41900       1.9146313    0.0089098418
       2266.0000       288.71445       98951.601       13791.541       4.1122500     -0.56575000      0.41925000       341.36600       1.9576241    0.0088950680
       2271.0000       288.70287       98951.260       13802.691       4.3737500      0.47650000     -0.20150000       341.46700       2.4004398     0.010481903
       2276.0000       288.66632       98939.458       13828.455       3.4282500      0.56125000     0.055500000       341.75100       2.6597624    0.0098063266
       2281.0000       288.64642       98937.965       13837.372       2.4570000     -0.74425010      0.61550000       341.82500       2.6778757     0.010677146
       2286.0000       288.60980       98947.266       13822.184       6.0022500      -1.2167500     -0.43550000       341.24900       2.1866852    0.0099685845
       2291.0000       288.59094       98951.307       13820.266       5.8127500     -0.18600000    -0.072500010       341.34000       2.0786676     0.011152753
       2296.0000       288.60004       98961.192       13818.714       4.7412500      0.77375000      0.47400000       341.67000       1.9375579     0.011931785
       2301.0000       288.60000       98962.597       13818.728       4.0202500      0.36525000       1.1525000       341.73500       1.9164413     0.010222861
       2306.0000       288.60022       98953.670       13833.622       5.3972500      -1.9135000      -1.0865000       341.35400       1.9178264    0.0082432979
       2311.0000       288.60019       98949.759       13833.497       5.5017500      -1.2682500     -0.44050000       341.11900       1.9109401     0.010352709
       2316.0000       288.59998       98939.361       13817.280       5.9020000      -1.2730000      0.12825000       341.32800       2.0848660    0.0092354771
       2321.0000       288.59998       98937.887       13812.260       3.6070000     -0.38250000      0.18400000       341.49200       2.5310169    0.0097289124
       2326.0000       288.58598       98949.946       13793.971       5.6132500       1.1397500      0.47600000       341.58300       2.3206601    0.0098373497
       2331.0000       288.59737       98951.747       13798.622       4.4390000     -0.27600000      0.16375000       341.70700       2.1641867     0.011247064
       2336.0000       288.64851       98951.463       13852.841       5.2845000      0.53150000       1.2190000       341.42400       1.9798619     0.013484121
       2341.0000       288.65748       98951.230       13856.706       4.5337500      -1.2262500    -0.031000000       341.26000       1.9098434     0.010098864
       2346.0000       288.65641       98942.127       13832.573       5.0180000      -1.8270000      0.11125000       341.37600       1.9492647    0.0088220492
       2351.0000       288.65519       98938.393       13823.397       4.7647500      -2.1760000    -0.064750000       341.62100       1.9401723    0.0080766780
       2357.0000       288.60447       98941.673       13764.032       3.4647500     0.074500000      0.19900000       341.51100       1.9701432    0.0088942673
       2362.0000       288.58823       98940.286       13755.129       3.4000000    -0.057750000     -0.10100000       341.38500       1.9230280    0.0093762674
       2367.0000       288.61308       98936.628       13818.595       4.3075000     -0.82925000      0.16625000       341.50500       1.9462073    0.0095194298
       2372.0000       288.59944       98934.673       13810.404       4.4845000      -2.9832500     -0.47925000       341.26800       1.9633926    0.0085447485
       2377.0000       288.56111       98930.578       13769.863       4.0395000      -1.1827500      0.75350000       341.22100       1.8969322    0.0095145289
       2382.0000       288.54099       98928.902       13743.903       4.0422500      -1.3780000     -0.68825000       341.17300       1.9535302    0.0089957498
       2387.0000       288.50472       98934.279       13671.250       3.5275000      -1.4070000    -0.047000000       341.44400       1.9680262    0.0092614880
       2392.0000       288.48871       98930.203       13642.398       4.4385000      -2.3750000    -0.091000010       341.32300       1.9372918    0.0091413074
       2397.0000       288.51281       98913.687       13662.938       3.4327500      -1.1542500      0.46250000       341.54800       1.9619971    0.0092359721
       2402.0000       288.49920       98913.149       13652.888       2.8655000      -1.0732500     0.085000000       341.65500       1.9682323    0.0096031544
       2407.0000       288.44934       98920.626       13622.790       2.0540000      -1.9355000      0.17750000       341.71900       1.9600420    0.0093766987
       2412.0000       288.44306       98919.648       13624.592       4.1367500     -0.70950000      0.87500010       341.65500       1.9642163    0.0095526860
       2417.0000       288.43074       98926.854       13619.231       5.2415000      -3.3940000      0.19950000       341.31700       1.9796536    0.0098232441
       2422.0000       288.44835       98927.484       13648.206       5.3105000      -1.6595000     0.085000000       341.43900       1.9201569    0.0092209245
       2427.0000       288.54669       98911.645       13752.255       6.2757500      -1.1632500     -0.35350000       341.52300       1.9144220    0.0085204733
       2432.0000       288.56977       98906.662       13787.092       4.6952500      -1.8977500     -0.12700000       341.33400       1.9127669    0.0092599875
       2437.0000       288.55690       98910.378       13799.304       3.6155000     -0.78750000      0.31475000       341.47800       1.9700846    0.0090851071
       2442.0000       288.55314       98910.419       13810.791       3.6817500      -1.5642500    -0.031500000       341.44200       1.9407922    0.0096302460
       2448.0000       288.48914       98910.508       13762.143       5.8372500      -2.1542500     -0.38300000       341.18500       2.0026904    0.0091529541
       2453.0000       288.49206       98910.611       13770.854       4.7955000     -0.11375000     -0.18350000       341.48400       1.9243073    0.0087621740
       2458.0000       288.55356       98911.434       13832.425       3.9212500     -0.35850000    -0.017750000       341.46300       1.9082038     0.010767573
       2463.0000       288.55740       98909.832       13835.651       4.0565000      -1.6262500      0.25050000       341.44400       1.9549888    0.0090035908
       2468.0000       288.54598       98905.860       13816.806       3.2515000     -0.71650000      0.18850000       341.57400       1.9527103    0.0090000112
       2473.0000       288.55610       98903.797       13822.542       5.4597500       1.0307500     0.052500000       341.41700       2.0004760     0.010019256
       2478.0000       288.53145       98900.393       13794.238       4.7672500      -2.0512500     -0.48250000       341.36300       1.9304325    0.0089132215
       2483.0000       288.55381       98899.050       13812.057       4.3595000     -0.13450000     -0.30525000       341.48100       1.9306930     0.010516817
       2488.0000       288.64078       98900.168       13882.319       6.0282500      -1.4222500     0.046250000       341.15400       1.9434230    0.0084382137
       2493.0000       288.67418       98900.152       13927.192       2.0992500     -0.54025000      0.12925000       341.51600       1.9257695     0.011024962
       2498.0000       288.69960       98900.089       13972.891       4.0042500      0.38300000     -0.31050000       341.48800       1.9007524     0.010166900
       2503.0000       288.71338       98900.030       14019.002       3.4395000     0.040250000      0.71125000       341.53900       1.9542183    0.0085983332
       2508.0000       288.70062       98900.246       14073.984       5.0062500       1.0837500     -0.15875000       341.32900       1.9638693    0.0088842723
       2513.0000       288.70090       98900.274       14108.453       4.7510000     -0.25375000      0.75700000       341.57300       1.9370680    0.0092099290
       2518.0000       288.72240       98900.352       14159.905       4.4070000      0.35900000      0.22150000       341.37800       1.9495838    0.0083560814
       2523.0000       288.69021       98900.395       14143.833       4.3252500      -1.7142500     -0.86600010       341.46800       1.9437588    0.0084338262
       2528.0000       288.60450       98900.385       14063.095       4.6545000     -0.40600000     0.029000000       341.54900       1.9320203    0.0084123325
       2533.0000       288.58086       98900.429       14025.656       3.4620000     -0.86075000      0.23125000       341.58300       1.9130919     0.010428487
       2539.0000       288.53984       98899.720       13953.768       5.2965000      -2.1567500     0.048750000       341.43400       2.0532726     0.010786768
       2544.0000       288.53825       98901.755       13907.446       4.9807500      -2.4550000     -0.61225000       341.51100       1.9573019    0.0083215265
       2549.0000       288.60252       98904.938       13899.991       2.8977500     -0.22375000     -0.18900000       341.61200       1.9676019    0.0094883331
       2554.0000       288.61383       98906.986       13846.295       3.3422500     -0.82175000    -0.034500000       341.64500       1.9685361    0.0090934645
       2559.0000       288.59973       98908.745       13741.910       4.3565000      0.11225000     -0.69850000       341.39300       1.9527953    0.0098613489
       2564.0000       288.59968       98913.597       13704.386       5.4985000      -2.7237500    -0.059250000       341.36500       1.9612365    0.0096641066
       2569.0000       288.59095       98919.749       13673.259       4.7347500      -1.8120000    -0.088500000       341.30000       1.9595269    0.0084784053
       2574.0000       288.60956       98923.779       13683.718       5.9730000     -0.60025000     -0.19975000       341.46200       1.8981770     0.010961477
       2579.0000       288.64576       98931.016       13749.240       4.8245000      -1.2740000     -0.68900000       341.43600       1.9269997     0.010004344
       2584.0000       288.66555       98933.341       13787.915       5.9707500      -1.1022500    0.0045000000       341.50000       1.9388314    0.0096439125
       2589.0000       288.69357       98930.392       13825.697       3.0495000      -1.3992500      0.58400010       341.64900       1.9687648    0.0087071705
       2594.0000       288.72363       98930.438       13900.971       3.3687500      -1.8622500     -0.44525000       341.48900       1.9121099    0.0092437453
       2599.0000       288.75442       98929.333       14012.642       3.7257500     -0.76150010     -0.12950000       341.33600       1.9556863    0.0081046612
       2604.0000       288.75546       98931.174       14058.489       2.6077500      -1.4892500     -0.39550000       341.42200       1.9315530    0.0087846449
       2609.0000       288.75625       98934.845       14118.613       5.2715000      0.44225000     0.075500000       341.32700       1.8851677     0.012058905
       2614.0000       288.74761       98936.828       14129.594       5.8182500     -0.23600000    -0.062000000       341.36800       1.9396971    0.0085133059
       2619.0000       288.68812       98941.639       14053.409       5.9155000      0.18450000     -0.29300000       341.38300       1.9485050    0.0090555408
       2624.0000       288.69559       98940.947       14051.941       2.9842500    -0.084750000      0.86750010       341.57300       1.9649140    0.0086743480
       2630.0000       288.75542       98935.317       14083.986       4.4605000     -0.65075000    -0.013500000       341.46700       1.9407799    0.0095718975
       2635.0000       288.75401       98933.273       14069.965       2.3792500      -1.6770000     0.080250000       341.38700       1.9654938    0.0088867478
       2640.0000       288.75664       98929.673       14060.080       3.0592500     -0.58750000      0.29425000       341.64600       1.9603735    0.0091960454
       2645.0000       288.69978       98930.333       13971.592       2.8352500      -1.4310000     -0.28775000       341.40400       1.9901086    0.0093057042
       2650.0000       288.68683       98930.368       13944.192       1.6132500      -1.0512500      0.55825000       341.79900       1.9561955    0.0087396806
       2655.0000       288.73052       98933.443       13967.160       1.9737500      -1.6510000      0.28400000       341.69300       1.9198437    0.0095495950
       2660.0000       288.75042       98931.758       13980.621       3.1115000     -0.68525000     0.045750000       341.64000       1.9532231    0.0090944965
       2665.0000       288.78505       98924.361       14038.562       3.2770000   -0.0027500000    -0.028500000       341.58500       1.9140290    0.0094333621
       2670.0000       288.80607       98920.415       14076.659       3.2510000      -2.2032500     -0.46075000       341.43100       1.9709145    0.0099930192
       2675.0000       288.81475       98916.454       14103.521       2.5327500      -1.3230000      0.33600000       341.64400       1.9331603    0.0095504184
       2680.0000       288.79389       98909.248       14102.508       3.7342500      -1.1520000     -0.59575000       341.41500       1.9622779    0.0087591226
       2685.0000       288.81553       98907.609       14145.214       3.5432500     -0.58200000     -0.11675000       341.54900       1.9313756    0.0088126270
       2690.0000       288.85643       98910.493       14205.561       3.7377500     -0.10425000      0.67875000       341.52800       1.9341494    0.0085744718
       2695.0000       288.83951       98910.189       14234.360       2.8480000     -0.11625000      0.58650000       341.74500       1.9403808    0.0091729591
       2700.0000       288.84931       98910.130       14270.470       4.2780000     -0.46825000     -0.53650000       341.52700       1.9559085    0.0087641340
       2705.0000       288.83003       98910.394       14274.491       3.3202500     0.071250010     -0.51400000       341.43600       1.9654492    0.0093235651
       2710.0000       288.83756       98910.454       14297.071       4.4122500      -1.3662500     0.018250000       341.33900       1.9612740    0.0085725775
       2715.0000       288.86967       98910.513       14333.414       3.0312500      -2.0105000     -0.19275000       341.48900       1.9530003    0.0093572594
       2721.0000       288.96821       98910.698       14414.736       2.9395000      -1.8680000     -0.78050010       341.54800       1.9636594    0.0091572199
       2726.0000       288.93574       98905.298       14396.539       2.1877500     -0.66800000      0.23075000       341.72200       1.9611105     0.010108297
       2731.0000       288.90307       98904.375       14347.555       1.6452500      -2.3355000      0.79525010       341.82800       1.9454413     0.010753520
       2736.0000       288.77042       98904.484       14200.654       3.9700000     -0.90825000     0.078250010       341.59800       1.9449284    0.0096090605
       2741.0000       288.72361       98904.548       14103.390       3.1392500     -0.89250000    -0.053750000       341.63800       1.9212222     0.011364224
       2746.0000       288.74395       98909.401       14015.730      0.80875000      -1.9402500     -0.44325000       341.80700       1.9557720    0.0088426398
       2751.0000       288.74532       98911.260       13932.406       3.0210000      -2.0015000    0.0065000000       341.65100       1.9790322    0.0092480788
       2756.0000       288.79039       98911.761       13847.900       3.8022500      -1.6185000     -0.35975000       341.10600       1.9486164    0.0093298522
       2761.0000       288.80921       98910.655       13796.289       3.2637500      -2.2802500     -0.32500000       341.49500       1.9720912     0.010470818
