MIRICO/SHELL project - Processed LDS file generated on
Thu Jul 27 15:18:28 2017
Time stamp for record start
05/12/2017  14:02: 6.0001
Nb of points in the record
         547
Beam position index
       7.0000000
Beam angle (degrees)
       19.274000
Open Path length (m)
       33.730000
****************** Temporal data record ************************
Elapsedtime_sec Temp_K Press_Pa Humidity_ppmv WindX_m/s WindY_m/s WindZ_m/s Speedofsound_m/s CH4vmr_ppmv CH4vmrerror_ppmv  
      0.00000000       288.64843       98931.263       13829.423       5.3442500      -2.9025000     -0.49375000       341.38100       2.1004405     0.029603915
       4.9999729       288.64194       98940.122       13836.943       4.4292500      -1.5665000     0.024750000       341.60900       2.2468015     0.031796967
       9.9999860       288.65174       98948.725       13862.700       4.2412500      -2.2385000     0.051500000       341.55500       2.1525854     0.019825749
       14.999999       288.64300       98945.984       13873.137       4.0927500      -1.9135000     -0.31525000       341.35600       2.1727435     0.026171630
       20.000012       288.64444       98944.069       13892.999       4.9622500      -1.8807500     -0.20425000       341.31100       2.2742593     0.031848188
       25.999980       288.68203       98955.040       13950.118       3.3075000      -1.8812500     -0.34300000       341.51700       2.1369818     0.037661799
       30.999993       288.71236       98951.814       13994.025       2.3590000     -0.51900010    -0.078000000       341.44900       2.1987046     0.038240921
       36.000006       288.75173       98929.601       14047.319       2.3625000    0.0072500000     -0.29350000       341.54600       2.1906408     0.019563185
       40.999979       288.75832       98920.307       14066.948       5.4105000      -1.6732500     0.069000010       341.50200       2.1555488     0.023728275
       45.999992       288.75671       98908.990       14074.045       4.0685000      -1.4097500      0.24500000       341.44600       2.2336179     0.034881008
       51.000005       288.75273       98906.839       14079.864       4.5575000      -1.5417500      0.34475000       341.53400       2.0202644     0.022961293
       55.999978       288.70558       98914.217       14044.825       4.4435000      -1.0950000      0.31000000       341.40000       2.2787181     0.029339008
       60.999991       288.68961       98922.364       14038.184       5.0525000      -1.0237500    -0.049250000       341.43200       2.1990657     0.028971592
       66.000004       288.71322       98943.087       14065.787       3.3350000      -1.3810000     0.076500010       341.44400       2.1930467     0.036062512
       70.999977       288.69918       98949.544       14061.220       5.1227500    -0.011000000      -1.3012500       341.42300       2.1709533     0.022922619
       75.999990       288.64950       98952.231       14022.422       3.2687500     -0.27525000      0.38450000       341.52200       2.1558468     0.024269078
       81.000003       288.64329       98951.714       14028.557       3.3137500     -0.59425000      0.27500000       341.56000       2.1670447     0.036950243
       85.999976       288.65632       98941.199       14062.924       2.5762500     -0.37025000     -0.18625000       341.53200       2.0281635     0.022974585
       90.999989       288.64632       98931.808       14063.032       2.1260000     -0.76800000      0.52050000       341.70500       2.1141113     0.028610897
       96.000002       288.65706       98918.247       14079.158       2.7612500     -0.32375000     -0.24750000       341.66300       2.1154306     0.021621271
       100.99998       288.65325       98912.120       14078.824       2.9865000     -0.34050000      0.36925000       341.68400       2.0651766     0.023025690
       105.99999       288.60497       98901.488       14022.850       2.7755000      -1.9282500      0.82825010       341.56000       2.0033467     0.029449761
       111.00000       288.58896       98902.846       14007.668       3.5530000      -1.8835000      0.51550000       341.44400       2.0068008     0.021409885
       117.00001       288.61043       98922.834       14039.971       2.9375000      0.66375010      0.60425000       341.49200       2.0968985     0.033106753
       121.99998       288.59385       98930.244       14018.431       4.9540000      -2.4200000      0.10125000       341.36200       2.0120703     0.030102234
       127.00000       288.55723       98940.227       13976.178       4.7445000      -1.6332500      0.14775000       341.36300       2.2391492     0.032285461
       132.00001       288.53730       98944.442       13940.223       4.6327500    -0.025250000     0.033000000       341.48200       2.0747379     0.017863358
       136.99998       288.48972       98943.693       13858.740       6.0235000      -3.1125000      0.14500000       341.20900       2.1051126     0.028921767
       141.99999       288.49235       98938.790       13837.786       6.2887500      -2.7532500     -0.18625000       341.22000       2.0305573     0.024487606
       147.00001       288.55350       98927.848       13868.036       4.5932500      -1.4177500     0.054500000       341.41600       2.1530501     0.023060572
       151.99998       288.55745       98921.938       13857.724       4.4705000      -1.9180000     -0.71575000       341.30400       2.0722260     0.030428174
       156.99999       288.55857       98910.779       13853.734       4.5822500     -0.74875000      0.57350000       341.46100       2.2408075     0.031441900
       162.00001       288.55228       98906.789       13843.665       5.8545000      -1.3620000     -0.64925000       341.40000       2.1055214     0.037555033
       166.99998       288.50084       98907.875       13797.897       5.5787500     -0.39700000     0.048750000       341.30400       2.0920361     0.031785316
       171.99999       288.48676       98911.039       13790.725       4.7335000     -0.50150000    -0.077750000       341.33000       2.0131925     0.020265343
       177.00001       288.52221       98917.565       13841.310       5.7002500     -0.93625000     -0.57650000       341.26900       2.0284757     0.026926895
       181.99998       288.49001       98923.167       13810.069       3.8180000      -1.3692500      0.85775010       341.42900       1.9766440     0.021640065
       186.99999       288.41590       98934.449       13745.162       3.2735000     -0.90400000      0.52850000       341.50900       2.1323377     0.022906174
       192.00000       288.37615       98939.170       13688.670       3.3435000    -0.045750000      0.15875000       341.33700       2.0474190     0.024847675
       196.99998       288.30132       98941.379       13568.699       5.5190000     -0.51350000      0.11425000       341.24700       2.1887982     0.040753269
       202.99999       288.27181       98940.694       13505.604       5.6207500     0.078500000      0.32825000       341.31200       2.1600408     0.025450994
       208.00000       288.30052       98938.573       13497.090       4.7675000      0.30850000     -0.30425000       341.15800       2.1492174     0.029451305
       213.00001       288.30082       98931.013       13470.945       5.7745000      -1.2745000      0.11775000       341.18000       1.9757359     0.020310397
       217.99998       288.30004       98914.995       13453.646       5.9200000     -0.49175000      0.10325000       341.34000       2.0920334     0.017296073
       223.00000       288.29997       98909.734       13436.192       4.0237500     -0.18725000    -0.012250000       341.32900       2.1206202     0.030422017
       228.00001       288.29129       98902.062       13408.958       4.7250000      0.54225000      0.36950000       341.33000       2.0240582     0.022689513
       232.99998       288.31002       98904.428       13415.514       5.6790000     -0.92425010    -0.077250000       341.39300       2.0249720     0.031258183
       238.00000       288.34582       98917.005       13442.926       3.5527500      -1.1707500     -0.17750000       341.32900       2.1041718     0.033111278
       243.00001       288.36555       98927.599       13463.353       4.5385000      -2.8332500     -0.23625000       341.27300       2.3142020     0.045897954
       247.99998       288.40306       98944.244       13502.596       4.4592500      -1.3037500      0.33825000       341.39000       2.0544468     0.028555252
       253.00000       288.41419       98952.462       13532.168       4.9287500     -0.16675000     -0.38325000       341.35100       2.0886866     0.037015959
       258.00001       288.40009       98962.942       13546.917       4.4165000      -1.1402500     -0.25750000       341.42100       2.1262443     0.029025491
       262.99998       288.40009       98962.681       13589.231       5.3270000     -0.22100000     -0.79600010       341.40500       1.9404342     0.015523461
       267.99999       288.39112       98953.684       13648.808       5.7827500     -0.20525000     -0.48375000       341.25800       2.1461414     0.030911025
       273.00001       288.40967       98944.114       13703.432       5.0332500      -2.1875000     -0.78850000       341.28100       2.1560324     0.029988346
       277.99998       288.45481       98926.651       13793.001       3.7110000      -1.2715000      0.39775000       341.36400       2.0855409     0.041023514
       282.99999       288.45615       98916.550       13803.308       2.9137500     -0.42125000     0.076750000       341.50600       2.0145945     0.016328414
       288.00001       288.45790       98901.939       13778.049       5.4307500      -3.3565000      0.19700000       341.19900       2.1653872     0.043163287
       293.99997       288.44545       98903.262       13751.259       4.1347500      -1.0895000       1.5795000       341.27100       2.1041951     0.022764813
       298.99999       288.38825       98914.242       13673.080       4.3185000     0.036250000      0.23650000       341.41300       2.1378698     0.035725742
       304.00000       288.43034       98925.965       13694.116       6.0487500     -0.85875000     0.054000000       341.19200       2.1269951     0.029307093
       308.99997       288.45049       98936.148       13691.139       4.0970000     -0.44450000      0.92750010       341.32300       2.1298714     0.032401983
       313.99999       288.50073       98944.887       13697.413      0.55275010      -1.5707500       1.2997500       341.42300       2.1593733     0.034600705
       319.00000       288.51305       98950.954       13685.374       4.0005000     0.019500000     -0.69475000       341.27000       2.1072542     0.022471249
       324.00001       288.45482       98961.738       13603.109       4.0372500     -0.18025000      0.11425000       341.44300       2.0412739     0.024259723
       328.99999       288.44350       98963.349       13589.205       4.1957500     -0.55875000     -0.60350000       341.23500       2.1927773     0.038169557
       334.00000       288.44447       98958.794       13604.797       4.9747500      -1.4852500     -0.22000000       341.27100       2.3520184     0.058349727
       339.00001       288.44951       98946.888       13646.581       4.1785000      -1.0070000     0.030750000       341.32700       2.1415286     0.023228742
       343.99998       288.43963       98936.520       13669.157       5.5025000      -1.8687500     0.079500000       341.22500       2.1066609     0.024659755
       349.00000       288.44989       98918.682       13727.406       3.4307500      -1.1807500   -0.0065000000       341.15600       2.1405583     0.021029412
       354.00001       288.43119       98910.297       13739.743       3.5602500      -2.7800000     -0.39975000       341.21200       1.9852443     0.026777956
       358.99998       288.43862       98907.666       13787.516       4.0505000      -2.3322500     0.045250000       341.31000       2.1127200     0.026363542
       364.00000       288.53041       98911.704       13935.502       2.9627500     -0.85900000      0.31825000       341.49300       2.3580736     0.040358947
       369.00001       288.56256       98918.243       14012.951       4.2342500      -2.6500000     -0.42675000       341.29700       2.1022187     0.034584789
       373.99998       288.57007       98928.477       14063.066       2.6167500     -0.46175000      0.33900000       341.58600       2.1223060     0.027685402
       379.00000       288.55750       98946.248       14099.391       4.9152500      -1.3487500     -0.61475000       341.37900       2.1634139     0.023979094
       385.00000       288.51041       98957.319       14073.599       3.9865000      -1.7022500    -0.012000000       341.18300       2.1306069     0.030771836
       389.99998       288.49184       98963.024       14071.701       4.3150000      -1.9752500     0.066000000       341.37300       2.1394213     0.021001158
       394.99999       288.51379       98964.433       14120.684       4.9167500      -1.4142500     -0.14425000       341.28800       2.2283693     0.046339324
       400.00000       288.50251       98961.056       14101.726       3.9857500      -2.2625000      0.10700000       341.26800       2.1335145     0.030147632
       404.99998       288.46582       98953.075       14038.067       3.2340000     -0.88250010     -0.32700000       341.53900       2.2601121     0.047019204
       409.99999       288.44591       98944.975       13981.430       3.7925000      -2.2585000      0.14125000       341.40600       2.2001082     0.040884240
       415.00000       288.40963       98927.702       13855.869       3.7842500      -1.9500000      0.26650000       341.33700       1.9602294     0.034002824
       419.99997       288.39097       98916.957       13784.672       3.2830000      -1.4817500   -0.0042500000       341.35400       2.0960747     0.023873937
       424.99999       288.38497       98904.466       13732.310       3.3327500     -0.74800000      0.53350000       341.36600       2.1933687     0.025132661
       430.00000       288.39619       98902.079       13713.967       3.9517500      -1.7582500     -0.32000000       341.38700       2.1784393     0.032997699
       434.99997       288.44786       98910.163       13753.728       3.6530000      -1.1965000      0.17025000       341.32900       2.1001200     0.028614485
       439.99999       288.45650       98915.451       13765.694       4.1600000      -1.0910000     -0.23200000       341.41900       2.1179243     0.029356590
       445.00000       288.45564       98930.753       13791.733       4.2450000      0.99700000    -0.035750000       341.31800       2.0750390     0.019653064
       449.99997       288.45453       98938.477       13813.658       3.3027500     -0.92950000     -0.41825000       341.48500       2.1321944     0.042213589
       454.99999       288.39573       98936.607       13800.056       3.5857500     -0.59675000     -0.18525000       341.38500       2.3621826     0.031837084
       460.00000       288.38857       98940.745       13821.127       3.2325000      -1.6947500    -0.040500000       341.15800       2.1875919     0.038742730
       465.00001       288.43361       98950.022       13884.144       3.0690000      -1.0377500     -0.33275000       341.32100       1.9609977     0.034152468
       469.99999       288.45374       98951.801       13921.489       3.8602500     -0.29150000      0.15825000       341.47200       2.1840136     0.051796270
       475.99999       288.49481       98955.393       13971.213       3.5907500      0.53325000      0.19000000       341.30600       2.9404622     0.024364250
       481.00001       288.51126       98950.493       14001.506       2.0100000      -1.0367500     -0.10950000       341.56500       3.7651442     0.035008132
       485.99998       288.50022       98930.852       14010.633       3.5980000     -0.22975000     0.037250000       341.45900       3.6009059     0.029078366
       490.99999       288.50037       98920.196       14022.576       4.0552500     -0.36150000      0.13175000       341.37800       3.8384972     0.031145240
       496.00001       288.50028       98906.638       14035.513       3.6540000       1.1537500      0.89050010       341.57200       7.8790557     0.032116403
       500.99998       288.50040       98901.242       14042.201       3.5210000     -0.18775000      0.50475000       341.46300       3.3188666     0.027600421
       505.99999       288.50006       98904.570       14044.399       3.0365000      -1.1942500      0.54925000       341.42900       5.5673045     0.036761898
       511.00000       288.50011       98904.915       14037.013       2.2520000     -0.39450000      0.70800000       341.69400       8.6099630     0.032515642
       515.99998       288.48669       98905.971       13999.875       1.9620000     -0.99200000     0.032250000       341.59400       6.1941863     0.030232009
       520.99999       288.50058       98911.844       14005.811       2.7647500      -1.6562500     -0.40675000       341.53900       3.0725430     0.030238967
       526.00000       288.53785       98921.504       14022.419       3.9100000      -1.0740000      0.14125000       341.57600       2.7899950     0.031783750
       530.99998       288.55792       98927.471       14048.282       2.1665000     -0.59725000    -0.022250000       341.68400       2.9222577     0.024361445
       535.99999       288.59515       98936.359       14118.622       1.6485000      -1.4085000      0.14425000       341.73600       2.6310523     0.025525736
       541.00000       288.61173       98944.090       14163.375       4.2485000      -2.4232500    0.0045000000       341.46800       2.5499299     0.033986924
       545.99998       288.59981       98950.656       14186.855       4.2290000      -2.1445000     0.064250000       341.20900       2.1406497     0.032424742
       550.99999       288.59965       98951.943       14227.693       3.9740000      -1.8400000     -0.72750000       341.30500       2.2062787     0.039101111
       556.00000       288.61409       98953.315       14307.308       2.7747500     -0.81525000      0.44075000       341.45900       2.1552019     0.038306728
       560.99997       288.60042       98951.171       14320.977       2.4170000     -0.22100000      0.71525000       341.66000       2.0052114     0.022907077
       566.99998       288.53587       98938.376       14283.362       4.6767500      -2.0130000    -0.027250000       341.42100       2.2056036     0.029739160
       572.00000       288.54864       98930.328       14291.618       3.7415000      -1.5125000      0.16000000       341.46800       2.4856820     0.022934200
       577.00001       288.59673       98922.778       14288.636       2.5232500     -0.56750010    -0.058000000       341.59900       2.4423040     0.027428710
       581.99998       288.60672       98915.748       14271.521       1.5052500     -0.35775000      0.22025000       341.69800       2.8939494     0.030803095
       586.99999       288.65676       98899.658       14287.282       2.2135000      -1.3877500   -0.0030000000       341.54800       2.5544158     0.029387740
       592.00001       288.66397       98904.780       14274.867       2.0777500     -0.80975000     -0.22275000       341.54400       2.1378344     0.026088720
       596.99998       288.60075       98925.536       14200.085       2.2645000      -1.2665000      0.48100000       341.62100       2.5152541     0.035152437
       601.99999       288.58697       98936.040       14178.313       3.6770000    -0.082500000     -0.43450000       341.73600       3.0348271     0.032639691
       607.00001       288.58909       98962.218       14183.521       4.7542500    -0.023750000     0.049000000       341.23900       2.3208384     0.032108068
       611.99998       288.60575       98967.145       14198.201       4.7772500      -1.0565000       1.3747500       341.30300       2.2974496     0.033408440
       616.99999       288.65315       98949.803       14242.542       3.9267500      -1.9642500     -0.40850000       341.13100       2.0790922     0.026366768
       622.00001       288.65698       98949.083       14249.189       3.0065000      -1.7290000      0.37550000       341.72800       2.0695108     0.038488614
       626.99998       288.65682       98948.909       14249.750       3.4860000    -0.022500000      0.36225000       341.58800       2.1328241     0.029212696
       631.99999       288.65082       98950.110       14256.519       3.4547500      0.47475000     -0.32800000       341.44900       2.3710893     0.026830984
       637.00000       288.60090       98962.534       14235.519       3.9757500      -3.7870000      0.35275000       341.15000       3.1168005     0.027042326
       641.99998       288.58733       98962.109       14236.364       5.1977500     -0.98475000     -0.58475010       341.29600       2.3214485     0.024648311
       646.99999       288.58862       98955.564       14260.853       5.1382500      -1.4512500     -0.25200000       341.32600       2.7611722     0.032740948
       653.00000       288.61005       98944.337       14282.701       5.0820000      -1.2597500      0.45525000       341.47400       2.8255892     0.038295363
       658.00001       288.64598       98925.883       14296.178       4.9860000    -0.093500000    -0.089250010       341.25900       3.5438559     0.020649020
       662.99998       288.66594       98917.548       14312.091       3.2187500     -0.40950000      0.96800010       341.65200       2.7426674     0.028455264
       668.00000       288.70343       98909.119       14336.413       1.9215000     -0.20200000      0.22675000       341.52000       2.0468849     0.027167523
       673.00001       288.71498       98905.695       14357.525       3.1532500      0.48950000      0.27800000       341.74600       2.2047980     0.035248139
       677.99998       288.69987       98910.298       14376.504       2.5232500     -0.96775010     -0.44650000       341.62100       2.1567847     0.037111634
       683.00000       288.69975       98910.264       14385.939       3.2830000      -3.1875000     -0.46225000       341.27900       2.2242316     0.035024285
       688.00001       288.70068       98908.592       14401.488       2.9317500     -0.82200000       1.0832500       341.56100       1.9774709     0.034512690
       692.99998       288.70098       98912.346       14397.006       4.0522500      -1.9472500      0.16950000       341.44300       2.1871932     0.035411273
       698.00000       288.68996       98918.216       14358.064       4.3560000     0.096500000    -0.084750000       341.64500       2.0859634     0.028926459
       703.00001       288.70871       98924.101       14365.247       3.5562500     -0.47675000      0.91675000       341.41100       2.1322183     0.039744185
       707.99998       288.75539       98933.649       14393.131       2.9027500     -0.51350000    -0.023250000       341.44300       2.0053800     0.028259199
       713.00000       288.75683       98941.708       14396.031       2.6762500     -0.39625000      0.83375010       341.63200       2.1675563     0.033163518
       718.00001       288.75593       98949.860       14412.598       1.8050000      -2.0860000      0.62425010       341.60000       2.6077732     0.037545232
       722.99998       288.74718       98954.967       14411.007       3.6135000      -2.3020000    -0.087250000       341.18400       2.7276087     0.031617551
       727.99999       288.68812       98962.843       14369.622       2.7330000      -2.6420000     0.011000000       341.19700       2.1905346     0.036436196
       733.00001       288.69559       98961.434       14377.513       2.6557500     -0.89425000      0.18800000       341.36300       1.8416373     0.030552552
       737.99998       288.74560       98951.199       14403.719       1.9440000     -0.37325000      0.55050000       341.66100       2.1925331     0.028435584
       743.99999       288.76992       98946.303       14449.742       3.0672500     -0.69775000     -0.39175000       341.34400       2.1826271     0.034191622
       749.00000       288.81171       98939.370       14521.159       2.5872500     -0.73800000    -0.063500000       341.41700       2.3063825     0.023242631
       753.99997       288.76915       98940.159       14530.400       4.4592500      0.97800000   -0.0060000000       341.34400       2.9854908     0.036764624
       758.99999       288.74877       98936.433       14537.604       3.0795000      0.14200000     0.035250000       341.74300       3.3061599     0.031781349
       764.00000       288.71447       98927.157       14507.137       4.4455000      0.39150000    -0.016250000       341.35800       4.0217849     0.037376920
       768.99997       288.69339       98920.188       14483.627       5.1405000      -1.0505000    -0.062000000       341.09800       4.4213225     0.028543821
       773.99999       288.72994       98908.836       14489.490       4.2315000     -0.80400000     -0.22900000       341.56600       5.3020708     0.027304046
       779.00000       288.71263       98903.494       14460.735       4.3220000     -0.83275000    -0.028750000       341.02700       2.7098996     0.032589937
       784.00001       288.67069       98901.846       14412.883       4.3490000     -0.90675000      0.21525000       341.36300       1.9884787     0.025897366
       788.99999       288.60171       98904.780       14347.893       5.3565000     -0.38325000      0.22525000       341.38300       2.1984262     0.036780101
       794.00000       288.56110       98905.995       14273.576       4.5345000     -0.57475000     -0.14475000       341.42500       2.1692241     0.030287367
       799.00001       288.48782       98909.483       14170.080       2.2927500     -0.10075000     0.079500000       341.66600       2.1920202     0.031441094
       803.99998       288.51462       98914.783       14089.411       3.9437500      -1.3445000     -0.16800000       341.67700       2.0087097     0.030872805
       809.00000       288.50593       98919.661       14019.783       3.4420000     -0.55675000     -0.16175000       341.48600       2.4387413     0.046848426
       814.00001       288.45469       98930.430       13927.763       3.5975000      0.56800000     -0.11625000       341.61800       2.3358051     0.031665024
       818.99998       288.44346       98936.634       13896.415       3.0182500      -1.4435000     -0.39200000       341.39400       2.8246569     0.032363460
       824.00000       288.44453       98940.367       13901.000       4.7665000       1.6122500     -0.31275000       341.27000       2.6541767     0.033840697
       829.00001       288.43648       98941.098       13931.503       3.4112500     -0.43500000    -0.099250000       341.65600       3.1474771     0.044534830
       834.99998       288.53813       98937.510       14070.663       4.0577500      -1.6985000     -0.39225000       341.25200       4.0763670     0.041174933
       839.99999       288.56587       98939.835       14144.378       4.1267500      0.91600010      0.56750010       341.40700       3.8195360     0.032256416
       845.00000       288.55615       98950.146       14202.203       3.6180000     -0.39525000      0.63925000       341.59000       2.6706420     0.037493567
       849.99998       288.55500       98952.000       14257.634       3.1240000     -0.44700000     -0.16925000       341.34000       3.5148486     0.037287227
       854.99999       288.50947       98951.502       14302.725       3.3177500      -1.0200000      0.26275000       341.36500       6.1553636     0.039507740
       860.00000       288.49108       98951.208       14322.218       4.7332500      -1.3580000     -0.77875010       341.05200       9.4112460     0.051099885
       864.99998       288.51393       98943.750       14350.420       4.0577500    -0.076250000      0.35800000       341.49400       4.7445195     0.033599886
       869.99999       288.50262       98938.930       14333.038       5.1005000      -1.8342500     0.067750010       341.36000       2.3602732     0.036300959
       875.00000       288.46702       98939.986       14248.454       3.1675000      0.91150000      0.90900000       341.64000       2.2677115     0.031199821
       879.99997       288.44703       98935.733       14186.677       3.9962500       1.1407500      0.87550000       341.37200       2.1794995     0.039143265
       884.99999       288.39575       98924.437       14086.776       3.8635000     -0.42350000     -0.51750000       341.52700       2.1343146     0.026566218
       890.00000       288.38791       98918.472       14031.538       4.9972500      -1.2152500      0.86450000       341.31000       2.1931867     0.035475842
       894.99997       288.44851       98913.539       14025.008       3.7035000     0.022000000     -0.28825000       341.23400       2.2421415     0.030554515
       899.99999       288.45762       98908.593       13993.144       3.4707500       1.1677500      0.44175000       341.31600       5.1430409     0.042383646
       905.00000       288.45608       98905.439       13963.379       3.9467500    -0.058250000      0.73900000       341.40900       3.8548224     0.045250055
       910.00001       288.45478       98904.561       13941.941       3.5757500     0.047500000      0.93225000       341.40200       2.8497142     0.048201944
       914.99999       288.40941       98904.725       13902.306       4.6280000      0.10125000      0.11300000       341.29100       2.5260801     0.045593587
       920.00000       288.39074       98904.927       13882.030       2.4145000      0.38650000     0.017250000       341.47500       2.2322147     0.026145351
       926.00001       288.40009       98907.274       13896.349       3.2190000     -0.15125000    -0.063250010       341.39700       2.1946300     0.035451877
       930.99998       288.40009       98911.741       13890.696       2.9362500      0.21775000      0.30950000       341.25000       2.5561635     0.038720290
       935.99999       288.38727       98916.791       13853.281       4.4395000   -0.0065000000    -0.097250010       341.24500       2.3388149     0.037585496
       941.00001       288.40091       98922.181       13869.885       4.2090000      -1.3560000     -0.51875000       341.28800       2.2912094     0.039474629
       945.99998       288.43792       98933.095       13917.838       3.1087500      -2.2910000      0.12600000       341.36900       2.0477819     0.039568303
       950.99999       288.45756       98938.272       13952.018       4.8815000      -1.1757500      0.42100000       341.26800       1.9928284     0.034612026
       956.00000       288.49449       98939.797       14036.307       3.4665000     -0.54150000    -0.019500000       341.54700       2.1695662     0.053778124
       960.99998       288.51046       98941.408       14072.569       4.4165000      -2.3640000      0.14800000       341.19900       2.0643633     0.036775260
       965.99999       288.51365       98940.376       14083.929       4.0617500      -1.2462500     -0.40250000       341.13900       2.1894739     0.027884760
       971.00000       288.49992       98940.395       14072.179       3.8180000     -0.54775010      0.38550000       341.33600       2.0912781     0.041686903
       975.99998       288.44915       98937.762       14015.474       4.3595000     -0.42450000     -0.32450000       341.16200       2.1146655     0.035682388
       980.99999       288.44287       98940.569       13994.615       5.8545000      -2.1505000      0.46525000       341.35900       2.0786699     0.029086428
       986.00000       288.45665       98948.048       13981.605       5.0547500      -1.8502500     -0.24300000       341.17300       2.1208901     0.040723918
       990.99998       288.44676       98952.073       13945.370       4.0272500      -1.3702500      0.69775000       341.32100       2.1889566     0.041838369
       995.99999       288.45674       98961.845       13912.795       4.4482500      -1.4347500    -0.046500000       341.23700       2.0579909     0.026595139
       1001.0000       288.45298       98962.302       13883.781       3.9625000      -1.9340000    -0.088750000       341.22700       2.1409639     0.031403344
       1006.0000       288.37818       98952.743       13785.552       3.4997500     -0.96250000     0.024000000       341.40400       2.0266607     0.038432914
       1011.0000       288.38999       98948.727       13786.566       4.2030000      -1.9722500      0.16725000       341.21400       2.1401159     0.033497881
       1017.0000       288.49529       98941.611       13894.135       2.9390000      -1.5705000      0.13375000       341.30200       1.9461177     0.026747524
       1022.0000       288.51916       98937.224       13927.098       2.5842500     -0.74825000    -0.024750000       341.47300       2.0954338     0.042393667
       1027.0000       288.56757       98935.872       13992.760       3.2972500     -0.85125010      0.23125000       341.43500       2.2192548     0.048562718
       1032.0000       288.55908       98933.825       14009.439       4.8750000     -0.58150010      0.70100000       341.35100       2.1159088     0.040321280
       1037.0000       288.44717       98932.684       13939.051       3.9982500      -2.3537500     0.023250000       341.33200       2.1173275     0.034945350
       1042.0000       288.43000       98928.101       13949.187       4.9272500     -0.81100000     -0.25400000       341.06500       2.0904438     0.034157764
       1047.0000       288.45389       98921.949       14003.136       3.5490000      -1.8562500      0.31400000       341.26200       1.9800989     0.030792082
       1052.0000       288.44399       98918.038       14017.563       4.4722500      -1.3440000      0.13875000       341.26200       2.2071065     0.031332861
       1057.0000       288.44633       98910.332       14040.216       4.2987500      -1.0392500     -0.15225000       341.20400       2.2172497     0.035236986
       1062.0000       288.45623       98907.534       14058.923       4.5632500      -1.4280000     -0.59800000       341.22100       2.0149187     0.025640235
       1067.0000       288.45433       98910.431       14057.045       5.4015000      -1.2227500     0.094750000       341.06500       2.1792043     0.027587874
       1072.0000       288.44415       98910.517       14052.074       5.0702500     -0.68675010      0.56050000       341.33800       2.0940201     0.035109185
       1077.0000       288.45668       98910.154       14073.144       4.0042500     -0.91175000     -0.20875000       341.21800       2.0307968     0.035234726
       1082.0000       288.45063       98910.094       14048.372       3.0182500     -0.86450000     -0.17025000       341.29300       2.1627957     0.042335726
       1087.0000       288.41200       98908.030       13985.554       3.4352500     -0.95575000     -0.32075000       341.26900       2.0637948     0.035087779
       1092.0000       288.38225       98911.250       13920.989       1.9370000     -0.78100000      0.41325000       341.52300       2.1343659     0.029218859
       1097.0000       288.34788       98917.380       13811.159       2.7367500     -0.37125000     -0.88350000       341.40300       2.0760980     0.037849191
       1102.0000       288.34452       98923.053       13766.334       2.8972500     -0.95950010     -0.33875000       341.29200       2.0397961     0.033495983
       1108.0000       288.35231       98936.423       13734.203       3.9345000      -1.1627500     -0.19200000       341.30600       2.4011374     0.032198392
       1113.0000       288.34219       98938.866       13710.862       3.2222500     -0.73225000      0.21100000       341.42600       2.9399264     0.030951810
       1118.0000       288.35664       98934.859       13728.512       4.1562500      -1.6640000     0.051750000       341.22100       2.3209426     0.032020251
       1123.0000       288.34803       98935.794       13723.558       4.0215000      -1.4907500       1.0850000       341.30800       2.2380217     0.036911322
       1128.0000       288.28818       98934.732       13682.148       3.9780000      -2.2385000    -0.039000000       341.29400       2.2844407     0.031367227
       1133.0000       288.29585       98935.650       13707.740       4.2135000     -0.50475000     -0.27450000       341.11700       2.1335602     0.043032077
       1138.0000       288.34608       98940.583       13775.462       4.8162500     -0.97275010      0.32950000       341.35600       2.3419078     0.046839395
       1143.0000       288.36593       98941.745       13822.690       2.1532500      -2.0135000      0.27075000       341.46800       2.1486087     0.027146833
       1148.0000       288.40219       98938.440       13900.694       2.4775000      -2.2607500     -0.20200000       341.45800       2.1085062     0.034396602
       1153.0000       288.41291       98942.301       13942.685       3.2440000      -1.4832500   -0.0027500000       341.32900       2.2517132     0.057040393
       1158.0000       288.39123       98951.325       13954.964       3.7705000      -1.7137500     -0.41675000       341.45500       2.2155633     0.033000453
       1163.0000       288.41016       98951.634       13998.017       3.2607500      -1.1147500      0.18200000       341.43300       2.1972099     0.034770451
       1168.0000       288.45558       98949.787       14064.709       2.6102500      -1.0435000     -0.41175000       341.39900       2.1668353     0.022917244
       1173.0000       288.45696       98951.776       14075.743       4.6862500      -2.1905000     -0.20575000       341.19600       2.2531477     0.042942856
       1178.0000       288.45702       98950.815       14074.537       2.8562500     -0.95900010     -0.37450000       341.30800       2.0429714     0.028065065
       1183.0000       288.44834       98948.859       14067.326       4.8205000     -0.97150000     -0.11950000       341.05100       2.1170199     0.032553617
       1188.0000       288.39756       98950.074       14008.883       3.7320000     -0.21525000      0.27475000       341.28900       2.3037677     0.031972703
       1193.0000       288.38677       98952.102       13996.761       2.9035000     -0.43125000      0.24125000       341.30900       2.2783306     0.036897326
       1199.0000       288.39460       98950.382       14005.599       2.3927500     0.059000000     0.034750000       341.44300       2.1932817     0.028857292
       1204.0000       288.43034       98952.674       14039.175       3.4187500      -2.1540000     0.097250010       341.40600       2.1096239     0.031884473
       1209.0000       288.45049       98952.050       14064.486       4.0457500      -2.1275000     -0.30575000       341.13600       2.2306453     0.031633357
       1214.0000       288.48572       98940.181       14112.589       4.4800000     -0.38450000     0.047250000       341.06100       2.1031138     0.027303887
       1219.0000       288.50680       98934.055       14147.072       4.0557500      -2.0282500     -0.28100000       341.21200       2.0984796     0.032481032
       1224.0000       288.50006       98934.892       14159.855       4.5305000      -1.3692500      0.26900000       341.42600       2.0295706     0.035387233
       1229.0000       288.50008       98931.070       14178.411       4.4462500     -0.15275000     -0.53425000       341.32200       2.2976670     0.037781548
       1234.0000       288.50016       98926.013       14197.200       2.2867500     -0.61800000      0.51050000       341.41800       2.4781155     0.081553080
       1239.0000       288.50090       98920.675       14216.593       2.4987500      -1.0707500     -0.30525000       341.34500       2.2350233     0.048437630
       1244.0000       288.50121       98916.686       14235.736       3.1730000     -0.51200000     -0.88475010       341.38600       2.1709558     0.036633369
       1249.0000       288.50016       98909.181       14252.150       2.9317500     -0.47575000     -0.17375000       341.32100       2.1491718     0.028948624
       1254.0000       288.50017       98910.189       14294.418       4.0920000      -1.6097500      0.14650000       341.31700       2.2268855     0.049489257
       1259.0000       288.50030       98910.130       14313.977       2.8032500      -1.1687500      0.32975000       341.33100       2.2540131     0.045964229
       1264.0000       288.53031       98910.394       14348.690       3.6640000      -1.7795000     0.018000000       341.28800       2.1778759     0.041409185
       1269.0000       288.51294       98910.454       14342.127       2.1647500     -0.81200000    -0.052750000       341.48100       2.0848695     0.032219325
       1274.0000       288.47099       98910.513       14305.936       3.1275000      -1.4600000      0.17325000       341.26400       2.2348760     0.042986342
       1279.0000       288.39498       98910.243       14224.561       3.7150000      -1.5630000      0.52775000       341.29200       2.1686020     0.035999130
       1285.0000       288.35417       98910.404       14172.701       3.0972500      -1.4557500     0.017500000       341.38400       2.1895147     0.030721977
       1290.0000       288.33642       98910.447       14121.693       4.4705000      -2.3715000      0.47425000       341.26000       2.0530132     0.030896515
       1295.0000       288.40436       98910.306       14099.770       4.8577500     -0.71225010     -0.31200000       341.20800       2.2087597     0.039792164
       1300.0000       288.41205       98910.306       14049.171       3.9305000     -0.33575000     -0.11775000       341.35500       2.2163620     0.044091721
       1305.0000       288.35162       98907.544       13924.029       3.9945000      -1.4187500     0.080250000       341.39100       2.1623100     0.046906255
       1310.0000       288.34307       98909.853       13877.211       1.7910000      -1.1725000     -0.53375000       341.35900       2.2634334     0.043070750
       1315.0000       288.32963       98917.170       13850.093       2.9315000      -2.7057500     -0.33750000       341.25800       2.1882211     0.033048544
       1320.0000       288.34191       98921.178       13856.755       3.2717500      -1.6235000     -0.59650000       341.25600       2.1793271     0.030849867
       1325.0000       288.42368       98928.331       13949.111       2.2807500      -1.2420000      0.40725000       341.42100       2.2939488     0.050306426
       1330.0000       288.46255       98932.069       14008.415       3.1127500      -1.5162500    -0.041750000       341.28100       2.0828652     0.036607636
       1335.0000       288.47615       98930.404       14052.698       1.9917500      -1.5447500       1.0077500       341.40900       2.1701727     0.030298179
       1340.0000       288.50665       98930.479       14125.554       1.7312500      -1.3987500     0.082500000       341.48800       2.2685058     0.034906748
       1345.0000       288.53490       98928.700       14224.116       3.3607500      -1.3105000     0.065500010       341.36100       2.2182947     0.033397783
       1350.0000       288.55538       98929.703       14297.722       2.1850000     -0.66175000      0.10800000       341.46800       2.1419603     0.027899179
       1355.0000       288.60458       98933.690       14413.748       2.2992500      -2.1852500      0.79350010       341.62600       2.0761564     0.023775722
       1360.0000       288.61190       98935.684       14461.976       2.1450000      -1.7800000      0.44600000       341.51700       2.1755951     0.035168302
       1365.0000       288.56697       98939.469       14437.958       1.8185000      -1.2805000     -0.27200000       341.56000       2.0814798     0.027475042
       1370.0000       288.54709       98941.379       14428.379      0.85525010      -1.4357500      0.26475000       341.50900       2.2151528     0.033017184
       1376.0000       288.50498       98940.132       14376.722       1.9162500      -1.7717500     -0.18975000       341.39700       2.2057184     0.043381506
       1381.0000       288.48849       98940.050       14343.926       2.1367500      -1.9012500     0.093000000       341.36900       2.3677288     0.047147694
       1386.0000       288.50015       98937.671       14330.760       3.2297500      -1.4242500     -0.19350000       341.35300       2.0705539     0.029549293
       1391.0000       288.50027       98940.399       14292.578       3.0810000     -0.55250000     -0.19675000       341.32800       2.0971281     0.036593017
       1396.0000       288.51253       98950.614       14235.128       2.8950000      -2.1397500     0.040500000       341.51800       2.3243426     0.036249938
       1401.0000       288.49855       98951.881       14182.708       3.8770000      -2.2167500      0.25650000       341.30900       2.1843535     0.033823235
       1406.0000       288.44938       98949.213       14092.613       2.4467500     -0.88425000     0.026750000       341.63500       2.1708586     0.030797282
       1411.0000       288.44325       98951.246       14062.622       3.2270000      -1.9427500     -0.22825000       341.45000       2.2372523     0.031988901
       1416.0000       288.44168       98948.732       14061.610       2.6727500     -0.56500000     0.076000010       341.41600       2.1292211     0.049296080
       1421.0000       288.44523       98949.490       14069.344       2.8192500      -1.9187500     -0.15300000       341.37200       1.9811479     0.032633422
       1426.0000       288.49401       98959.143       14125.866       3.7677500      -1.5250000      0.35575000       341.37400       2.2698134     0.033527625
       1431.0000       288.51020       98962.399       14161.247       3.2787500      -2.1495000      0.47775000       341.22800       2.0984390     0.035362695
       1436.0000       288.48694       98960.314       14178.190       2.6095000     -0.85650000     -0.83975010       341.33900       2.1036665     0.028774681
       1441.0000       288.50052       98960.354       14224.149       2.5305000      -1.3305000     -0.62525000       341.48900       2.0113067     0.027810130
       1446.0000       288.57668       98962.897       14334.828       2.7710000      -1.0800000      0.13850000       341.39100       2.1800767     0.049866580
       1451.0000       288.55540       98960.172       14348.998       2.3917500      -1.0062500      0.95500000       341.62600       2.2253498     0.039813525
       1456.0000       288.47003       98952.804       14338.268       3.3940000      -1.1667500     -0.41675000       341.28500       2.1592860     0.044845827
       1461.0000       288.43981       98948.766       14302.878       6.2377510      -2.0085000    -0.079000000       341.21100       2.2059109     0.046977107
       1467.0000       288.34554       98940.361       14155.169       3.1785000      -2.4885000     0.058750000       341.39100       2.1170447     0.029267103
       1472.0000       288.32426       98937.516       14079.622       2.2747500      -1.1247500      0.41800000       341.52800       1.9765323     0.025712454
       1477.0000       288.41064       98940.321       14041.642       3.9092500      -2.1802500      0.31475000       341.44000       2.1934669     0.039546256
       1482.0000       288.40835       98940.364       13958.028       2.2977500      -2.7282500      0.39200000       341.34800       2.1342996     0.028125124
       1487.0000       288.34672       98940.257       13831.161       2.2825000      -1.7450000     -0.35375000       341.48400       1.9020439     0.025528299
       1492.0000       288.34303       98940.213       13770.069       3.4332500      -1.4230000     -0.36525000       341.35700       2.0692693     0.034639098
       1497.0000       288.34289       98940.151       13704.618       2.9042500      -2.9635000     -0.11050000       341.29500       1.9936886     0.028074988
       1502.0000       288.34902       98940.092       13680.103       3.4210000      -2.1045000     -0.26950000       341.46900       2.1157925     0.025949800
       1507.0000       288.39932       98940.381       13727.951       2.2420000     -0.95925000    -0.011500000       341.56900       2.0300602     0.032820528
       1512.0000       288.41297       98940.397       13742.314       1.8177500     -0.97925010      0.24875000       341.58100       1.9404808     0.025367600
       1517.0000       288.38871       98940.118       13739.807       2.9610000     -0.51450000     0.011750000       341.57700       2.0253050     0.030758408
       1522.0000       288.40495       98940.032       13775.865       2.9152500     -0.52825000      0.19150000       341.43100       2.2476334     0.049288018
       1527.0000       288.44236       98940.321       13839.567       3.2695000      -2.9120000      0.62400000       341.47300       2.0670122     0.035916681
       1532.0000       288.46230       98940.364       13888.726       3.8565000      -2.8762500      0.17900000       341.47000       2.1309656     0.046527530
       1537.0000       288.51019       98941.383       13982.643       2.1307500     -0.75525000      0.86825000       341.58700       2.2020294     0.039812466
       1542.0000       288.50753       98939.758       14001.825       3.6460000      -1.2780000     -0.34775000       341.37200       2.2297766     0.042548300
       1547.0000       288.44719       98935.084       13958.727       3.7940000     -0.27850000      0.47750000       341.21400       2.0840593     0.038738709
       1552.0000       288.44360       98934.763       13961.677       2.6185000      -1.6587500      0.32850000       341.47000       2.0449853     0.030348809
       1558.0000       288.43489       98935.696       13939.933       3.9310000      -2.4475000     0.050750000       341.46600       2.0490181     0.034842334
       1563.0000       288.46276       98934.781       13956.504       3.5080000     -0.56700000      0.30175000       341.26400       2.2994739     0.067778867
       1568.0000       288.55994       98936.178       14039.005       4.4907500      -1.2835000     -0.68525000       341.30000       2.1922051     0.039578913
       1573.0000       288.57269       98935.355       14033.288       4.4440000     -0.94550000     -0.73925010       341.50400       2.0443748     0.040414625
       1578.0000       288.55738       98930.043       13986.973       4.5985000      -2.7260000     -0.28125000       341.46900       2.0548178     0.040029129
       1583.0000       288.54884       98928.960       13964.488       4.8115000      -1.9337500    -0.079500000       341.34500       2.1939998     0.044094788
       1588.0000       288.49655       98932.050       13905.030       4.6320000     -0.29150000      0.59000000       341.39400       2.1399786     0.032424154
       1593.0000       288.48493       98928.297       13882.215       4.9735000      -1.8712500     -0.52875000       341.26600       2.0080679     0.029625613
       1598.0000       288.50028       98919.404       13897.285       5.3147500     -0.76700000   -0.0057500000       341.31800       2.0121182     0.034273875
       1603.0000       288.50046       98919.148       13879.859       4.0712500     -0.66425000     0.098000000       341.39700       2.0812162     0.030746024
       1608.0000       288.50882       98920.759       13855.431       3.8010000     -0.39600000      0.10025000       341.46100       2.1435810     0.036463311
       1613.0000       288.49008       98918.744       13820.369       3.0995000     0.021500000     -0.18875000       341.44400       2.1851147     0.036583207
       1618.0000       288.44481       98921.669       13754.274       1.9595000      -2.5600000      0.18475000       341.59700       2.3085596     0.038470206
       1623.0000       288.44348       98919.957       13750.241       5.9042500      -2.5402500    -0.090000000       341.19200       2.0858841     0.042567731
       1628.0000       288.44252       98910.522       13763.603       4.9237500      -1.5827500     -0.50200000       341.28100       2.2845545     0.046729036
       1633.0000       288.45090       98906.406       13780.186       3.7695000      -1.1525000     -0.49400000       341.30200       2.1242292     0.029785139
       1638.0000       288.50270       98904.698       13844.478       3.1427500     -0.67475000    -0.091500010       341.41100       2.0393368     0.041923641
       1643.0000       288.51350       98904.521       13872.277       3.1905000     -0.13525000      0.42125000       341.55200       2.1746592     0.030412199
       1649.0000       288.50031       98905.292       13884.460       4.1545000     -0.53375000     -0.16325000       341.41200       2.1045699     0.034497123
       1654.0000       288.51454       98904.269       13923.566       4.2350000      -1.0802500      0.73200010       341.38400       2.1291059     0.036383571
       1659.0000       288.50577       98905.252       13922.465       2.2880000      -1.4757500     0.071000000       341.63600       2.1142197     0.036471849
       1664.0000       288.45467       98904.766       13858.283       3.6370000     0.067750010      0.76475010       341.56000       2.0811278     0.032349868
       1669.0000       288.44354       98904.637       13834.323       2.2285000      -1.1105000      0.21475000       341.66100       2.2173055     0.039155935
       1674.0000       288.44469       98910.272       13808.043       2.6570000      -1.9222500     0.075000000       341.46500       2.1291577     0.028788131
       1679.0000       288.44318       98911.519       13784.781       4.8005000      -2.3235000     -0.30825000       341.27400       2.1359028     0.034426825
       1684.0000       288.45391       98910.293       13775.066       4.9902500      -2.2740000    -0.060500000       341.23100       2.1316029     0.038928736
       1689.0000       288.50576       98904.568       13809.696       6.3332510      -2.8207500     -0.58950000       341.40300       2.1279264     0.031151949
       1694.0000       288.51413       98904.628       13791.151       4.2782500      -1.0202500     -0.32950000       341.41400       1.9653671     0.036136469
       1699.0000       288.50031       98904.771       13744.332       3.2645000     -0.86975000       1.0870000       341.60200       2.1729535     0.032870294
       1704.0000       288.48527       98908.768       13702.930       4.5370000      -1.2075000     0.079250000       341.34300       2.1374905     0.034449060
       1709.0000       288.49381       98910.912       13704.466       2.9015000     -0.95750000     -0.81425010       341.44900       2.1328026     0.032493398
       1714.0000       288.54514       98911.769       13784.995       5.4475000      -1.6335000      0.13475000       341.27700       2.1609975     0.034939071
       1719.0000       288.55623       98910.901       13814.919       5.9617510      -1.9680000     -0.35400000       341.16400       2.1737344     0.032193510
       1724.0000       288.55497       98908.797       13833.934       5.3812500     -0.28425000     -0.53950000       341.41400       2.1002094     0.036393622
       1729.0000       288.55075       98904.564       13852.455       3.8657500     -0.87150000      0.75425000       341.51400       2.0785520     0.028030630
       1734.0000       288.56063       98904.633       13898.746       5.3997500      -1.1810000      0.61100000       341.39600       2.0292477     0.025463969
       1740.0000       288.54562       98905.090       13930.282       3.1727500      -2.4050000     -0.46225000       341.39100       2.1633520     0.050123354
       1745.0000       288.60495       98904.465       14045.345       2.2342500     -0.52800000      0.70600000       341.40700       1.9247082     0.039904926
       1750.0000       288.61298       98905.450       14082.102       4.5400000     -0.27325000    -0.066250000       341.41000       2.1497333     0.035089271
       1755.0000       288.55163       98904.641       14022.875       2.9260000      -1.3447500     -0.44350000       341.36000       2.2742349     0.046665139
       1760.0000       288.54312       98904.759       14016.148       3.1245000      -1.5795000     -0.18950000       341.40600       2.2053506     0.046322713
       1765.0000       288.54390       98910.719       14002.030       3.1860000     -0.29425000      0.67075000       341.50900       2.2689834     0.032495075
       1770.0000       288.54507       98911.471       13993.972       3.0160000      0.28550000      0.56150000       341.63100       2.1319667     0.031003859
       1775.0000       288.59002       98905.410       14024.211       3.0750000     -0.14200000      0.53900000       341.68300       2.4802175     0.042293282
       1780.0000       288.60864       98904.481       14034.289       5.2930000     -0.51975000     -0.60950010       341.47900       2.5048100     0.031112501
       1785.0000       288.58598       98897.750       14006.966       3.6797500      -1.8930000      0.14000000       341.45200       3.9115478     0.036057515
       1790.0000       288.59737       98903.558       14015.135       3.6335000      0.14425000      0.17625000       341.55800       2.9058647     0.038150227
       1795.0000       288.64851       98933.548       14065.919       6.5975000     -0.51725000      0.27900000       341.30900       2.5190776     0.031869603
       1800.0000       288.65751       98939.996       14076.937       3.7652500      -1.8687500     -0.74575000       341.54600       2.0854454     0.025212232
       1805.0000       288.65621       98939.955       14079.665       3.4162500      -1.2862500     -0.27475000       341.35300       2.2283549     0.032357552
       1810.0000       288.65491       98938.220       14084.173       2.4695000      -1.4965000     -0.18750000       341.59100       2.2396965     0.039175556
       1815.0000       288.61011       98910.336       14038.811       2.5962500      -1.3130000      0.54425000       341.55100       2.1484885     0.032672260
       1820.0000       288.59174       98900.223       14037.568       4.6922500      -2.1832500     -0.22250000       341.52200       2.1694652     0.040414802
       1825.0000       288.61425       98904.696       14095.648       4.8887500      0.71250000     -0.33400000       341.34700       2.1177087     0.038352411
       1831.0000       288.59923       98904.997       14110.423       4.4685000     -0.94950000     -0.18150000       341.34200       2.0963713     0.028704382
       1836.0000       288.56111       98909.800       14122.827       3.6240000     -0.67075000     -0.81700000       341.46400       2.1502527     0.041299013
       1841.0000       288.54099       98911.438       14112.734       4.7160000     -0.67375000       1.1142500       341.56500       2.2317949     0.030907002
       1846.0000       288.50493       98910.419       14057.974       3.9485000      -1.9502500      0.52625000       341.47200       2.2280605     0.033330418
       1851.0000       288.48900       98910.478       14021.952       3.1670000      -1.2845000     -0.11050000       341.46300       2.0920647     0.050091905
       1856.0000       288.48713       98910.378       13974.059       2.2220000     -0.60425000     -0.32650000       341.64000       2.0686068     0.039439762
       1861.0000       288.50079       98910.419       13950.520       4.0835000      -1.0900000      0.33200000       341.48400       2.0614233     0.035235052
       1866.0000       288.53775       98910.488       13948.439       2.1322500     0.030500000       1.1185000       341.63200       2.0164726     0.034379430
       1871.0000       288.55804       98910.588       13930.400       2.4347500     -0.46875000      0.75475000       341.62900       1.9986552     0.031151767
       1876.0000       288.60755       98911.615       13928.656       3.3590000     -0.41300000      0.25425000       341.59100       2.1571857     0.027265882
       1881.0000       288.61031       98910.264       13904.719       2.7590000     -0.97700010      0.30425000       341.57200       2.2516443     0.040075726
       1886.0000       288.54864       98905.146       13823.582       5.4870000      -1.5575000    -0.011750000       341.40300       2.1449637     0.034185820
       1891.0000       288.54206       98904.486       13813.154       1.9717500     -0.17000000     -0.16250000       341.46800       1.8650527     0.026450295
       1896.0000       288.52988       98905.895       13826.152       3.5830000     -0.64450000      0.85875000       341.49100       2.1371161     0.032042838
       1901.0000       288.54713       98904.888       13857.607       4.0760000     -0.36200000      0.11200000       341.42900       2.1877951     0.031587468
       1906.0000       288.63312       98904.804       13952.033       3.0687500      -1.2730000     -0.12950000       341.46000       2.3276918     0.058223047
       1911.0000       288.66953       98905.852       14019.086       4.0310000     -0.91425000     -0.18475000       341.39200       2.1629222     0.041433216
       1917.0000       288.69928       98904.592       14104.849       3.4780000      -1.5072500     -0.37275000       341.32200       2.1163102     0.029256577
       1922.0000       288.71331       98905.226       14154.581       3.1247500      -1.2592500     -0.38350000       341.41400       2.1162386     0.042018713
       1927.0000       288.71080       98911.335       14216.814       3.4580000      -1.4445000      0.41300000       341.49100       2.2541167     0.033916602
       1932.0000       288.69449       98911.083       14215.071       3.8695000      -1.4130000     -0.24050000       341.44400       2.1354008     0.040948330
       1937.0000       288.66921       98906.159       14167.473       2.6777500     -0.85650000      0.25750000       341.56100       2.1877690     0.039413338
       1942.0000       288.63326       98904.203       14116.218       1.0982500     -0.56500000      0.78200010       341.87800       2.1952003     0.038332443
       1947.0000       288.54768       98899.418       13998.985       2.0077500      -1.4712500     -0.28250000       341.57600       2.2201837     0.041491178
       1952.0000       288.53012       98899.714       13944.690       2.2370000      -2.4165000      0.37625000       341.61000       2.2090712     0.047053270
       1957.0000       288.54273       98905.721       13919.480       1.9715000     -0.11550000      0.81750010       341.62300       2.2455941     0.036670051
       1962.0000       288.54954       98906.156       13875.293       2.4595000      -1.8635000      0.12575000       341.55800       2.1821274     0.035151410
       1967.0000       288.59860       98905.873       13836.112       3.2077500      -1.0217500      0.12700000       341.46900       2.2057883     0.028707368
       1972.0000       288.61251       98905.245       13810.822       3.2297500      -1.2520000     0.078500000       341.49900       2.1379454     0.034443535
       1977.0000       288.59975       98900.293       13764.697       3.5490000     -0.75050000      0.35225000       341.70900       2.0841843     0.033857796
       1982.0000       288.59968       98898.882       13762.402       4.2457500      -1.4542500     -0.64375000       341.42700       2.1596837     0.026453404
       1987.0000       288.60028       98900.541       13809.555       2.7990000      -1.0637500      0.32375000       341.80600       2.2156542     0.041633487
       1992.0000       288.60040       98900.644       13832.495       4.9367500     -0.62200000     -0.20075000       341.42900       2.0400964     0.033875390
       1997.0000       288.59998       98899.046       13862.082       4.1730000      -1.2992500     -0.26850000       341.43600       2.1213283     0.028778135
       2002.0000       288.59998       98900.664       13891.142       3.3955000      -2.2437500     -0.48650000       341.27700       2.0889447     0.037325940
       2008.0000       288.59107       98904.783       13916.616       3.5895000      -1.7070000     0.024750000       341.80400       2.1575614     0.043531817
       2013.0000       288.60991       98906.751       13955.643       5.4785000      -2.0117500     -0.19825000       341.18500       2.1213032     0.043048386
       2018.0000       288.64667       98911.424       14020.514       4.6827500     -0.42600000    -0.064750000       341.29600       2.0102196     0.030674194
       2023.0000       288.66654       98910.667       14043.867       1.1780000      -1.2547500      0.75475000       341.82500       2.2901502     0.047822650
       2028.0000       288.70309       98904.760       14060.614       4.2320000     -0.81025000     -0.11600000       341.43700       2.2651583     0.042622515
       2033.0000       288.71404       98904.624       14065.391       2.7567500      -1.4680000      0.34050000       341.61700       2.1097431     0.023060513
       2038.0000       288.69112       98905.636       14031.495       3.0492500      -1.1725000     -0.22400000       341.47100       2.1543323     0.038242378
       2043.0000       288.70972       98904.688       14037.678       2.0322500      -1.1427500    -0.039000000       341.77600       2.2137115     0.030191861
       2048.0000       288.74490       98905.175       14063.554       2.4485000      -1.4850000     0.010500000       341.92500       1.9037134     0.037819536
       2053.0000       288.76515       98906.195       14070.994       2.1527500     -0.75250010      0.18975000       341.94900       2.1421266     0.029503146
       2058.0000       288.79422       98904.790       14074.077       3.5155000      -2.1615000      0.11750000       341.38900       2.0618938     0.030718308
       2063.0000       288.82466       98905.708       14100.859       2.6582500     -0.53350000      0.31225000       341.78400       2.0267538     0.021728211
       2068.0000       288.83799       98910.757       14117.451       3.2157500     -0.66275000      0.48100000       341.67300       2.0471056     0.030273893
       2073.0000       288.87683       98911.959       14172.058       3.8275000      -1.1815000     0.077500000       341.67100       1.9368856     0.028322782
       2078.0000       288.96680       98910.442       14302.245       3.1477500      -1.6960000     0.042500000       341.52900       2.2601734     0.046663735
       2083.0000       288.96061       98910.501       14308.559       1.6655000      -1.0665000      0.34950000       341.88000       2.1064056     0.029392594
       2088.0000       288.91254       98910.472       14280.086       2.6432500      -1.3532500      0.42950000       341.71400       2.0405780     0.024555382
       2093.0000       288.88315       98910.531       14239.394       3.2560000      -1.2922500     -0.19575000       341.54800       2.0411921     0.030786128
       2099.0000       288.78808       98910.212       14099.725       2.2047500      -1.0982500     -0.14775000       341.75000       2.0839968     0.034464028
       2104.0000       288.81503       98907.311       14089.044       2.6012500     -0.48075000      0.14375000       341.76500       2.1735171     0.047478811
       2109.0000       288.80663       98909.068       14049.179       1.8937500      0.45450000      0.71750000       342.09700       2.0861236     0.028824936
       2114.0000       288.74005       98919.332       13958.282       3.5170000     -0.84350000      0.40425000       341.47200       2.0224620     0.032975892
       2119.0000       288.73792       98921.487       13930.275       2.0365000      -1.9672500     -0.23825000       341.97300       2.1433641     0.026934322
       2124.0000       288.77510       98921.270       13923.833       2.6690000     -0.60900000     -0.29450000       341.63600       2.0131891     0.031016232
       2129.0000       288.79363       98921.544       13927.917       2.1830000      -1.8047500     -0.34475000       341.72200       2.1249691     0.032963086
       2134.0000       288.82447       98919.361       13959.409       2.2175000      -1.4012500     -0.57350000       341.92100       2.0778175     0.023186925
       2139.0000       288.93221       98907.466       14078.363       3.6485000      -1.1157500     -0.29975000       341.81300       2.1252243     0.032898622
       2144.0000       288.88498       98909.935       14050.735       3.1257500      -1.3285000     -0.13750000       341.56900       1.9878104     0.030236371
       2149.0000       288.74434       98920.299       13969.133       2.5517500      0.74450000      0.38350000       341.38900       2.0400741     0.028757011
       2154.0000       288.66090       98925.895       13841.428       4.8267500      -1.3795000      -1.0442500       341.21700       2.0084091     0.032576811
       2159.0000       288.62503       98931.131       13782.770       3.1262500      -1.2327500      0.86025010       341.41600       1.9842456     0.019628817
       2164.0000       288.73008       98934.850       13824.819       4.8090000      0.11625000     -0.40675000       341.38300       1.9397044     0.032782509
       2169.0000       288.76199       98935.961       13822.355       4.1345000     -0.69725000     -0.25025000       341.54500       2.0747981     0.034522128
       2174.0000       288.76927       98935.822       13816.031       4.8725000     0.090000000     -0.33575000       341.26900       2.1404521     0.028431758
       2179.0000       288.75035       98935.420       13821.188       4.6575000      -1.1837500     -0.19600000       341.39000       2.1565793     0.034354754
       2184.0000       288.76012       98936.437       13829.811       2.6697500     -0.21125000     -0.11225000       341.74600       2.1884966     0.050424230
       2190.0000       288.74554       98935.327       13815.944       4.3095000     -0.70675000     -0.45425000       341.40200       2.1994112     0.033098674
       2195.0000       288.81900       98934.498       13880.325       2.8825000     -0.22975000      0.17225000       341.73600       2.1265844     0.030192543
       2200.0000       288.81569       98935.505       13897.034       4.1935000     -0.99775000      0.57950000       341.92400       2.1407864     0.028081928
       2205.0000       288.71702       98931.848       13862.887       3.8920000     -0.57650000     -0.16100000       341.62200       2.0733670     0.033818856
       2210.0000       288.68845       98934.258       13865.432       4.9497500     -0.36325000      0.63200000       341.87100       2.3367130     0.046611806
       2215.0000       288.65367       98949.039       13876.129       3.4190000     -0.66700010     0.043500000       341.57900       2.0003959     0.043125016
       2220.0000       288.63620       98952.694       13874.252       3.3250000     -0.28150000      0.78500000       341.74100       2.1201241     0.030876343
       2225.0000       288.71992       98951.593       13931.181       4.6087500      -1.5255000      0.81575010       341.64400       2.9467753     0.028624105
       2230.0000       288.71609       98951.273       13908.434       3.1677500     -0.89200000     -0.16050000       341.47800       8.0244600     0.046553871
       2235.0000       288.60395       98942.232       13763.967       4.6170000      -1.6585000     -0.31425000       341.40500       5.0823784     0.036463670
       2240.0000       288.58638       98938.378       13721.766       3.9135000      0.46700000      0.69825010       341.79600       2.6946964     0.043795550
       2245.0000       288.58854       98937.420       13695.233       3.8830000    -0.045750000      -1.1297500       341.67500       2.3821850     0.031400669
       2250.0000       288.59079       98939.624       13679.369       3.5652500      0.79075000      0.21200000       341.78100       2.2138004     0.040746691
       2255.0000       288.68061       98950.042       13750.550       4.5762500     -0.28500000     0.050000000       341.33900       2.2363864     0.046190779
       2260.0000       288.71755       98951.820       13786.107       3.8497500     -0.14100000     -0.13525000       341.37800       2.2486610     0.032699541
       2265.0000       288.71445       98951.601       13791.541       4.6592500     -0.25125000     -0.63150000       341.38200       2.0614895     0.039767187
       2270.0000       288.70287       98951.260       13802.691       4.7685000     -0.23325000     -0.10275000       341.45500       1.9349390     0.036921329
       2275.0000       288.66632       98939.458       13828.455       4.2287500      0.48675000      0.16525000       341.67100       3.1563395     0.030740647
       2281.0000       288.64244       98938.268       13837.965       5.4332500      -1.6602500      0.67050000       341.43100       3.3062674     0.032353854
       2286.0000       288.60502       98948.081       13821.628       7.4862500      -1.1685000     -0.23550000       341.08900       4.3259114     0.038442788
       2291.0000       288.58869       98952.105       13820.142       6.0162500     -0.40600000     0.069000010       341.42700       2.4780323     0.031184306
       2296.0000       288.60003       98961.868       13818.486       3.7942500     0.037250000      0.52950000       341.76600       2.1093932     0.038584452
       2301.0000       288.59999       98962.286       13819.077       3.0680000      -1.3260000     0.029500000       341.70800       1.9322701     0.028126426
       2306.0000       288.60022       98952.888       13834.140       6.5687500     -0.97800000     -0.10600000       341.31900       1.8718205     0.030309337
       2311.0000       288.60017       98948.977       13832.658       4.6370000     -0.86475000    -0.060750000       341.14600       2.1114121     0.045200928
       2316.0000       288.59998       98938.664       13816.157       6.9370000     -0.94300000     -0.39325000       341.28900       2.0495792     0.037268944
       2321.0000       288.59998       98938.195       13811.435       4.2277500      0.51700000     -0.41475000       341.36400       3.0094310     0.020878086
       2326.0000       288.58725       98950.505       13793.788       5.7052500       1.1395000      0.36175000       341.51400       6.2608468     0.040094721
       2331.0000       288.60115       98951.809       13801.223       5.7410000     -0.78500000      0.57900010       341.47400       3.1792566     0.019364850
       2336.0000       288.65134       98951.615       13855.069       3.8012500      -1.6452500    -0.071000000       341.62800       2.5747770     0.034751679
       2341.0000       288.65772       98950.885       13855.297       5.3920000     -0.82700000     -0.77500000       341.19900       2.1734261     0.030709071
       2346.0000       288.65715       98941.184       13831.294       3.7365000     -0.43825000      0.16675000       341.45500       2.1680212     0.035793283
       2351.0000       288.65346       98937.942       13820.728       4.5957500     -0.32000000      0.51350000       341.44300       2.1069498     0.029201130
       2356.0000       288.60447       98941.673       13764.032       3.3757500      0.72550000   -0.0042500000       341.52400       2.2424924     0.045008050
       2361.0000       288.58823       98940.286       13755.129       2.5890000     -0.23425000      0.30025000       341.60900       2.1213144     0.041235765
       2366.0000       288.61308       98936.628       13818.595       4.1807500     -0.62450000     -0.35375000       341.42500       2.3639131     0.037142439
       2372.0000       288.59522       98934.281       13806.060       4.9225000      -1.4012500    -0.039000000       341.09300       2.1943854     0.039280200
       2377.0000       288.55706       98930.140       13765.377       4.9390000      -1.9797500    -0.037000000       341.40300       2.1309679     0.035623210
       2382.0000       288.53701       98928.722       13737.652       3.9685000     -0.78700010    -0.097750010       341.27100       2.0662496     0.037916680
       2387.0000       288.50053       98933.759       13663.843       2.9545000      -1.7450000      0.36600000       341.43200       2.1906971     0.041582579
       2392.0000       288.48700       98928.944       13639.080       3.4647500      -1.1815000     -0.13600000       341.37100       2.0601070     0.033217412
       2397.0000       288.51107       98913.186       13661.322       3.3777500     -0.81325010    -0.020500000       341.49900       2.2139383     0.033800596
       2402.0000       288.49500       98913.631       13650.288       2.2715000      -1.5485000    -0.025750000       341.69400       2.2502125     0.033088323
       2407.0000       288.44709       98920.421       13622.262       3.7085000     -0.98650000     -0.26675000       341.55500       2.2199806     0.036694323
       2412.0000       288.44329       98919.466       13626.284       4.3555000      -1.9450000     -0.11025000       341.40300       2.3154579     0.054384308
       2417.0000       288.43225       98927.380       13623.001       4.9157500      -3.3395000     -0.20500000       341.24700       2.0958310     0.052353656
       2422.0000       288.45489       98927.010       13657.044       5.2812500      -1.2017500    -0.022500000       341.37500       2.0216920     0.034625199
       2427.0000       288.55335       98910.343       13760.923       4.8072500     -0.79050000      0.36125000       341.58700       2.0055436     0.041287213
       2432.0000       288.57132       98906.124       13791.503       5.5517500      -1.7205000      0.32450000       341.39700       2.3162386     0.048266947
       2437.0000       288.55713       98910.385       13802.844       4.9367500      -1.9275000    -0.099500010       341.41500       2.1425483     0.032758416
       2442.0000       288.55091       98910.429       13811.225       4.3372500     -0.23675000      0.90150000       341.52900       1.9682290     0.026287979
       2447.0000       288.48914       98910.508       13762.143       4.9985000     -0.23750000     -0.13525000       341.27900       2.0914816     0.034707713
       2452.0000       288.49206       98910.611       13770.854       4.5372500      -1.1147500      0.10000000       341.34900       2.1459482     0.038262685
       2458.0000       288.55532       98911.210       13834.318       4.0192500      -1.5265000      0.37775000       341.50700       1.9852020     0.023242988
       2463.0000       288.55668       98909.366       13834.425       4.2370000     -0.95700000      0.50775000       341.37000       2.2997555     0.066486856
       2468.0000       288.54799       98905.444       13817.937       4.5497500     -0.70575000      0.62575000       341.50700       2.2188893     0.045807257
       2473.0000       288.55814       98903.389       13823.714       4.2447500     -0.46250000    -0.093500000       341.54900       2.2251838     0.031668750
       2478.0000       288.53395       98900.026       13795.869       3.1157500      -1.6810000      0.71675000       341.50800       2.1738258     0.042950591
       2483.0000       288.56123       98898.929       13818.524       3.3710000      0.44725000      0.60825000       341.60400       1.9750130     0.031452952
       2488.0000       288.64845       98900.163       13891.275       5.5422500     -0.49075000      0.11275000       341.39100       2.0358795     0.039103353
       2493.0000       288.67938       98900.151       13936.192       2.6117500      -1.1400000      0.46750000       341.56700       2.0620396     0.033444371
       2498.0000       288.70337       98900.077       13982.068       4.0485000     -0.67925010      0.15775000       341.46500       2.2648180     0.039686030
       2503.0000       288.71462       98900.018       14028.289       4.1672500      0.84000000     -0.70500000       341.58700       2.0226067     0.028659026
       2508.0000       288.70067       98900.250       14081.610       3.0647500       1.6730000       1.3070000       341.46600       2.2551734     0.040192127
       2513.0000       288.70097       98900.283       14114.248       3.5922500      0.38250000      0.17875000       341.69500       2.0701589     0.029272426
       2518.0000       288.71797       98900.360       14159.666       3.8157500     -0.66575000      0.79600010       341.44800       2.1756122     0.036743736
       2523.0000       288.68075       98900.405       14136.163       5.9682500      -1.4730000      -1.4595000       341.15500       2.0893646     0.032302777
       2528.0000       288.59879       98900.393       14055.780       3.0882500       1.0595000      0.28775000       341.69700       2.1273292     0.030874771
       2533.0000       288.57761       98900.440       14017.909       4.8752500      -1.0730000   -0.0070000000       341.13000       2.3846429     0.058043688
       2538.0000       288.53984       98899.720       13953.768       4.9485000      -1.9515000    -0.047000000       341.29300       2.1304535     0.033835439
       2543.0000       288.53825       98901.755       13907.446       3.7960000      -1.6280000     -0.44475000       341.49000       2.0418104     0.031928908
       2549.0000       288.60578       98905.345       13890.707       4.7485000      0.78900000      0.29625000       341.48900       2.1576464     0.032443642
       2554.0000       288.59981       98905.773       13787.164       4.8100000      0.68725000     0.013750000       341.38600       2.1437246     0.039091867
       2559.0000       288.59971       98909.614       13732.713       4.6615000     -0.76475010      0.27450000       341.44700       2.1518909     0.041650792
       2564.0000       288.58490       98916.525       13687.285       6.3742500      -1.2800000     -0.32425000       341.34300       2.0869476     0.047275083
       2569.0000       288.59369       98920.555       13672.861       4.9070000      -1.4420000     0.062750000       341.61500       2.0093357     0.027436377
       2574.0000       288.62993       98927.396       13721.839       5.9380000     -0.35100000     -0.13900000       341.53400       1.9004585     0.017945857
       2579.0000       288.64972       98931.677       13756.582       5.0332500      -1.1570000      0.13775000       341.45500       2.1746526     0.031139633
       2584.0000       288.66951       98933.513       13796.242       4.2985000      -1.8390000      0.90425000       341.63200       2.2883652     0.051192396
       2589.0000       288.69957       98930.400       13839.207       3.7020000      -1.9367500      0.26650000       341.65600       2.1249234     0.038166952
       2594.0000       288.72966       98930.449       13918.348       4.7767500     -0.36525000     -0.45600000       341.35100       2.3388701     0.047272162
       2599.0000       288.75563       98929.600       14023.291       2.4065000      -2.1152500     -0.96725000       341.46500       2.2490147     0.050911643
       2604.0000       288.75426       98933.239       14084.787       3.8820000      -1.1817500     -0.87875000       341.34600       2.0750375     0.041346037
       2609.0000       288.75551       98935.244       14123.593       5.6162500     -0.79575000      -1.0257500       341.39900       2.0729034     0.034868899
       2614.0000       288.69988       98940.412       14066.180       6.3485000     -0.30975000     -0.54375000       341.38300       2.0462355     0.041608698
       2619.0000       288.68764       98941.698       14051.828       6.1107500     -0.38175000      0.19650000       341.44700       2.2098088     0.046253918
       2624.0000       288.70004       98940.512       14053.578       2.4287500      -1.0605000      0.36300000       341.62700       2.1629723     0.040886575
       2629.0000       288.75542       98935.317       14083.986       3.7072500      -1.7130000      0.33775000       341.68500       2.1115726     0.029931082
       2634.0000       288.75401       98933.273       14069.965       3.2525000      -1.2385000    -0.091750000       341.47800       2.2536521     0.048765943
       2640.0000       288.75545       98929.395       14054.846       3.0382500      -2.0382500     -0.20550000       341.49900       2.2333778     0.030636903
       2645.0000       288.69517       98930.339       13963.697       2.8897500      -1.5232500     0.050750000       341.37500       1.9833149     0.035573533
       2650.0000       288.68728       98930.377       13942.329       1.5425000      -1.1615000      0.57300000       341.77500       2.1159846     0.028156602
       2655.0000       288.73450       98933.301       13968.736       1.5427500      -1.1067500      0.96200010       341.80600       2.1790846     0.034584912
       2660.0000       288.75440       98931.128       13984.989       3.0995000    -0.098750000     -0.86925010       341.57100       2.1993762     0.029432793
       2665.0000       288.79024       98923.573       14047.076       3.6582500     -0.40975000      0.61550000       341.69200       2.1693620     0.031527881
       2670.0000       288.80880       98919.624       14082.933       2.9560000      -2.1370000     0.083000000       341.50100       2.2277621     0.027239218
       2675.0000       288.78575       98912.380       14078.340       2.7432500      -1.7850000      0.50800000       341.64400       2.1311455     0.034176276
       2680.0000       288.79720       98908.718       14109.936       4.0005000     -0.68275000      0.19225000       341.51500       2.1748482     0.032051030
       2685.0000       288.84827       98910.435       14177.144       3.3947500     -0.29750000     -0.40400000       341.58300       2.2178043     0.032698291
       2690.0000       288.85724       98910.511       14211.989       2.7512500     -0.85825000      0.31800000       341.69300       2.1236815     0.047943360
       2695.0000       288.84145       98910.177       14242.146       2.8100000     -0.80775000     -0.22300000       341.76900       2.1879740     0.033323997
       2700.0000       288.85130       98910.118       14276.844       3.7605000     -0.83550010     0.058750000       341.67200       2.3577295     0.042755660
       2705.0000       288.82957       98910.406       14277.911       2.4682500     -0.53675000     -0.49025000       341.57900       2.0208600     0.029766515
       2710.0000       288.84201       98910.466       14303.236       5.8227500      -1.7705000     -0.18825000       341.23300       2.0477954     0.036511105
       2715.0000       288.95273       98911.827       14402.238       3.2445000      -1.7630000      0.23625000       341.67400       2.3826306     0.054680016
       2720.0000       288.96821       98910.698       14414.736       2.8055000     -0.98850010    -0.098000000       341.59100       2.1930638     0.039440220
       2725.0000       288.93574       98905.298       14396.539       2.8607500     -0.98825000      0.13575000       341.56800       2.1478409     0.033385533
       2731.0000       288.89353       98904.342       14332.993       3.0052500     -0.78150000     -0.33525000       341.70300       2.1370405     0.030137049
       2736.0000       288.75799       98904.396       14180.361       3.5570000      -1.6177500     0.080250000       341.61000       2.1148856     0.035135057
       2741.0000       288.71884       98904.713       14085.180       2.3855000      -1.5982500     0.038250000       341.43100       2.3253096     0.052679139
       2746.0000       288.74325       98909.873       13998.342       2.7300000      -3.0255000      0.27025000       341.52200       2.1419887     0.045151753
       2751.0000       288.74706       98911.481       13916.819       1.6065000      -1.0555000     0.080000010       341.61400       2.2163668     0.034953992
       2756.0000       288.79514       98911.639       13836.096       3.3000000      -1.3232500     0.091250000       341.29900       2.1831927     0.035857804
       2761.0000       288.81150       98910.286       13788.199       3.0600000      -1.7365000    -0.085750010       341.43200       2.1952562     0.038871256
