MIRICO/SHELL project - Processed LDS file generated on
Wed Jul 19 14:01:33 2017
Time stamp for record start
05/12/2017  09:48: 4.0000
Nb of points in the record
         562
Beam position index
       1.0000000
Beam angle (degrees)
      -18.455000
Open Path length (m)
       34.890000
****************** Temporal data record ************************
Elapsedtime_sec Temp_K Press_Pa Humidity_ppmv WindX_m/s WindY_m/s WindZ_m/s Speedofsound_m/s CH4vmr_ppmv CH4vmrerror_ppmv  
      0.00000000       286.75405       98768.849       15139.682       3.2712500       1.7285000     -0.16200000       340.56400       2.1281841     0.015331863
       5.0000131       286.73407       98767.364       15126.824       2.0817500      0.56975000      0.65850000       340.68800       2.1452945     0.012090007
       9.9999860       286.68783       98767.870       15089.638       2.8282500       1.8157500     -0.13500000       340.85100       2.2608821     0.015803237
       14.999999       286.69572       98771.543       15083.413       2.9512500      0.73700000     0.049500000       341.05100       2.1364985     0.012547839
       20.000012       286.72846       98783.507       15078.151       2.9762500      0.77825000   -0.0052500000       340.83800       2.0790471     0.012523155
       24.999985       286.78634       98791.553       15127.561       4.5562500       1.5467500     -0.79150000       340.84400       2.2305224     0.012057010
       29.999998       286.91509       98799.127       15237.103       2.4182500     -0.30675000      0.11250000       340.84000       2.1969165     0.013613213
       35.000011       286.92937       98806.140       15263.081       3.7195000      0.94900010     -0.32700000       340.94800       2.1065586     0.033858809
       41.000019       286.90594       98816.308       15290.746       4.2645000       2.2630000     -0.45425000       340.67600       2.1838718     0.014277022
       45.999992       286.90464       98819.972       15323.427       4.1922500    -0.026250000     -0.46000000       340.63500       2.1238846     0.017217023
       51.000005       286.83704       98821.684       15295.289       3.8142500      0.76025000      0.11575000       340.91700       2.2732848     0.013540370
       56.000018       286.84035       98820.449       15335.083       4.7152500      0.87300000     -0.59825000       340.79200       2.2165890     0.014499497
       60.999991       286.91213       98816.457       15454.701       3.4317500       1.1317500     -0.62275000       340.98600       2.2122128     0.011789104
       66.000004       286.83988       98807.067       15414.229       2.5412500       1.1460000      0.27700000       341.09900       2.2628307     0.017008217
       71.000017       286.83694       98799.987       15398.128       5.1070000       1.1220000      0.45425000       340.70900       2.0387278     0.017190176
       75.999990       286.84542       98793.259       15316.305       3.1905000     -0.59450000     -0.11400000       340.89000       2.1624529     0.012451961
       81.000003       286.88186       98785.377       15297.540       3.9512500      0.15825000     -0.46950000       340.61900       2.1160369     0.016017186
       86.000016       287.04477       98772.684       15360.120       3.0030000       1.3967500     -0.12550000       341.05900       2.1807681     0.011210561
       90.999989       287.11794       98768.279       15388.082       3.3825000      0.69825010    -0.012750000       340.74400       2.3266150     0.019270179
       96.000002       287.15420       98767.539       15416.877       2.2467500       1.0055000     -0.37475000       341.03400       2.1265577     0.012014133
       101.00002       287.17686       98768.248       15468.571       2.2665000      0.40325000     -0.38450000       341.13700       2.0836900     0.016553694
       105.99999       287.13101       98772.722       15501.577       2.5890000       1.1297500     -0.11400000       341.05000       2.1676573     0.034766178
       111.00000       286.99469       98785.115       15509.844       2.8895000      0.93425010      0.12700000       340.85800       2.2280298     0.012421381
       116.00001       286.94491       98794.997       15566.538       2.0380000      0.47700000      0.27275000       341.09200       2.1391851     0.011638186
       120.99999       286.89328       98801.245       15563.191       1.5695000    -0.051250000      0.28900000       341.22700       2.1635747     0.011742144
       126.00000       286.87027       98805.914       15486.754       2.6305000      0.52575000     0.035750000       340.81400       2.2510477     0.014905152
       132.00001       286.84669       98811.924       15418.831       3.8115000       1.0430000     -0.17575000       340.53600       2.2379226     0.012491342
       136.99998       286.83901       98813.757       15330.103       3.0057500       1.0052500     -0.26800000       340.88000       2.2395327     0.014249281
       141.99999       286.79756       98815.844       15250.814       2.3032500      0.78850000      0.24000000       341.06900       2.1247713     0.031586973
       147.00001       286.73172       98820.731       15190.867       3.2675000       1.5680000     -0.41375000       340.79200       2.1104916     0.013980452
       151.99998       286.69147       98821.504       15121.935       2.0000000      0.45825000   -0.0047500000       340.95800       2.2704219     0.012767676
       156.99999       286.63306       98819.610       15048.156       2.6307500      0.68825000    -0.061500000       341.16800       2.1173047     0.014501355
       162.00001       286.58412       98815.365       14962.726       1.8857500      0.30675000     -0.41100000       341.11300       2.1136860     0.012332547
       166.99998       286.53765       98805.729       14820.712       2.2872500       2.4202500     0.074750010       340.83800       2.2420942     0.016296764
       171.99999       286.54049       98798.737       14768.906       2.8642500       1.8895000     -0.17675000       340.88000       2.1877048     0.013704618
       177.00001       286.57794       98788.733       14750.549       2.5805000      0.93500010       1.1002500       341.02000       2.1215933     0.014894276
       182.00002       286.59906       98782.965       14750.564       3.8202500       2.3560000     -0.27950000       340.71500       1.9786432     0.031979866
       186.99999       286.68029       98781.231       14828.373       2.6545000       2.3712500     0.022750000       340.53200       2.1405821     0.012806304
       192.00000       286.71761       98779.370       14899.276       3.2277500       1.9977500     0.048500000       340.79300       2.1773098     0.014964157
       197.00002       286.69964       98778.969       14990.350       2.5012500       1.6362500      0.55200000       340.93200       2.1430282     0.011539763
       201.99999       286.69955       98780.170       15049.464       1.8437500      0.56400000     0.027000000       341.01100       2.2414103     0.020506380
       207.00000       286.67190       98780.914       15090.463       3.1807500      0.95375010      0.58375000       341.12100       2.2092246     0.012426461
       212.00002       286.69408       98785.139       15160.648       3.6505000       1.7520000     -0.23250000       340.50100       2.0365489     0.019980769
       216.99999       286.78243       98796.208       15258.900       3.3372500       1.9677500      0.35725000       340.89100       2.1763041     0.012588185
       223.00000       286.81508       98803.041       15298.542       2.9537500      0.56100000     0.083000000       340.83000       2.1441198     0.012821205
       228.00001       286.83972       98812.184       15327.095       2.8522500       1.1742500     -0.16000000       340.80100       2.1786311     0.012764254
       232.99998       286.86578       98812.690       15344.618       2.1075000      0.78275000     0.066250000       341.25900       2.2616795     0.015460955
       238.00000       286.84393       98800.198       15305.068       1.8870000     -0.18400000     -0.16025000       340.72800       2.3011490     0.015536518
       243.00001       286.84790       98799.018       15266.363       2.1845000      0.49800000     -0.10750000       341.30300       2.1357287     0.013907226
       247.99998       286.89526       98799.133       15222.903       3.2377500      0.40125000     -0.47375000       340.76800       2.2281372     0.012709300
       253.00000       286.91170       98799.942       15206.099       3.3132500      0.63425000      0.57225000       341.05000       1.8394788     0.053186740
       258.00001       286.92603       98811.982       15180.958       2.0882500     0.047750000     0.067750010       341.11100       2.3897893     0.035550507
       262.99998       286.89863       98812.482       15149.855       2.1060000       1.0040000     -0.45850000       341.06100       2.4176670     0.046852766
       267.99999       286.82419       98803.975       15149.316       2.7847500       1.2507500      0.10050000       340.98300       2.1381330     0.015017923
       273.00001       286.78449       98798.634       15138.791       2.2170000       1.6652500      0.15100000       341.07900       1.9515888     0.025486886
       277.99998       286.71050       98790.402       15085.020       3.1487500       1.8877500     -0.19725000       340.96400       2.0753032     0.020003149
       282.99999       286.67817       98782.416       15070.002       4.1047500       1.3850000     -0.37200000       340.99400       2.0356725     0.029287068
       288.00001       286.72519       98773.280       15125.294       4.5952500      0.18400000     -0.38150000       340.93800       2.2461398     0.011591651
       292.99998       286.69736       98767.623       15102.034       2.7865000       1.1717500      0.14825000       341.00800       2.0435449     0.021610506
       297.99999       286.61018       98758.575       15031.395       4.1812500       2.1665000      0.11150000       340.66600       2.2153015     0.013960423
       303.00001       286.58364       98757.967       14987.083       2.5237500      0.29925000      0.24100000       341.15200       2.2360383     0.012386972
       308.00002       286.53509       98766.675       14894.494       2.6885000     -0.15850000      0.19850000       340.87200       2.2652320     0.016368957
       313.99999       286.54118       98773.274       14848.949       3.8945000       1.3072500     -0.41575000       340.72400       2.0780582     0.021378486
       319.00000       286.62912       98784.294       14854.474       3.7547500       1.2415000     -0.21275000       340.45700       2.0994201     0.016223086
       324.00001       286.67933       98789.083       14863.421       2.8827500      0.93050000     -0.44125000       340.57400       2.1258354     0.014862444
       328.99999       286.74128       98788.262       14893.361       3.0207500      0.79475000      0.15100000       340.82600       2.2185802     0.010565037
       334.00000       286.77523       98793.060       14917.343       2.5797500      0.59300010     0.080250000       340.85300       2.1833311     0.011461377
       339.00001       286.79905       98798.895       14940.960       1.9922500     0.024750000      0.20425000       340.96100       2.1253434     0.013799294
       343.99998       286.81272       98802.929       14995.685       2.0747500    -0.016000000      0.30325000       341.02900       2.1557884     0.012464965
       349.00000       286.81101       98810.131       15089.972       2.4340000     -0.61375000     -0.34675000       340.76800       2.1616619     0.011680588
       354.00001       286.79469       98812.817       15124.574       2.8152500     -0.18225000    -0.075000000       340.54000       2.1787117     0.015386623
       358.99998       286.75792       98810.429       15173.582       2.2560000     0.054500000     0.087000000       340.98000       2.0175403     0.019204125
       364.00000       286.73801       98810.489       15175.462       2.8487500     -0.22300000    -0.030750000       340.59000       2.1381363     0.016213040
       369.00001       286.70126       98812.730       15104.997       2.4147500    -0.049750000      0.17525000       340.74200       2.2391209     0.013012471
       373.99998       286.68767       98809.470       15065.204       2.6387500     0.082250010      0.29875000       340.88000       2.2151520     0.011729454
       379.00000       286.70020       98802.015       15028.737       2.3550000     0.022750000     -0.16375000       340.78600       2.1877435    0.0098172291
       384.00001       286.70025       98798.044       14982.394       1.8395000      0.41600000     -0.24650000       340.87100       2.1485997     0.016663897
       388.99998       286.71165       98791.332       14938.672       1.8985000     -0.72000000      0.17975000       341.20900       2.1418709     0.013124980
       394.00000       286.69584       98786.882       14866.651       3.4190000     -0.75375000     0.067250010       340.85100       2.1239651     0.013425130
       399.00001       286.64668       98788.418       14743.727       2.5860000     0.055750000     -0.10250000       341.10200       2.1829674     0.012026356
       405.00002       286.64375       98781.911       14690.984       2.5770000     -0.25775000     0.098250000       340.93900       2.2504551     0.016813335
       409.99999       286.63288       98770.800       14639.918       2.2190000     -0.25150000     -0.22725000       340.80500       2.1843990     0.012744136
       415.00000       286.66098       98765.577       14659.635       2.1755000     -0.29950000      0.39025000       340.97200       2.1368580     0.011974565
       420.00002       286.75727       98757.788       14764.722       2.4047500   -0.0077500000     -0.28650000       340.64700       2.1472330     0.014070462
       424.99999       286.76963       98759.211       14827.623       3.8782500     0.035000000      0.44725000       340.83200       2.3173558     0.017201707
       430.00000       286.76532       98769.627       14916.930       2.0937500      0.54350000   -0.0092500000       340.79900       2.1513067     0.013257879
       435.00001       286.73793       98773.637       14958.499       3.8202500     -0.30775000      0.36550000       340.94800       2.2596780     0.017120754
       439.99999       286.65030       98781.016       14983.897       3.1525000      0.78625010      0.26075000       340.66100       2.0627177     0.072175120
       445.00000       286.61908       98783.255       14990.809       3.7167500       1.6912500     -0.44325000       340.77100       2.0547781     0.016461830
       450.00001       286.59719       98777.596       14972.064       2.2740000       1.0330000      0.23600000       340.83900       2.1556556     0.011745701
       454.99999       286.58587       98783.150       14943.734       3.1845000      0.54950000      0.15850000       340.98600       2.1688188     0.012545048
       460.00000       286.59976       98793.707       14911.270       3.1542500      0.18125000      0.41125000       340.87500       2.0935828     0.014454410
       465.00001       286.59958       98799.687       14841.217       2.9627500      0.77525000     -0.47975000       340.94300       2.2375111     0.022187325
       469.99999       286.59103       98810.192       14721.748       2.9935000       1.6627500     -0.20000000       340.67300       2.1501175     0.010695573
       475.00000       286.60977       98815.538       14659.988       5.7547500       1.2152500     0.048000000       340.65400       2.0163836     0.016577774
       480.00001       286.64723       98815.766       14586.603       3.8762500      0.23825000    -0.097750010       340.64800       2.1248570     0.014732024
       484.99998       286.66745       98815.869       14557.706       3.2877500      0.93350010     0.042250000       340.80100       2.2095956     0.011610990
       490.99999       286.70660       98815.204       14578.985       2.6042500       1.5402500      0.58500000       340.77600       2.2075757     0.012052096
       496.00001       286.71522       98816.152       14594.278       2.3277500     -0.17400000      0.27075000       341.11800       2.0611785     0.017914194
       501.00002       286.69954       98815.192       14614.577       2.9550000       1.1122500    -0.056000000       340.74900       2.2107320     0.012805138
       505.99999       286.69923       98814.174       14662.231       2.7327500      0.19800000     -0.17400000       340.90200       2.1433236     0.011039749
       511.00000       286.69999       98816.942       14738.310       2.9455000       1.0525000    -0.027000000       340.84800       2.0685475     0.017381553
       516.00002       286.69966       98805.648       14815.567       2.8460000      0.78500000      0.36375000       340.79500       1.8593051     0.046746149
       520.99999       286.69957       98799.446       14864.098       4.0857500     -0.23825000      0.23125000       340.77500       2.2116038     0.010604075
       526.00000       286.70032       98794.620       14888.629       2.6537500     -0.33675000     -0.12025000       340.77900       2.1571866     0.012860452
       531.00002       286.70029       98789.501       14903.476       1.5582500     -0.32150000      0.53700000       340.98000       2.1649264     0.010996008
       535.99999       286.70001       98790.356       14891.077       1.9200000     -0.66450010     0.023500000       340.95700       2.1637149     0.012884519
       541.00000       286.70001       98786.684       14882.431       3.3565000      0.54775010     0.097250010       340.92700       2.0540087     0.018801997
       546.00002       286.70001       98780.540       14870.176       3.8022500      0.96375010    -0.064250000       340.44100       2.1888291     0.013270977
       550.99999       286.69954       98769.706       14854.821       3.0175000      0.88225010      0.25950000       340.68100       2.0618242     0.019828648
       556.00000       286.69923       98764.710       14825.057       3.6915000      0.52650000     -0.19100000       340.73100       2.2333242     0.014663429
       561.00001       286.69999       98757.674       14788.635       3.2487500      0.73475000     -0.10675000       340.79200       2.0203197     0.019334777
       565.99999       286.68516       98766.356       14713.432       3.5565000      0.60400000     -0.59550010       340.53500       2.2663503     0.012355270
       571.00000       286.69372       98770.400       14695.877       3.4897500    -0.066500000    -0.097000000       340.61600       2.3882517     0.023341018
       576.00001       286.73036       98775.705       14736.685       3.5727500     -0.57000010     -0.26025000       340.55600       2.1052613     0.012793580
       581.99998       286.75421       98781.538       14768.758       3.3385000    0.0062500000      0.25575000       340.61300       2.2432826     0.011590344
       586.99999       286.79009       98780.649       14840.252       2.0340000      0.30625000     -0.38275000       340.82000       2.2163970     0.011330233
       592.00001       286.80846       98784.906       14886.966       1.4095000      0.66050000      0.36300000       340.96200       2.2043708     0.010559176
       596.99998       286.78609       98796.198       14892.737       2.9960000      0.78375010     0.090750000       340.94300       2.1371977     0.013288020
       601.99999       286.79761       98802.174       14931.025       3.9192500       2.2880000     -0.45625000       340.56800       2.1283981     0.016048226
       607.00001       286.83504       98806.926       14995.823       3.3020000      0.15650000     -0.64550000       340.85900       2.3691252     0.031779038
       611.99998       286.85531       98811.785       15044.748       3.3715000     -0.85575000      0.21700000       340.83300       1.9244121     0.048203026
       616.99999       286.89081       98815.024       15112.951       3.4720000      0.39100000     0.037500000       340.83200       2.2122384    0.0095429953
       622.00001       286.90928       98815.854       15155.234       2.5080000      0.27875000      0.11200000       340.98900       2.0536080     0.031802143
       627.00002       286.88565       98816.093       15163.842       3.3630000      0.72075000     0.033750000       340.80800       1.9463247     0.018768278
       631.99999       286.89669       98816.054       15184.956       3.3900000      0.17675000     -0.82400010       340.84500       2.2444488     0.010670516
       637.00000       286.94799       98809.802       15214.825       2.4775000      0.46175000      0.19350000       340.80500       2.1788821     0.012691106
       642.00002       286.95657       98809.065       15220.489       1.7780000     -0.60725000     0.058500000       340.84700       2.0912100     0.014110616
       646.99999       286.96986       98813.739       15230.455       2.9970000      0.11600000    -0.094250000       340.87600       2.1983094     0.011246611
       652.00000       286.95745       98815.792       15211.187       2.8752500    -0.017250000     0.016500000       340.77400       2.0529197     0.025161324
       657.00002       286.90364       98820.709       15174.362       2.2322500     -0.22350000    -0.052000000       340.91900       2.1455198     0.021523762
       661.99999       286.84236       98821.436       15101.767       3.9105000      0.54550000     -0.67300000       340.68600       2.5496204     0.011851905
       667.00000       286.72736       98816.696       14951.216       4.3620000     -0.61150000     -0.33250000       340.55100       2.7167055     0.012171683
       673.00001       286.67405       98814.231       14854.737       3.7107500      0.24475000      0.46000000       340.76800       3.4064612     0.021878611
       677.99998       286.66035       98813.458       14777.934       3.8052500    0.0040000000      0.13225000       340.71700       2.6714053     0.032458903
       683.00000       286.63433       98809.048       14713.776       4.7402500     -0.58050000     -0.34250000       340.49700       2.2175452     0.018236581
       688.00001       286.65703       98802.707       14699.420       4.0317500     -0.29250000      0.45900000       340.67300       2.1521297     0.014470022
       692.99998       286.65353       98798.718       14674.348       4.0077500      0.18250000     -0.48150000       340.42600       2.1154513     0.014753459
       698.00000       286.57917       98792.335       14599.888       3.6962500     -0.37150000      0.25375000       340.69200       2.0950164     0.014036335
       703.00001       286.59014       98787.636       14608.114       2.3637500      0.30750000      0.49850000       340.76300       2.7466778     0.013396220
       707.99998       286.66388       98786.581       14674.975       3.1557500     -0.46250000     -0.26500000       340.71200       5.1020490     0.015717296
       713.00000       286.71743       98784.625       14746.134       4.0830000     -0.17750000     -0.86625000       340.44300       5.4102571     0.017634653
       718.00001       286.84053       98780.742       14885.742       2.7997500     -0.35175000    -0.019000000       340.60500       3.8282727     0.014594538
       722.99998       286.87919       98779.090       14980.527       3.4985000    -0.038750000    -0.099000010       340.55400       3.8881047     0.011646884
       727.99999       286.84423       98780.315       15070.121       3.8130000      0.61300000     -0.44725000       340.49000       6.8312965     0.014442362
       733.00001       286.85417       98780.355       15144.471       4.3760000      0.13900000     -0.24225000       340.46800       5.6991678     0.022512280
       737.99998       286.83088       98779.108       15204.545       2.9492500     -0.13975000     0.013500000       340.64800       4.8008961     0.012393586
       742.99999       286.84845       98780.562       15248.313       3.2757500     -0.82400010    -0.051000000       340.49800       3.3857053     0.016613525
       748.00001       286.97268       98785.402       15312.612       2.6117500     0.086750000     -0.28650000       340.61400       2.9060289     0.012544406
       752.99998       286.96862       98786.041       15296.289       1.4855000      0.33900000      0.14900000       340.70900       2.3307826     0.011751974
       757.99999       286.88077       98781.877       15220.745       2.9302500     -0.55475000     -0.15025000       340.65600       4.4141461     0.014494085
       764.00000       286.82708       98786.531       15118.514       3.3512500      0.17400000     -0.12700000       340.73200       3.2061970     0.015116706
       769.00001       286.69011       98792.766       14932.941       2.3315000      0.24250000   -0.0017500000       340.74400       3.1753048     0.012606190
       773.99999       286.66582       98797.447       14851.143       2.1350000     -0.17425000      0.23900000       340.94800       6.0000172     0.020901662
       779.00000       286.74221       98808.943       14800.552       2.5022500     -0.75750010     0.076500010       340.97300       3.3955993     0.017992448
       784.00001       286.76240       98814.767       14765.769       2.7700000      0.65225010      0.80525000       340.76300       3.4915424     0.012570269
       788.99999       286.81049       98815.539       14793.566       3.2090000      0.55175000     -0.16800000       340.65500       4.8894262     0.038035742
       794.00000       286.80809       98815.917       14782.253       2.1737500      0.67050000      0.15925000       340.84500       5.3625975     0.019381776
       799.00001       286.74645       98816.227       14736.573       3.8732500       2.2640000     -0.38150000       340.61300       5.5760160     0.030902264
       803.99998       286.74269       98815.674       14756.249       2.6670000       1.3622500     -0.27475000       340.78800       5.1182670     0.016207191
       809.00000       286.75417       98809.121       14811.608       2.9375000       1.0155000      0.43550000       340.88600       7.0837552     0.015701617
       814.00001       286.74433       98809.314       14846.143       3.9327500       1.0770000     0.065000010       340.79100       5.4714247     0.019764965
       818.99998       286.74631       98817.988       14920.181       3.4140000      0.76125000     -0.46925000       340.79800       4.2688996     0.019562731
       824.00000       286.75622       98815.076       14963.938       3.4375000      0.29800000      0.12225000       340.59000       3.9117247     0.013412269
       829.00001       286.74325       98805.367       14980.343       3.1140000      0.58575000    0.0025000000       340.63000       4.8323063     0.016123072
       833.99998       286.74948       98803.991       14994.007       3.6400000     -0.24725000     -0.14625000       340.60300       3.1091473     0.011501127
       839.00000       286.81041       98797.891       15026.265       3.2160000      -1.3975000     -0.14600000       340.56500       3.3606107     0.012187880
       844.00001       286.80820       98799.350       15009.804       3.1390000      -1.7072500     -0.36175000       340.68800       3.9735844     0.017468535
       848.99998       286.73584       98817.726       14920.906       3.0117500     -0.77075000    -0.013250000       340.59000       3.3093713     0.012867455
       854.99999       286.75380       98816.821       14912.671       2.3790000     -0.67100000      0.19100000       340.54000       2.4566762     0.012044190
       860.00000       286.78760       98808.046       14921.245       2.6165000     -0.75650010      0.14200000       340.66700       2.2393256     0.011913299
       865.00002       286.81706       98801.194       14925.275       2.6862500     -0.46300000      0.47425000       340.79400       3.0227921     0.013848711
       869.99999       286.89690       98786.576       14967.258       1.9205000      0.26100000      0.42700000       340.97100       3.0692668     0.012551708
       875.00000       286.93854       98777.359       14995.639       3.2522500      0.22875000     -0.17025000       340.60700       4.6029668     0.034870715
       880.00001       286.95566       98768.843       15007.849       4.1122500      0.58650000     0.019750000       340.43700       6.0249346     0.015723630
       884.99999       286.95700       98767.467       15013.253       3.4002500     -0.32050000      0.53850000       340.88900       3.3165306     0.012215058
       890.00000       286.94817       98768.037       15026.716       3.9442500     -0.31325000     -0.36125000       340.46500       3.3083384     0.014755143
       895.00001       286.95813       98771.683       15050.542       4.6340000      0.57425000    -0.012000000       340.59400       6.4950580     0.015199946
       899.99999       286.93400       98785.634       15035.630       3.2950000      0.61300000      0.20375000       340.69400       3.4884829     0.018161932
       905.00000       286.96100       98789.927       15093.338       3.5795000       2.4542500     -0.32350000       340.56100       3.4479736     0.014756950
       910.00001       287.06770       98791.467       15247.228       2.6705000       1.3542500     -0.12150000       340.67200       5.3735078     0.020387766
       914.99999       287.06149       98790.649       15271.407       3.2075000      0.89550010     -0.41825000       340.69400       7.6015245     0.017529848
       920.00000       287.00238       98783.001       15259.047       2.0347500       1.6757500      0.16550000       340.67700       4.3232437     0.019101888
       925.00001       286.99278       98786.639       15262.227       2.7812500       1.0285000     0.015500000       340.73400       4.5867279     0.013158607
       929.99998       286.93051       98793.014       15188.582       1.9087500    -0.091500010     0.072000000       340.98500       4.3082015     0.012675779
       935.00000       286.94606       98799.711       15189.491       2.7557500      0.25600000     -0.27900000       340.88300       3.3965046     0.016032017
       940.00001       287.04917       98816.899       15259.354       2.3977500      0.26550000      0.22050000       341.00900       4.3398385     0.018752781
       946.00002       287.08492       98820.593       15273.052       3.9737500     -0.14075000     -0.14750000       340.59600       3.4759198     0.013501950
       950.99999       287.11344       98815.534       15277.311       2.5055000      0.48050000     -0.17725000       340.87700       3.5492782     0.013614966
       956.00000       287.10059       98816.561       15248.014       2.5650000      0.88150010      0.18000000       340.81400       4.5911253     0.019260156
       961.00002       287.03872       98814.755       15179.296       3.1277500      -1.3065000     -0.47000000       340.94600       3.7281627     0.013099103
       965.99999       287.07592       98818.790       15194.336       2.1702500      0.66800000     -0.12000000       340.79700       7.3377216     0.023103634
       971.00000       287.09495       98820.934       15205.451       3.7367500      0.87150000     -0.20250000       340.53800       5.1527328     0.025298106
       976.00002       287.15609       98820.366       15273.056       2.2882500      0.49850000      0.58625000       340.83400       4.1398033     0.025278815
       980.99999       287.20691       98820.401       15328.896       3.9742500      0.51925000     -0.11450000       340.66300       6.5865721     0.015967551
       986.00000       287.21468       98821.802       15342.772       3.2552500      0.93850000   -0.0057500000       340.77900       5.5367485     0.016821500
       991.00002       287.24292       98820.955       15389.146       1.9712500      0.14000000      0.18600000       340.77000       4.2489265     0.038229790
       995.99999       287.28339       98818.901       15454.481       2.2342500      0.97225000     0.047250000       340.72300       6.1039796     0.036185590
       1001.0000       287.34825       98815.668       15540.044       2.3355000      0.59900000      0.12125000       340.80500       4.4499598     0.015664715
       1006.0000       287.39840       98813.733       15646.783       1.8072500      0.43050000    -0.088750000       340.80400       4.9171311     0.029920804
       1011.0000       287.46221       98809.852       15794.510       1.7780000      0.29925000     0.046000000       340.98800       4.0430738     0.015492516
       1016.0000       287.43955       98813.210       15878.581       1.9665000      0.81300000     -0.39125000       340.87200       4.1227589     0.013541074
       1021.0000       287.44937       98811.484       15944.197       1.8080000      0.79800000     0.040750000       340.94600       3.9524623     0.012675747
       1026.0000       287.47498       98805.764       15961.830       1.6627500      0.48150000      0.23900000       340.89800       3.4405115     0.014989822
       1031.0000       287.45648       98800.926       15963.715       1.9947500     -0.32875000      0.38025000       341.18200       3.8612089     0.012464519
       1037.0000       287.45329       98787.402       15985.442       2.2765000    -0.097000000    -0.095000010       341.12300       3.6105324     0.012626866
       1042.0000       287.40895       98782.840       15933.804       4.2730000       1.5167500      -1.3802500       340.50500       3.3110008     0.012851274
       1047.0000       287.25216       98788.861       15801.186       2.6372500       1.2397500     -0.64750000       340.57100       3.3856108     0.014495983
       1052.0000       287.17438       98785.530       15689.612       3.4122500      0.87550000      0.56875000       340.82100       5.8232539     0.014461983
       1057.0000       287.11895       98775.971       15516.842       2.2102500     -0.50075000      0.60075000       340.87600       4.8301163     0.014186322
       1062.0000       287.08103       98774.009       15392.749       2.4360000       1.0392500      0.24400000       340.89000       3.5964455     0.014270414
       1067.0000       287.14190       98769.850       15317.729       1.8780000      0.70700000      0.45975000       341.11800       4.1760434     0.012822190
       1072.0000       287.10765       98768.209       15218.222       2.5242500      0.16275000      0.19225000       340.85200       5.3145013     0.019206563
       1077.0000       286.99817       98778.347       15101.247       3.3810000    -0.025500000      0.27450000       340.85200       7.2635870     0.016488766
       1082.0000       286.93868       98782.062       15025.113       3.1417500       1.0965000      0.13650000       340.73300       4.6099827     0.013332784
       1087.0000       286.81481       98780.339       14933.860       2.3355000      0.84000000     -0.25350000       340.78200       5.6023632     0.014118504
       1092.0000       286.77017       98780.377       14898.792       4.2750000       1.8132500     0.010250000       340.66600       4.7825379     0.013814800
       1097.0000       286.83415       98780.276       14947.819       3.8950000     0.011750000     -0.29875000       340.77800       7.3535901     0.019921263
       1102.0000       286.85444       98780.314       14966.609       2.4215000      0.56325000    -0.021750000       340.97700       3.3601306     0.020228642
       1107.0000       286.89043       98778.863       15007.636       2.6860000     -0.63500010      0.37000000       340.91700       4.1368915     0.014254526
       1112.0000       286.90950       98779.984       15031.498       4.2545000       1.1525000     -0.43825000       340.60900       3.2509601     0.023140838
       1117.0000       286.88602       98780.881       15008.409       3.1365000       1.0307500    -0.073250000       340.92900       3.9616871     0.014774969
       1123.0000       286.90119       98786.224       15042.191       2.6315000      0.44225000    -0.074750010       340.97400       5.2243874     0.016061378
       1128.0000       286.92395       98797.247       15099.561       2.8975000      0.80425010      0.35900000       340.93900       3.5652266     0.013523005
       1133.0000       286.95795       98802.860       15149.477       2.0142500      0.55975000      0.38475000       340.93500       4.4392998     0.016479151
       1138.0000       287.03263       98809.148       15241.946       2.4042500      0.74825000     -0.19975000       340.86300       4.2538730     0.012685067
       1143.0000       287.06898       98812.406       15292.853       3.0042500      0.68925010      0.58400010       340.80700       5.1521574     0.020630367
       1148.0000       287.12084       98810.173       15338.485       3.8137500      0.50625000    -0.077500000       340.86100       3.9055630     0.012852836
       1153.0000       287.10987       98810.154       15335.925       2.4270000       1.3190000     0.050500000       341.19600       3.2829758     0.012886699
       1158.0000       286.99822       98810.377       15270.974       3.0830000       1.2600000      0.14725000       341.00100       5.2077400     0.015934388
       1163.0000       286.98627       98810.395       15248.079       3.2795000       1.1837500     -0.33675000       340.70500       4.1691936     0.029547595
       1168.0000       286.98609       98810.345       15210.201       2.7315000      0.28375000     -0.46350000       340.65600       5.1129275     0.014341797
       1173.0000       286.99347       98810.363       15174.553       2.6952500    0.0060000000     0.036250000       340.70300       3.7865547     0.015012203
       1178.0000       287.09013       98808.939       15168.334       2.6725000       1.1930000     -0.24400000       340.72800       2.8266900     0.014227903
       1183.0000       287.12253       98810.313       15145.647       2.5292500       1.2355000      0.14700000       340.97000       3.0516033     0.011741708
       1188.0000       287.08725       98815.353       15059.555       3.4795000      0.73775010      0.10825000       341.01300       2.9307740     0.011505342
       1193.0000       287.10111       98815.974       15061.218       3.9952500      0.50750010    -0.096250010       340.71500       4.7201889     0.014546836
       1198.0000       287.13877       98814.622       15132.495       3.5832500      0.99075010    -0.089250010       340.94000       5.3185968     0.019483293
       1203.0000       287.15901       98815.632       15171.697       3.3207500      0.66325000     0.035750000       340.76000       6.8361219     0.022739200
       1208.0000       287.19490       98814.711       15243.296       3.1165000      0.58375000     -0.17575000       340.88300       7.1306930     0.036458959
       1214.0000       287.21260       98815.357       15310.797       2.5655000      0.13525000     -0.37775000       340.85600       4.8231278     0.013940663
       1219.0000       287.18811       98820.123       15323.775       4.3417500       1.4770000      0.58375000       340.82800       7.7604806     0.023687076
       1224.0000       287.20448       98821.452       15385.393       3.6970000       1.3695000      0.36400000       340.77800       5.5414022     0.013593810
       1229.0000       287.24196       98820.444       15502.749       2.1067500      0.66275000      0.48375000       340.96800       3.9154009     0.013942608
       1234.0000       287.26199       98820.546       15555.881       2.2922500      0.12250000      0.67900000       340.96900       4.8188986     0.017302540
       1239.0000       287.32181       98821.409       15625.224       3.8930000      0.85250000     -0.49275000       340.75800       3.2755306     0.011305735
       1244.0000       287.30327       98819.745       15614.726       1.8455000      0.23375000      0.76875000       340.95100       4.9582463     0.018029594
       1249.0000       287.21547       98815.860       15517.205       4.1867500      0.19375000     -0.10400000       340.72000       5.9383635     0.018213258
       1254.0000       287.17582       98813.801       15461.243       3.1192500       1.0237500      0.17050000       340.66000       4.5464645     0.041680840
       1259.0000       287.10129       98812.592       15383.533       3.0360000      0.34825000      0.23175000       340.87200       3.4218335     0.012787228
       1264.0000       287.07360       98807.970       15302.541       3.1657500     -0.15000000    -0.071000000       340.69400       4.2983078     0.016762012
       1269.0000       287.10034       98801.991       15224.477      -65.536000      -65.536000      -65.536000       307.23200       2.7866115     0.023119637
       1274.0000       287.10045       98797.921       15153.412       3.6140000      0.68250000     -0.29750000       340.57000       3.6621831     0.025948967
       1279.0000       287.11086       98790.471       15051.676       3.2947500     -0.19625000    -0.088750000       340.58600       3.5733148     0.028082117
       1284.0000       287.09445       98787.650       14994.917       3.8292500      -1.2485000     -0.24400000       340.50100       4.9052169     0.014510596
       1289.0000       287.06844       98790.200       14965.423       3.0480000     -0.90725000     -0.11200000       340.55100       3.0349482     0.015871167
       1294.0000       287.03224       98790.183       14957.403       3.1035000     -0.75975000     -0.40450000       340.50700       2.7773053     0.014391433
       1299.0000       286.96956       98790.333       14990.374       2.5180000      -1.0032500      0.35275000       340.84500       1.8374280     0.037830304
       1305.0000       286.90976       98790.295       14985.080       3.5812500      -1.8125000  -0.00025000000       340.67800       2.3718239     0.013711086
       1310.0000       286.84232       98791.256       14988.660       3.9740000     -0.28975000     -0.46525000       340.74600       2.0040640     0.036200654
       1315.0000       286.83012       98789.338       14990.694       2.6547500     -0.35250000      0.47975000       340.99500       2.2512765     0.016975688
       1320.0000       286.84338       98785.758       14972.912       4.3552500     -0.22850000     -0.25675000       340.31100       2.2278250     0.016080590
       1325.0000       286.85228       98783.836       14961.660       3.6470000      -1.4640000    -0.048000000       340.52500       2.1252824     0.016371327
       1330.0000       286.89498       98780.004       14972.973       2.1685000      -1.5492500      0.25025000       340.66600       2.4284188     0.013917205
       1335.0000       286.92505       98778.872       14956.539       3.2212500      -1.0442500      0.88150010       340.80300       2.2613197     0.013328596
       1340.0000       286.93747       98779.266       14901.176       2.8625000     -0.64700000     0.098750000       340.61500       2.1575746     0.014568717
       1345.0000       286.97593       98781.086       14895.857       3.3932500      -1.3080000     0.050500000       340.46400       2.0834742     0.037551841
       1350.0000       287.04916       98785.752       14897.795       2.9150000     -0.62425010     -0.20925000       340.48900       1.7130472     0.035357228
       1355.0000       287.08051       98785.861       14929.682       2.8317500     -0.21775000     0.052000000       340.51200       2.6037663     0.028721329
       1360.0000       287.11242       98786.104       15003.227       3.4935000     -0.72475000      0.15400000       340.47000       2.1379493     0.016117215
       1365.0000       287.10464       98785.217       15047.158       3.6562500     -0.78225000     0.093500000       340.65600       2.1108033     0.016708793
       1370.0000       287.04545       98780.138       15104.944       3.5650000     -0.32900000     0.073250000       340.83000       2.2101158     0.018910836
       1375.0000       287.04435       98779.062       15133.454       2.9110000     -0.27500000   -0.0045000000       340.91500       2.4897674     0.028087013
       1380.0000       287.03493       98780.252       15138.018       2.6057500     -0.47950000     -0.22175000       340.58800       2.0159293     0.014118529
       1385.0000       287.06223       98780.206       15150.358       3.4115000     -0.38900000      0.12550000       340.73200       2.1853615     0.017267497
       1390.0000       287.14929       98779.257       15151.981       3.1747500     -0.37625000     0.078000000       340.73600       2.7696943     0.012541835
       1396.0000       287.18518       98781.576       15165.536       2.8195000     -0.48850000     -0.27250000       340.74100       3.0420726     0.012866094
       1401.0000       287.20681       98785.168       15180.199       3.3907500      -1.2245000      0.45175000       340.75700       2.5340700     0.015166330
       1406.0000       287.21543       98787.163       15188.154       2.1205000     -0.61175000      0.46975000       340.88300       2.2520057     0.011039726
       1411.0000       287.20003       98790.750       15195.815       3.7290000     -0.54575000    -0.013250000       340.54100       3.1300517     0.013547056
       1416.0000       287.18524       98790.274       15180.245       3.1205000      0.30750000      0.13850000       340.45500       2.6153698     0.012325530
       1421.0000       287.19392       98790.285       15195.198       2.5320000      -1.1240000     0.022500000       340.72300       2.7638682     0.012549158
       1426.0000       287.24541       98787.229       15265.365       2.7802500     -0.10125000      0.31000000       340.78200       2.1995067     0.015675402
       1431.0000       287.25642       98788.949       15286.352       1.8095000      0.36925000      0.32775000       340.86300       2.7877241     0.013267494
       1436.0000       287.25526       98799.092       15284.108       1.9575000      0.26950000     -0.17150000       340.96000       3.7778770     0.013752729
       1441.0000       287.25675       98801.263       15298.151       2.4862500     -0.25700000      0.32300000       340.92900       5.0648712     0.017527609
       1446.0000       287.24594       98800.976       15304.325       1.9025000     -0.35050000      0.50175010       340.92700       6.1024594     0.020341128
       1451.0000       287.18041       98800.391       15265.524       3.3980000     -0.69775000     -0.11250000       340.76100       5.2687892     0.017251734
       1456.0000       287.21477       98802.377       15284.591       3.1042500      0.42550000      0.10300000       340.70100       3.9716854     0.014303347
       1461.0000       287.28880       98799.256       15345.149       2.8930000     -0.60475000     -0.41075000       340.72400       3.6910582     0.014683528
       1466.0000       287.47564       98805.720       15389.447       2.4472500      0.82675000      0.94300000       341.12400       3.7890492     0.019282787
       1471.0000       287.53377       98810.861       15415.097       1.9237500      0.40600000      0.60475000       341.26300       4.7446656     0.017754441
       1476.0000       287.46493       98813.324       15415.180       2.5272500      0.97100010    -0.055500000       341.06500       5.7460403     0.020739133
       1481.0000       287.45613       98815.315       15433.227       3.7237500       1.1375000      0.32275000       341.15800       6.8062760     0.018110779
       1487.0000       287.37692       98820.856       15465.230       5.1632500      0.50975000     -0.12175000       341.28400       8.1832361     0.019081111
       1492.0000       287.32986       98821.573       15471.112       3.1297500       1.1242500     -0.21450000       340.85400       4.5309151     0.014215426
       1497.0000       287.35592       98816.824       15500.280       3.4320000     0.089000000     -0.31125000       340.80500       3.5756993     0.021040234
       1502.0000       287.35469       98814.788       15485.567       3.6590000      0.93475000      0.58625000       340.87500       4.5857244     0.014304438
       1507.0000       287.29559       98809.724       15416.605       3.3565000      0.39225000     -0.79675000       341.14600       6.1229952     0.016403091
       1512.0000       287.28796       98808.904       15358.529       4.3950000       1.5215000     -0.31225000       340.92700       5.3037667     0.016715874
       1517.0000       287.32004       98815.218       15240.051       3.4415000     -0.13025000      0.51900010       341.41200       4.0106550     0.017140913
       1522.0000       287.35107       98816.108       15199.882       3.4525000     -0.28300000     -0.26650000       340.67700       4.0268130     0.013581876
       1527.0000       287.45226       98815.733       15229.803       3.7740000      0.34100000       1.8537500       341.20300       3.1520942     0.012007126
       1532.0000       287.46840       98815.538       15217.698       3.1527500     -0.93550000      0.32875000       340.67400       2.7715048     0.017526078
       1537.0000       287.39415       98809.737       15233.529       1.5325000     -0.31275000    -0.052250000       340.86100       2.8485772     0.011229149
       1542.0000       287.39517       98808.978       15238.770       2.2202500    -0.090750000      0.18750000       341.21900       2.5186716     0.010691143
       1547.0000       287.36045       98813.739       15153.979       2.2155000      0.25250000     -0.19200000       341.01100       2.6929666     0.039243164
       1552.0000       287.38545       98815.792       15172.190       3.0417500     -0.35550000     -0.10100000       341.17400       3.7212183     0.022359892
       1557.0000       287.54966       98819.300       15266.242       3.9390000       1.0507500     -0.46025000       340.49000       5.7020826     0.017343470
       1562.0000       287.62819       98821.201       15363.365       3.7322500     -0.33375000      0.25475000       341.01700       4.4280483     0.015264455
       1567.0000       287.72331       98821.726       15588.726       2.7640000      -1.1222500     -0.37925000       341.04900       3.2612796     0.012380907
       1572.0000       287.72668       98820.628       15687.963       1.5322500      0.21625000      0.68475000       341.50700       3.2069589     0.014625971
       1578.0000       287.58855       98816.800       15742.911       4.1632500     -0.68750010     -0.25800000       341.03400       2.7842125     0.012119218
       1583.0000       287.52843       98814.882       15746.188       3.6955000      -1.1260000     -0.28225000       340.30900       2.7339091     0.010806976
       1588.0000       287.41625       98809.458       15654.095       3.0450000      -1.1000000     -0.43200000       340.96700       2.3906501     0.016546815
       1593.0000       287.36735       98809.184       15579.852       3.6950000     -0.99025010   -0.0030000000       341.27300       2.2513267     0.010350772
       1598.0000       287.40027       98814.022       15498.021       3.1982500      -1.2167500     -0.15100000       340.77600       2.2892689     0.010668382
       1603.0000       287.40054       98815.996       15399.420       2.7785000     -0.93850000      0.20775000       340.94800       2.1743936     0.014175719
       1608.0000       287.40002       98819.947       15256.536       3.1165000     -0.54700010      0.14025000       341.22000       2.1396586     0.010998497
       1613.0000       287.40002       98821.620       15149.595       2.9647500    -0.091750000     -0.32950000       340.58000       2.1661760     0.013595758
       1618.0000       287.38705       98820.337       15016.179       2.3740000      0.31275000     0.063500000       341.30200       2.2020243     0.013217017
       1623.0000       287.40056       98820.337       14953.503       2.4845000      0.66725000      0.34025000       341.14600       2.0802684     0.014979095
       1628.0000       287.41031       98820.440       14936.001       2.6117500      0.33400000     -0.15775000       341.11300       2.4743323     0.015548441
       1633.0000       287.45813       98820.480       14937.322       2.1515000       1.4290000     -0.14925000       340.98900       4.3183614     0.019758252
       1638.0000       287.57026       98820.275       14989.536       2.9930000      0.45575000     -0.20325000       340.93600       3.7905319     0.015505895
       1643.0000       287.62682       98820.297       15045.110       2.8987500       1.0167500     0.063250010       341.27400       5.2156379     0.016723544
       1648.0000       287.69008       98820.134       15090.819       3.5502500      0.48850000     -0.35525000       340.86000       4.5376846     0.013405852
       1653.0000       287.72301       98820.075       15200.950       2.5990000       1.2087500     0.086000000       341.42900       4.1210794     0.012988668
       1658.0000       287.70030       98820.378       15407.989       3.6947500      0.53000000      0.35300000       341.46500       3.6213121     0.016260404
       1664.0000       287.70049       98820.429       15550.174       4.3542500      0.21400000      -1.0060000       340.69900       5.1383792     0.015995874
       1669.0000       287.72283       98820.246       15730.911       3.7452500     -0.41175000     -0.41350000       341.51800       4.5798264     0.018239443
       1674.0000       287.68971       98820.275       15752.021       2.9365000     -0.58725010      0.24375000       341.05400       3.0352046     0.016372455
       1679.0000       287.61580       98820.441       15631.271       2.9630000     -0.33100000    -0.046750000       341.75900       3.1183413     0.029876247
       1684.0000       287.57559       98820.516       15560.835       3.0072500      0.59325000     -0.11600000       340.52300       3.0727649     0.015844637
       1689.0000       287.48944       98820.274       15414.607       2.7902500     -0.64275000      0.65925000       341.73400       4.9983605     0.015237544
       1694.0000       287.47781       98820.274       15330.226       3.7017500      0.46725000     -0.42700000       341.28300       5.7662639     0.017890853
       1699.0000       287.53129       98820.385       15277.939       3.5755000     -0.10575000      0.61550000       342.06700       4.9044418     0.020824642
       1704.0000       287.56736       98820.429       15226.418       3.4455000      0.28925000     -0.11850000       341.10900       3.6648912     0.019409738
       1709.0000       287.65258       98820.337       15172.179       2.9687500     -0.23075000     -0.21925000       341.59800       4.3373868     0.016656068
       1714.0000       287.67020       98820.337       15152.984       4.7600000      -1.8150000     -0.37575000       341.06400       3.1260438     0.023120162
       1719.0000       287.65850       98820.447       15164.509       3.1610000     -0.56925000      0.64100000       341.61800       3.4111532     0.015054499
       1724.0000       287.65215       98820.490       15173.861       3.9282500     -0.34900000      0.57325010       341.07800       2.9965932     0.016257855
       1729.0000       287.57970       98820.277       15196.192       4.0560000     -0.68300000     -0.51975000       340.61100       2.0685269     0.017062246
       1734.0000       287.59867       98820.305       15237.937       3.5725000      0.32325000      0.37325000       340.96200       2.4167646     0.013028006
       1739.0000       287.71939       98820.122       15320.051       3.2080000    -0.037250000      0.15100000       341.26000       2.7179920     0.016380532
       1744.0000       287.71150       98820.063       15337.821       4.4667500     -0.35125000     -0.53450000       340.90400       3.2036738     0.013191083
       1749.0000       287.66125       98820.385       15330.297       2.9922500     -0.27650000     -0.71300010       341.26100       6.4121478     0.027497226
       1755.0000       287.64043       98820.439       15352.382       3.3827500     -0.86175010     -0.30100000       341.01000       3.8835454     0.016190138
       1760.0000       287.53593       98820.139       15334.449       5.2245000      -2.3300000     -0.47725000       341.19200       3.1041447     0.013106212
       1765.0000       287.52294       98820.080       15334.141       3.0367500      -3.1920000     -0.26700000       340.80000       2.6115354     0.043205243
       1770.0000       287.61953       98821.109       15386.173       3.5937500      -2.1490000      -1.1332500       340.97600       1.9459979     0.033986417
       1775.0000       287.59272       98819.233       15369.029       3.4397500     -0.23125000     -0.60750000       341.49000       2.0822576     0.014400812
       1780.0000       287.50645       98814.728       15302.267       2.0722500      0.16400000     -0.43050000       341.90900       2.1216426     0.013138058
       1785.0000       287.46659       98814.623       15249.519       5.5165000      -1.7895000     -0.35700000       340.79200       2.8854819     0.014018353
       1790.0000       287.37621       98814.731       15180.689       3.7527500     -0.60325000     -0.68800000       340.69000       2.3866651     0.011912023
       1795.0000       287.39148       98815.650       15129.597       4.5717500      -1.0470000      0.17650000       341.18300       2.0305135     0.016195136
       1800.0000       287.50081       98820.732       15082.367       4.1432500      -2.0140000    -0.062500000       340.75300       2.0974204     0.012084852
       1805.0000       287.52191       98821.941       15017.716       3.8912500     -0.29875000    -0.081250000       340.75500       2.1219058     0.013624251
       1810.0000       287.56112       98820.140       14942.044       2.5470000     -0.62200000     -0.23350000       341.13500       2.1858722     0.011381974
       1815.0000       287.56326       98820.080       14899.588       3.8460000      -1.3575000     -0.65000000       340.65600       2.1548746     0.012378845
       1820.0000       287.49707       98820.220       14840.290       2.8962500     -0.67350010     -0.78850000       341.14400       3.1007341     0.016102714
       1825.0000       287.48543       98820.174       14838.668       3.2805000     0.030250000    -0.041500000       340.96500       3.0253889     0.016799048
       1830.0000       287.48187       98820.141       14866.299       4.4892500     0.015500000    -0.070750010       341.16000       2.2851453     0.014605678
       1835.0000       287.51915       98820.082       14959.861       5.1725000    -0.056500000      0.13300000       340.72200       2.3118841     0.016160849
       1840.0000       287.60063       98820.281       15134.517       6.0622500      0.30800000     -0.40050000       340.51600       4.3768292     0.019033380
       1846.0000       287.62429       98820.223       15241.971       3.6997500       1.6172500      0.30125000       340.81500       3.6534949     0.015734369
       1851.0000       287.65679       98820.127       15381.624       4.0620000      0.67525010     -0.18600000       340.60000       4.4430341     0.016235382
       1856.0000       287.67513       98820.068       15409.011       3.6330000     -0.23075000      0.14350000       341.28600       4.4953639     0.016432165
       1861.0000       287.63234       98820.211       15331.634       4.7022500     -0.55975000     0.047750000       340.75800       3.9019195     0.018914347
       1866.0000       287.71680       98820.188       15335.757       5.0257500     -0.18775000     -0.57900010       340.87300       3.3572430     0.022011876
       1871.0000       287.79601       98820.129       15350.601       4.8360000       1.1957500      0.29500000       340.85700       3.1467186     0.019770435
       1876.0000       287.96138       98820.308       15421.461       3.7117500     -0.52900000     0.037750000       340.87400       2.9571343     0.012741089
       1881.0000       288.02519       98820.272       15446.559       4.1400000      -1.4805000     -0.23600000       340.66500       4.3283033     0.016942049
       1886.0000       287.94991       98820.365       15416.886       3.7605000      0.27125000     0.012250000       340.63900       4.5729796     0.017734983
       1891.0000       287.98699       98820.401       15431.500       2.6172500      -1.8052500     0.034750000       341.04700       2.9174411     0.013662441
       1896.0000       288.04865       98820.450       15455.733       2.7570000     -0.59350000      0.33225000       341.03700       2.2561222     0.011120242
       1901.0000       288.11057       98823.062       15459.445       2.7937500      0.94425000      0.24850000       341.56400       2.5528352     0.014273616
       1906.0000       288.08823       98814.461       15516.710       2.9412500      -2.3247500      0.16375000       341.70300       3.3960457     0.014885174
       1911.0000       288.13536       98798.222       15651.484       2.8742500      0.81250010     -0.79875000       341.15000       3.2790073     0.016433151
       1916.0000       287.89944       98795.315       15632.325       3.7680000      -1.2532500      0.10775000       340.50300       3.3244454     0.023185498
       1921.0000       287.77289       98792.758       15610.924       4.4627500      -1.5167500     -0.41100000       341.34100       3.2206287     0.016081952
       1926.0000       287.71461       98810.329       15514.407       4.8267500     -0.53500000     0.040250000       341.07200       2.3267465     0.012532533
       1931.0000       287.68129       98813.998       15436.766       4.8067500     -0.10925000     -0.58125000       341.01400       2.0546455     0.012616525
       1937.0000       287.73360       98798.986       15360.268       4.8692500     -0.26200000     -0.40450000       341.04500       2.1193530     0.022120828
       1942.0000       287.75383       98794.182       15300.120       4.3430000      0.52100000     0.079500000       340.66500       5.5559714     0.014118567
       1947.0000       287.79021       98788.175       15221.494       6.3237500      0.81000010     -0.12450000       341.16300       3.5196246     0.014543024
       1952.0000       287.80920       98783.409       15172.574       4.7090000       1.0665000     -0.46775000       340.59800       2.6249550     0.019044712
       1957.0000       287.78632       98784.433       15124.543       4.9712500      0.53000000      0.23350000       340.94200       4.0573260     0.013843886
       1962.0000       287.79760       98785.419       15123.363       3.7467500      0.50325000      0.18750000       341.22000       3.2136902     0.017092678
       1967.0000       287.83421       98786.026       15180.157       4.1277500      0.64500000    -0.080500010       341.03100       4.1366276     0.011802095
       1972.0000       287.85401       98785.018       15216.563       4.1542500      0.21450000      0.14725000       341.06400       5.4259793     0.017016584
       1977.0000       287.89004       98785.990       15273.618       3.3752500    -0.088000010     -0.83625010       340.97600       5.0829020     0.017832758
       1982.0000       287.90862       98785.853       15335.200       3.1095000      0.75000010      0.44650000       341.32200       4.1542809     0.025764289
       1987.0000       287.90021       98781.293       15396.138       4.4140000       1.6697500      0.20650000       341.19300       4.6553744     0.015636362
       1992.0000       287.90017       98779.416       15447.192       2.9555000       1.2427500     -0.51625000       341.09400       4.0085072     0.012300880
       1997.0000       287.91434       98780.370       15545.425       3.1540000      0.67000000      0.79625000       341.13100       3.0841544     0.015823043
       2002.0000       287.90328       98780.408       15573.920       3.3625000     -0.66325000     0.030500000       340.94500       4.3010791     0.017410663
       2007.0000       287.89392       98780.272       15552.875       1.4277500     -0.37250000      0.33425000       341.53700       3.4016182     0.020689454
       2012.0000       287.85165       98780.235       15514.716       2.1432500     -0.44625000     0.058000000       341.27400       3.4339507     0.018268828
       2017.0000       287.76961       98780.274       15440.371       2.2757500     -0.78900000     -0.10675000       341.32500       2.9617373     0.014614875
       2022.0000       287.68887       98780.274       15340.341       2.6707500     -0.87750010    -0.020000000       341.32900       2.9098036     0.014638059
       2028.0000       287.50815       98778.772       15149.051       3.3342500     -0.31800000      0.11375000       341.21300       2.9117219     0.014419687
       2033.0000       287.46357       98780.119       15044.299       3.3192500     -0.69525000    -0.035500000       340.83600       2.3578133     0.032170253
       2038.0000       287.48698       98777.885       14927.818       3.4297500      -1.4502500     -0.17400000       340.98400       2.1237713     0.014734129
       2043.0000       287.49461       98786.958       14850.880       3.0477500      -1.2265000     0.032000000       341.02800       2.1302780     0.012616517
       2048.0000       287.60341       98812.991       14840.244       1.8925000     -0.89625010      0.72325000       341.44700       2.5292648     0.020676960
       2053.0000       287.62245       98820.603       14808.591       3.0775000      -1.9642500     -0.88250010       341.29400       2.1848169     0.014691165
       2058.0000       287.56153       98829.182       14763.782       3.6722500      -2.7377500      0.38450000       341.22100       2.1701498     0.014246238
       2063.0000       287.54146       98828.528       14753.064       3.8620000      -1.5920000      0.12425000       341.27700       2.0838079     0.012251950
       2068.0000       287.49197       98804.022       14745.122       3.1245000      -1.5232500    -0.068000000       341.51200       2.0831487     0.013794908
       2073.0000       287.48919       98795.098       14781.726       3.8187500      -2.7337500      0.19400000       340.89900       2.0721988     0.017201571
       2078.0000       287.53702       98788.532       14876.583       4.5427500      -1.5012500     -0.37275000       340.84800       2.0952318     0.013915366
       2083.0000       287.55707       98788.067       14947.970       3.1470000     -0.87950000      0.35075000       341.13100       2.1767950     0.013634071
       2088.0000       287.62042       98796.605       15091.350       3.2970000      -1.7390000     -0.28950000       340.56900       2.1074465     0.015579364
       2093.0000       287.60936       98802.029       15123.434       3.8300000      -1.7027500     -0.70600000       340.97400       1.7483079     0.034892266
       2098.0000       287.52287       98813.300       15074.045       2.9172500     -0.31075000      0.33825000       341.17300       2.1661496     0.015902665
       2103.0000       287.48254       98818.668       15046.079       2.8857500      -1.1220000      0.33600000       341.29000       2.1125253     0.010728805
       2108.0000       287.40956       98819.825       14952.010       2.6452500     -0.24400000    -0.098250000       341.05800       2.0157706     0.016730852
       2113.0000       287.37732       98821.466       14898.481       3.7435000    -0.074750010     0.059250000       341.31800       2.7034720     0.027757376
       2119.0000       287.38843       98820.401       14877.835       2.9600000      -1.0832500      0.70050000       341.34200       2.6010991     0.012303126
       2124.0000       287.40491       98820.488       14836.465       4.2677500    -0.091750000      0.26700000       341.21200       2.3057041     0.011692025
       2129.0000       287.45321       98820.444       14780.641       3.9495000     -0.68575000      0.59850000       341.20800       2.1180754     0.010747238
       2134.0000       287.45683       98820.546       14734.306       2.7540000     0.066250000      0.17750000       341.16700       2.4804440     0.015782698
       2139.0000       287.44548       98820.122       14656.603       2.8030000     -0.18825000      0.30025000       341.14300       3.2676272     0.013435716
       2144.0000       287.45547       98820.062       14652.384       3.4497500      -1.4102500      0.54225000       341.08700       5.3013674     0.014020299
       2149.0000       287.45409       98817.984       14700.864       3.3062500     -0.87525000     -0.11025000       340.99000       5.0108970     0.040764098
       2154.0000       287.44413       98821.223       14720.309       1.9462500      -1.0400000     0.081500000       341.09700       2.3423542     0.014171683
       2159.0000       287.44626       98828.554       14767.767       3.5115000      -1.4242500     -0.43300000       341.05700       2.2366032     0.026434080
       2164.0000       287.45633       98832.509       14814.020       4.2507500      -1.4050000      0.12000000       340.98900       2.0602540     0.012583287
       2169.0000       287.43059       98840.047       14825.581       4.8127500     -0.85175000     -0.43000000       340.65000       2.2638791     0.014145018
       2174.0000       287.45361       98842.741       14886.816       4.2275000     -0.24950000    -0.059250000       340.94600       2.0801269     0.010740614
       2179.0000       287.55209       98842.399       15028.174       3.2035000     -0.53875010      0.15075000       340.60400       2.0795421     0.015913211
       2184.0000       287.57000       98839.117       15075.883       3.0215000      -1.4157500      0.22525000       340.97800       1.9822446     0.028023285
       2189.0000       287.56806       98831.643       15110.672       4.9152500      -1.2627500     -0.39450000       340.58900       2.4585678     0.012984900
       2194.0000       287.54592       98827.592       15096.467       3.7200000      -1.5105000      0.30775000       340.75300       2.9445270     0.014672376
       2199.0000       287.44752       98820.432       14991.403       2.5197500     -0.13000000      0.51475000       340.99500       2.1992829     0.017272899
       2204.0000       287.43010       98817.682       14945.026       2.9415000      -1.4400000      0.58250000       341.08500       2.0660880     0.013174234
       2210.0000       287.42378       98820.455       14873.177       3.9240000     -0.46275000    -0.081250000       340.92700       2.2501232     0.010766018
       2215.0000       287.47114       98820.501       14860.501       3.7610000      -1.8745000    -0.072000000       340.76100       2.2258447     0.018445159
       2220.0000       287.60357       98821.172       14888.926       2.1447500      -2.6185000     -0.14150000       340.69900       2.3072929     0.027745659
       2225.0000       287.63619       98819.295       14894.254       2.5240000     -0.75375000      0.44325000       341.14300       2.1949045     0.016700120
       2230.0000       287.67791       98815.412       14916.763       3.0757500      -1.5502500     -0.34125000       340.89300       2.1450207     0.015095608
       2235.0000       287.64330       98813.358       14923.465       2.8610000      -2.2700000      0.78300010       341.07600       2.1236033     0.012688725
       2240.0000       287.49584       98811.780       14911.333       3.8342500     -0.72800000      0.51150000       341.03900       2.1702645     0.015479564
       2245.0000       287.46393       98806.984       14918.053       2.9140000     -0.66125010     -0.77625010       340.94600       2.0593814     0.014049013
       2250.0000       287.44000       98801.205       14930.911       2.9510000      -1.6235000     0.019000000       340.95700       2.1555848     0.025265179
       2255.0000       287.43714       98797.247       14944.508       3.0035000     -0.43400000     -0.19900000       340.75200       2.1630226     0.016138357
       2260.0000       287.50375       98790.674       14970.471       3.0605000      -2.8825000      0.39900000       340.67200       2.1942317     0.020125595
       2265.0000       287.51518       98786.562       14978.405       4.8537500      -2.7392500     -0.20450000       340.38900       2.0599145     0.011593869
       2270.0000       287.49105       98785.703       14970.901       3.9780000     -0.17125000      0.59075000       340.77500       2.2187588     0.017714963
       2275.0000       287.50974       98783.721       14990.090       3.4175000     -0.34975000    -0.035000000       340.74900       2.0798828     0.012147595
       2280.0000       287.54668       98779.097       15019.140       2.9785000     -0.85800000    -0.064500000       340.63900       2.1864117     0.010936452
       2285.0000       287.56673       98779.834       15030.508       1.8235000     -0.32025000      0.23575000       341.05200       2.7611093     0.016095973
       2290.0000       287.61166       98785.957       15063.921       2.3035000     0.089500000      0.34500000       341.23700       3.8045098     0.013953710
       2295.0000       287.60408       98786.115       15049.580       4.6537500     -0.90225010      -1.0495000       340.67500       4.5177407     0.015737328
       2301.0000       287.55105       98785.640       14983.552       3.9702500     -0.59775000     -0.16475000       340.75000       3.7388372     0.013904899
       2306.0000       287.53080       98786.756       14960.561       3.2167500     -0.56025000      -1.0807500       340.62400       2.8435222     0.016202933
       2311.0000       287.49379       98784.597       14931.586       4.9252500     -0.24450000    0.0075000000       340.75300       2.5681215     0.017970372
       2316.0000       287.50006       98788.763       14942.287       4.8020000     -0.64925000     -0.44175000       340.38100       2.3235116     0.012751386
       2321.0000       287.50008       98790.882       14924.768       4.6567500      0.40100000     -0.11900000       340.82700       3.0690516     0.012948167
       2326.0000       287.50011       98790.334       14869.582       2.8420000     -0.36825000    -0.092750010       340.75700       2.4858911     0.013096899
       2331.0000       287.50025       98790.358       14838.901       3.3765000      0.53775000     -0.17200000       340.74300       2.4028369     0.016485147
       2336.0000       287.48490       98787.221       14787.601       3.7172500      -1.3182500     -0.23750000       340.73900       2.4393076     0.013422039
       2341.0000       287.49335       98788.902       14768.885       1.8277500      -1.5250000     -0.53100000       340.64000       2.2766765     0.012255412
       2346.0000       287.51403       98793.041       14774.227      0.96675000      0.23875000      0.93800000       341.55600       3.0235961     0.013192072
       2351.0000       287.53657       98800.417       14809.306       2.5852500     -0.86000000     0.082750010       341.09900       2.9282975     0.011438921
       2356.0000       287.60010       98804.574       14859.733       1.7145000      0.87150000     -0.30025000       341.04800       6.0658944     0.019962456
       2361.0000       287.70589       98810.767       14936.561       2.4337500     -0.39700000     -0.17325000       341.07500       4.9314567     0.014024198
       2366.0000       287.75475       98813.212       14978.713       2.7920000      0.59150000   -0.0062500000       341.54600       4.5672710     0.018578196
       2371.0000       287.80630       98815.192       15068.526       2.3317500      0.26675000      0.18100000       341.07800       5.5744971     0.015399322
       2376.0000       287.83045       98818.917       15218.326       3.2470000    -0.012250000     -0.10875000       340.91800       3.9784192     0.016209281
       2381.0000       287.85036       98821.083       15323.092       3.1840000      0.60025000     -0.31075000       340.90900       3.9065718     0.018332427
       2387.0000       287.89052       98817.459       15507.298       2.8927500     0.098750000      0.25125000       340.84200       4.9360041     0.014811642
       2392.0000       287.90915       98819.764       15584.264       2.7415000      0.20875000     -0.53025000       341.22900       3.9044825     0.014803894
       2397.0000       287.91392       98827.009       15577.614       2.4535000      0.19100000     -0.17525000       341.55500       4.6712373     0.013507192
       2402.0000       287.90243       98830.979       15561.700       2.2640000     -0.36850000     -0.10450000       341.60200       3.7797941     0.044647837
       2407.0000       287.85111       98841.118       15477.338       2.5410000     -0.15950000     0.074750010       341.50000       4.5773004     0.018032349
       2412.0000       287.84213       98842.638       15426.703       2.9110000     -0.39575000     -0.26350000       340.71500       3.4845678     0.027301218
       2417.0000       287.85811       98833.409       15393.604       2.1592500     -0.67675000      0.54650000       341.12300       3.8253723     0.013213553
       2422.0000       287.84827       98829.400       15327.732       1.7667500     -0.75600000     0.082250010       341.44200       3.1973585     0.015129200
       2427.0000       287.87044       98822.329       15240.186       1.7407500     -0.87150000     -0.15125000       341.02400       3.4904098     0.012754848
       2432.0000       287.85819       98818.652       15177.313       2.4065000     -0.63625000    -0.083750000       340.89300       3.6155191     0.019472983
       2437.0000       287.77646       98821.799       15070.276       2.5815000      0.16575000    -0.031750000       341.30900       2.8920379     0.014773949
       2442.0000       287.73778       98820.697       15022.644       2.8857500     -0.67350010      0.17575000       341.38300       2.2331696     0.011091038
       2447.0000       287.69630       98817.037       15028.130       2.1265000     -0.20400000      0.14425000       341.39100       2.3071728     0.024466482
       2452.0000       287.68869       98815.103       15045.037       3.3662500      0.16875000      0.24225000       341.06300       2.7777530     0.012293071
       2457.0000       287.74862       98814.039       15134.202       1.6680000     -0.43000000      0.39425000       341.76900       2.1769637     0.014150811
       2462.0000       287.75776       98809.912       15158.913       3.0695000      -1.0890000    0.0087500000       341.41500       2.2933563     0.013823246
       2467.0000       287.74230       98803.576       15135.765       3.4035000     -0.29325000     -0.22075000       340.83100       2.3262336     0.015228674
       2472.0000       287.75241       98799.665       15157.177       4.1125000     -0.18800000     -0.27025000       340.68800       2.8554299     0.015328929
       2478.0000       287.74274       98792.626       15157.005       3.0770000     -0.74500010      0.53475000       341.06700       3.4713899     0.018482243
       2483.0000       287.74701       98788.025       15182.779       4.2730000      -2.4015000      0.18475000       340.84000       2.5550704     0.014879807
       2488.0000       287.83261       98786.423       15320.424       3.4857500      -1.5835000     -0.41650000       341.00100       2.2183031     0.014672037
       2493.0000       287.80701       98784.409       15322.823       4.2640000      -1.1752500      0.12550000       341.02600       2.0898619     0.011001596
       2498.0000       287.68363       98779.436       15242.436       2.9592500    -0.043000000      0.57475000       341.25000       2.0969830     0.014423918
       2503.0000       287.62328       98779.181       15178.166       3.0225000      0.58575000      0.65300010       341.26800       1.9913061     0.011523439
       2508.0000       287.51442       98784.091       15038.377       2.6032500    -0.082750010      0.78025000       341.36600       2.5632976     0.012821982
       2513.0000       287.46640       98786.024       14943.028       2.4325000    -0.095000010      0.49025000       341.14100       2.8601023     0.011994423
       2518.0000       287.50016       98787.346       14880.579       3.1325000      -2.0390000      0.27125000       340.93400       1.9584297     0.013894339
       2523.0000       287.50032       98791.762       14803.344       3.2217500      -1.2725000     -0.40175000       341.18800       1.9554297     0.012806601
       2528.0000       287.47308       98797.712       14674.196       2.4177500      -1.1120000    -0.034000000       341.17300       2.0339650     0.011931194
       2533.0000       287.50080       98801.726       14639.641       2.2435000      0.35425000      0.84550010       341.38200       2.0896536     0.010093479
       2538.0000       287.55008       98807.836       14628.232       2.4480000     -0.63050000      0.69675000       341.48500       2.0896073     0.012016436
       2543.0000       287.61769       98812.508       14677.987       3.6425000     -0.29375000      0.12075000       341.21000       1.9372941     0.014543033
       2548.0000       287.79315       98811.421       14852.943       3.6780000     -0.90250000     -0.57300000       340.78600       2.0881037     0.012090254
       2553.0000       287.83926       98816.082       14962.615       4.2220000     -0.16275000     -0.40525000       340.60200       2.0709523     0.013104021
       2558.0000       287.82646       98827.326       15105.192       3.7390000     -0.75050000     -0.11275000       340.82100       2.0159441     0.015184668
       2563.0000       287.80502       98832.838       15183.179       2.7825000     -0.72975000      0.12375000       341.09100       1.9338566     0.013656827
       2569.0000       287.66025       98842.562       15219.194       1.8680000      -1.7842500      0.45875000       341.16400       1.9967371     0.012101409
       2574.0000       287.61308       98841.973       15228.227       4.0227500     -0.15500000     -0.57750000       340.68100       2.0553025     0.010655723
       2579.0000       287.60102       98831.955       15190.340       3.1627500     -0.77750000    0.0015000000       340.64600       2.0404060     0.011026729
       2584.0000       287.58721       98828.012       15172.032       3.3792500      -2.6275000      0.22200000       340.88500       1.9696310     0.013725347
       2589.0000       287.61136       98820.397       15170.388       2.7990000       1.3590000      0.74950000       341.45300       1.9926011     0.011638113
       2594.0000       287.59528       98817.627       15102.339       2.6790000    -0.032000000      0.85050000       340.76100       2.0710619     0.010805416
       2599.0000       287.54698       98821.468       14987.012       3.9980000      -2.0920000     -0.44725000       340.70900       1.9117787     0.019384189
       2604.0000       287.54346       98819.893       14907.357       3.6720000     -0.58925000    -0.097500000       340.65400       2.0800208     0.011477717
       2609.0000       287.53110       98816.265       14756.958       2.2330000     0.070000000      0.37350000       341.08200       2.1350624     0.013072886
       2614.0000       287.55290       98814.325       14711.161       3.8372500     -0.49975000      0.86850010       341.22700       2.0393758     0.015792807
       2619.0000       287.64003       98812.834       14747.938       3.8027500      -1.1620000     -0.12575000       340.62100       2.0392326     0.010530393
       2624.0000       287.67368       98808.236       14762.714       3.8777500     -0.65825000     -0.19825000       340.88200       2.2236786     0.023194925
       2629.0000       287.69851       98798.576       14806.070       2.9362500     -0.89050010      0.55325000       341.23400       2.0834664     0.010950396
       2634.0000       287.71230       98799.476       14852.725       3.2655000     -0.16600000     0.097250010       341.26200       2.1080772     0.013974807
       2639.0000       287.71099       98804.197       14889.821       2.3585000     -0.67300000      0.37275000       341.44800       2.2344820     0.028602084
       2644.0000       287.69490       98805.786       14970.555       3.5457500     -0.21250000      0.68275000       340.85500       2.0975279     0.014061589
       2649.0000       287.68037       98815.927       15147.016       3.6537500       2.2045000     0.037500000       341.12400       2.0430530     0.011963401
       2654.0000       287.62811       98818.031       15176.517       3.0757500      0.94550000      0.36750000       340.70500       2.1209737     0.013995115
       2660.0000       287.51531       98809.782       15181.876       5.2840000    -0.025750000     -0.43000000       340.75800       2.1243507     0.015993303
       2665.0000       287.44453       98808.631       15104.935       4.5137500       1.0797500      0.69000010       340.93200       2.0257367     0.010510868
       2670.0000       287.34871       98810.195       14886.295       5.4182500      -1.9045000      0.21475000       340.87500       2.1030447     0.010840004
       2675.0000       287.30620       98810.182       14774.671       5.9710000      -1.5852500     -0.97525010       340.76100       2.2273769     0.027399778
       2680.0000       287.28766       98809.450       14667.669       5.2037500      -1.1707500    -0.034500000       340.49600       2.1102052     0.013986347
       2685.0000       287.29482       98811.307       14584.170       4.0035000     -0.95925000    0.0052500000       340.59200       2.1505391     0.016122899
       2690.0000       287.33759       98814.645       14526.728       2.2762500     -0.29475000     -0.11750000       340.91200       2.1027307     0.012578235
       2695.0000       287.37623       98816.541       14477.716       2.1470000     -0.45450000     -0.47750000       341.02000       1.9532835     0.012113213
       2700.0000       287.43992       98820.621       14426.262       1.3682500     -0.33275000      0.70250000       341.05200       2.1096461     0.014984797
       2705.0000       287.48950       98821.737       14427.460       2.0055000     -0.22925000      0.75950000       341.04900       2.0125265     0.011188029
       2710.0000       287.54837       98821.180       14463.285       3.4210000      0.96450010      0.52375000       340.94000       2.0767398     0.011719394
       2715.0000       287.57986       98819.226       14511.086       3.3507500      0.77825000     -0.67475000       340.65200       2.1850173     0.022190609
       2720.0000       287.61153       98814.684       14610.595       3.7060000     -0.39200000     -0.84250000       340.88200       2.0510953     0.012367488
       2725.0000       287.60431       98814.556       14664.221       3.9202500      0.63900010    -0.076000010       340.68300       2.0683084     0.011162424
       2730.0000       287.55361       98815.590       14699.476       4.0375000       1.0140000     -0.15475000       340.87100       2.0306308     0.012917123
       2735.0000       287.53368       98814.563       14764.836       4.4587500      -1.2925000     -0.15675000       340.68200       2.0861388     0.010693392
       2740.0000       287.48788       98817.711       14827.021       3.8942500     -0.96900000     -0.45925000       340.72100       2.0935487     0.011701066
       2745.0000       287.49510       98813.089       14898.819       3.4985000     -0.43775000      0.13500000       340.79000       1.9439625     0.022751863
       2751.0000       287.55536       98800.363       15039.010       1.3047500     -0.76700000      0.56675000       340.96000       2.1183243     0.013314604
       2756.0000       287.55380       98793.252       15048.246       2.6377500     -0.20200000    -0.077500000       340.93000       1.9426663     0.011405427
       2761.0000       287.55598       98783.590       15014.967       2.7672500     -0.64925000     -0.30325000       340.85300       2.1294159     0.019493298
       2766.0000       287.50005       98784.860       14912.675       2.8617500     -0.38650000    -0.036750000       340.78600       1.9387211     0.013251588
       2771.0000       287.48735       98784.756       14862.490       3.0865000     -0.18525000     -0.24475000       340.86900       2.1156054     0.014577058
       2776.0000       287.53033       98784.401       14859.824       2.7457500      -1.5072500     -0.46975000       341.05500       2.0877938     0.012375992
       2781.0000       287.55012       98789.144       14843.937       2.6380000      -1.3770000      0.39725000       340.78700       1.9262310     0.015361902
       2786.0000       287.59991       98799.190       14857.558       3.6875000      -1.3807500      0.31125000       340.86900       2.0431449     0.011016456
       2791.0000       287.61234       98805.116       14848.940       2.9447500      -1.8632500     -0.21375000       340.85200       2.2117246     0.026424728
       2796.0000       287.60014       98811.041       14826.874       3.6070000     -0.54125010      0.11250000       340.79200       2.0702619     0.011909101
       2801.0000       287.54410       98822.186       14773.229       3.0792500     -0.66250000     0.028500000       340.85600       2.0676511     0.013675196
       2806.0000       287.54518       98824.822       14778.053       2.0645000     -0.56600000     -0.22350000       340.99000       2.0323485     0.010940878
       2811.0000       287.55013       98819.092       14794.943       2.3052500      -1.0325000     -0.21325000       340.99000       1.9464209     0.011782049
       2816.0000       287.55431       98829.377       14834.769       3.5757500     -0.64025000     0.034250000       341.17300       2.2021021     0.023662652
       2821.0000       287.55556       98831.744       14863.018       2.7350000     -0.10725000      0.11225000       341.02600       1.9632506     0.012055005
       2826.0000       287.51480       98831.347       14854.613       3.4462500      -1.5362500      0.57025000       340.86800       2.0217891     0.010070651
       2831.0000       287.49360       98831.566       14871.085       3.4822500      -1.0195000     -0.53100000       340.97400       2.0345419     0.010816890
       2837.0000       287.50063       98826.708       14931.489       3.3407500      -1.0390000      0.26150000       340.88500       2.1449395     0.014473872
