MIRICO/SHELL project - Processed LDS file generated on
Wed Jul 19 14:46:43 2017
Time stamp for record start
05/12/2017  09:47:59.0000
Nb of points in the record
         563
Beam position index
       2.0000000
Beam angle (degrees)
      -8.6380000
Open Path length (m)
       64.850000
****************** Temporal data record ************************
Elapsedtime_sec Temp_K Press_Pa Humidity_ppmv WindX_m/s WindY_m/s WindZ_m/s Speedofsound_m/s CH4vmr_ppmv CH4vmrerror_ppmv  
      0.00000000       286.80504       98778.772       15159.671       3.8680000       1.2940000     -0.49225000       340.50200       1.9150744     0.010988247
       5.0000131       286.75405       98768.849       15139.682       3.1580000       1.9292500     -0.29425000       340.60100       1.9533547     0.011226992
       11.000021       286.73007       98767.509       15123.698       3.2875000      0.89200000    -0.042250000       340.76000       1.8972468     0.018880548
       15.999994       286.68738       98768.300       15087.408       3.4472500       1.5257500     -0.46525000       340.79400       2.0105595    0.0098177305
       21.000007       286.70034       98772.734       15083.644       2.9942500       1.4047500     -0.21350000       340.87600       1.9830859     0.010787427
       26.000020       286.73803       98785.115       15085.529       2.8075000       1.7810000    -0.054500000       341.07000       1.9527110     0.010629804
       30.999993       286.87593       98793.455       15201.824       4.1610000      0.93300000     -0.57850000       340.71200       1.9731976     0.014554269
       36.000006       286.92103       98800.536       15243.913       2.9685000      0.41325000    0.0025000000       341.18000       2.0362744     0.010807048
       41.000019       286.89494       98810.187       15250.101       3.5432500      0.56675000     -0.28325000       341.03900       2.0343294     0.010496206
       46.000032       286.90594       98816.308       15290.746       4.2227500       2.1690000      0.22675000       340.79700       1.9351732     0.012507172
       51.000005       286.90464       98819.972       15323.427       4.2970000       1.0075000    -0.090250010       340.77800       1.9810559    0.0099293307
       56.000018       286.83704       98821.684       15295.289       4.1095000       1.1180000      0.21000000       340.87600       2.0209744    0.0093208104
       61.000031       286.84035       98820.449       15335.083       4.9237500      0.93050000    -0.064750000       340.64500       1.9950016    0.0099313517
       66.000004       286.91213       98816.457       15454.701       3.1067500      0.77875010     -0.17000000       341.01200       1.9165111     0.011077141
       71.000017       286.83988       98807.067       15414.229       3.0690000       1.4630000      0.18350000       341.04200       1.9200650     0.016203975
       76.000030       286.83694       98799.987       15398.128       3.0135000     -0.21425000      0.51150000       340.91100       1.9957009    0.0090165127
       81.000003       286.84542       98793.259       15316.305       3.4355000      0.66825000      0.31400000       340.96800       1.9677980     0.010641535
       86.000016       286.88186       98785.377       15297.540       4.0150000    -0.020500000      0.40350000       340.89900       1.9895466    0.0088587131
       91.000029       287.04477       98772.684       15360.120       2.3640000       1.6632500      0.37575000       340.97400       1.9935180    0.0092662181
       96.999997       287.12815       98767.838       15393.766       3.2205000      0.81375000     -0.18125000       340.87300       1.9664010     0.013135319
       102.00001       287.17691       98767.431       15436.554       2.3345000      0.50475000      0.38125000       340.94600       1.9669020     0.011743970
       107.00002       287.17175       98768.836       15475.813       2.0935000  -0.00025000000    -0.092500000       341.10400       1.9928372    0.0094836839
       112.00000       287.04277       98778.686       15497.551       2.8807500      0.34100000      0.54650000       341.26100       2.0285081     0.010327756
       117.00001       286.98394       98786.724       15512.723       2.6252500      0.55575000     -0.12175000       340.84300       1.9981022     0.010040859
       122.00002       286.93355       98796.354       15568.970       2.4130000      0.31825000     0.067750010       340.99100       1.9874383     0.010198800
       127.00000       286.88451       98802.334       15557.890       2.3910000      0.64825000     -0.18950000       341.30500       2.0180488    0.0098407985
       132.00001       286.86634       98807.037       15476.403       2.9430000      0.72825000     -0.13400000       340.82700       1.9935950     0.010678955
       137.00002       286.84669       98811.924       15418.831       3.7262500      0.77900000     0.058750000       340.52500       1.9948906    0.0086834282
       141.99999       286.83901       98813.757       15330.103       3.5347500       1.3437500     -0.16425000       340.66600       2.0139691    0.0097917032
       147.00001       286.79756       98815.844       15250.814       2.9437500      0.80100010      0.13675000       341.12800       2.0617545     0.012521019
       152.00002       286.73172       98820.731       15190.867       3.5420000       1.3000000      0.35850000       340.91700       1.9622858    0.0096744224
       156.99999       286.69147       98821.504       15121.935       2.6615000      0.23100000     0.056500000       340.86600       1.9954905    0.0099045241
       162.00001       286.63306       98819.610       15048.156       2.2987500      0.55600010      0.20900000       341.17400       1.9501356    0.0095266483
       167.00002       286.58412       98815.365       14962.726       2.4670000      0.39600000      0.31825000       341.21000       2.0215601     0.014899991
       171.99999       286.53765       98805.729       14820.712       2.5255000       2.3127500    -0.022750000       340.80400       1.9385414     0.010861301
       177.00001       286.54049       98798.737       14768.906       2.8425000       2.5725000      0.22575000       341.05200       1.9583108     0.012507632
       182.00002       286.57794       98788.733       14750.549       1.7385000       3.0400000      0.39125000       341.11600       1.9679921    0.0098800738
       188.00003       286.60475       98782.106       14755.043       3.0145000       2.8002500     -0.24300000       340.64600       1.9545175     0.010110486
       193.00000       286.68977       98780.757       14842.042       3.0860000       2.4492500      0.38025000       340.66200       1.9433967     0.011546751
       198.00001       286.72205       98779.149       14914.220       3.8082500       1.3047500      0.27600000       340.79400       1.9949126    0.0093890756
       203.00003       286.69962       98779.108       15002.833       2.1937500       1.9747500      0.46150000       341.04300       1.9742440    0.0091749552
       208.00000       286.69954       98780.562       15060.297       2.2670000      0.74425010      0.24425000       341.19900       2.0031068    0.0089246483
       213.00001       286.67432       98781.561       15104.157       3.3702500       1.2860000     0.069500010       340.58500       1.9079184     0.011826531
       218.00002       286.70153       98786.281       15175.210       3.8452500       1.6005000     -0.28000000       340.58300       1.9835488    0.0099239935
       223.00000       286.78910       98797.470       15267.523       3.0312500      0.94900010      0.27275000       340.91100       1.9691476     0.010495462
       228.00001       286.81508       98803.041       15298.542       2.6682500       1.1142500     0.055750000       340.79300       1.9437762     0.010595820
       233.00002       286.83972       98812.184       15327.095       3.1410000       1.1395000     -0.29950000       340.80100       2.0031338    0.0088213739
       238.00000       286.86578       98812.690       15344.618       2.1785000      0.69150000     -0.12075000       341.25800       1.9957913    0.0097521919
       243.00001       286.84393       98800.198       15305.068       2.1617500      0.27950000      0.20325000       340.90300       1.9718151    0.0098466458
       248.00002       286.84790       98799.018       15266.363       2.5732500      0.85400000      0.15475000       341.30900       2.0052645     0.014432202
       253.00000       286.89526       98799.133       15222.903       3.4685000      0.35825000     -0.45825000       340.73100       1.9385859     0.013414351
       258.00001       286.91170       98799.942       15206.099       2.9962500    -0.020250000    -0.010500000       340.90700       1.9787803    0.0097243612
       263.00002       286.92603       98811.982       15180.958       1.9382500     0.084250000     0.095750000       341.05100       1.9638504     0.011544252
       267.99999       286.89863       98812.482       15149.855       1.7702500      0.93575010      0.33000000       341.33300       2.0259739     0.010559059
       273.00001       286.82419       98803.975       15149.316       2.0305000      0.75675000     -0.39900000       341.01400       1.9699873     0.013759493
       279.00002       286.77655       98797.419       15135.741       2.4742500       1.1845000      0.10050000       341.17200       1.9406145     0.017628038
       284.00003       286.70202       98788.809       15080.494       2.5127500       2.1775000     -0.21275000       341.11400       1.9709563    0.0095855148
       289.00000       286.67472       98780.813       15069.281       3.2402500       2.1740000     -0.15650000       341.14300       1.7767549     0.019295849
       294.00001       286.72163       98772.048       15122.981       3.6130000       1.3790000     -0.15225000       340.61600       1.9649863     0.012015768
       299.00003       286.68879       98766.643       15093.878       3.3532500       1.0770000    -0.072000000       341.01400       1.9954667     0.012600213
       304.00000       286.60382       98758.049       15022.990       4.0560000       1.9120000     -0.50175010       340.43000       2.0163908    0.0093394668
       309.00001       286.57992       98758.452       14977.535       3.9775000      0.14825000     -0.18300000       340.48000       1.9500443     0.011987509
       314.00003       286.53242       98767.650       14884.271       2.9850000      0.70625000     -0.48650000       340.79400       1.9231925     0.010717713
       319.00000       286.54118       98773.274       14848.949       3.2010000       2.2917500     0.080750000       340.97000       1.9804106    0.0095763421
       324.00001       286.62912       98784.294       14854.474       3.8610000       1.0412500     -0.21650000       340.54500       1.9389356     0.012663352
       329.00003       286.67933       98789.083       14863.421       3.6260000       1.0847500     0.022500000       340.72200       2.0371308    0.0090994217
       334.00000       286.74128       98788.262       14893.361       3.4090000      0.40350000      0.16600000       340.47900       2.0263709     0.011561714
       339.00001       286.77523       98793.060       14917.343       2.5150000      0.14325000    -0.029250000       340.85500       2.0116727    0.0089115052
       344.00003       286.79905       98798.895       14940.960       1.9252500      0.20050000     0.071250010       340.94000       1.9694055    0.0097775462
       349.00000       286.81272       98802.929       14995.685       1.3515000     -0.10975000     0.034000000       341.02800       1.9585984    0.0097480949
       354.00001       286.81101       98810.131       15089.972       2.1102500   -0.0052500000    0.0052500000       340.79900       1.9826665    0.0090189385
       359.00002       286.79469       98812.817       15124.574       2.5387500     -0.39575000     -0.12050000       340.52000       1.9670991     0.014469855
       364.00000       286.75792       98810.429       15173.582       2.8627500     -0.26800000      0.51425000       341.08100       1.9128399     0.013348867
       370.00000       286.73403       98810.500       15171.761       3.0167500     -0.53275000     -0.48350000       340.56200       1.9255171     0.010747518
       375.00002       286.69754       98812.281       15097.165       1.8842500      0.56100000     -0.10175000       340.99400       1.9746273    0.0099598643
       380.00003       286.68645       98808.513       15057.053       2.6050000      0.15475000      0.23400000       340.87600       1.9348236     0.014291356
       385.00000       286.70021       98801.221       15019.951       2.5585000     0.048750000    -0.089000000       340.79900       1.9415513     0.011409403
       390.00002       286.70027       98797.250       14972.403       1.9215000       1.0112500     0.086250010       340.98700       1.9932154    0.0090533163
       395.00003       286.70949       98790.339       14925.546       2.0365000     -0.33100000     0.057500000       341.12700       1.9215903     0.015663812
       400.00000       286.69118       98786.147       14850.337       3.1142500     -0.60050000     -0.25800000       340.81800       1.9579054     0.013000578
       405.00002       286.64495       98787.581       14732.504       2.2885000      0.53050010    -0.058250000       341.06600       1.9463151    0.0095134008
       410.00003       286.64375       98781.911       14690.984       2.5460000      0.17975000     -0.17200000       340.61500       2.0346411     0.011258917
       415.00000       286.63288       98770.800       14639.918       2.2252500      0.38825000     -0.35950000       340.74000       1.9812188    0.0093363273
       420.00002       286.66098       98765.577       14659.635       1.5852500      0.16400000      0.54350000       340.99300       1.9507571     0.010758959
       425.00003       286.75727       98757.788       14764.722       2.1252500     -0.27025000     0.056000000       340.58200       1.9685880     0.014467462
       430.00000       286.76963       98759.211       14827.623       3.0322500      0.42200000      0.34250000       340.92300       1.9327340     0.013104649
       435.00001       286.76532       98769.627       14916.930       1.7790000      0.39275000      0.22575000       340.93900       1.9906550    0.0094766515
       440.00003       286.73793       98773.637       14958.499       4.1130000     -0.47350000     -0.67225000       340.76800       2.0076095    0.0096337337
       445.00000       286.65030       98781.016       14983.897       3.7797500      0.86150000     -0.36450000       340.62900       2.0775554     0.017020369
       450.00001       286.61908       98783.255       14990.809       3.7187500       1.1600000     -0.32600000       340.64100       1.9684440     0.015420571
       455.00003       286.59719       98777.596       14972.064       3.8052500      0.66025000     -0.19150000       340.82900       1.9718636    0.0096978098
       460.99999       286.58508       98784.704       14936.379       2.8320000       1.0147500     -0.31475000       340.88200       1.9398646     0.014866223
       466.00001       286.59973       98794.897       14899.257       2.8182500      0.43525000      0.79350010       340.97000       2.0532921     0.013114468
       471.00002       286.59954       98800.891       14824.211       2.7242500      0.55375000     -0.19350000       340.77500       1.9777921     0.010851170
       475.99999       286.59378       98811.460       14708.405       3.3717500       1.2502500     -0.19575000       340.78400       1.9026572     0.017705654
       481.00001       286.63081       98814.754       14630.436       4.4477500       1.0502500     -0.58250000       340.56100       1.9496418     0.010036749
       486.00002       286.65130       98815.890       14578.519       2.5895000       1.2085000     -0.72625010       340.91100       1.9411025    0.0098376539
       490.99999       286.68559       98814.256       14575.622       3.5662500      0.52675000     -0.82575010       340.62800       1.9360956     0.011089682
       496.00001       286.70660       98815.204       14578.985       3.0675000       1.3295000      0.33500000       340.76100       1.9347494     0.014037902
       501.00002       286.71522       98816.152       14594.278       2.4655000     -0.12425000      0.46575000       341.03900       1.9556764     0.013386055
       506.00003       286.69954       98815.192       14614.577       3.2962500      0.20875000     0.047000000       340.82800       1.9282421     0.010592980
       511.00000       286.69923       98814.174       14662.231       2.9570000     -0.19825000     -0.10275000       340.92300       2.0136346    0.0093090547
       516.00002       286.69999       98816.942       14738.310       3.8990000      0.18100000     0.099750000       340.86100       1.9805873     0.014806526
       521.00003       286.69966       98805.648       14815.567       3.5452500     -0.70075010    -0.089000000       340.91900       1.9557570    0.0091032962
       526.00000       286.69957       98799.446       14864.098       3.9157500     0.075750000    0.0097500000       340.80100       1.9832444    0.0093308464
       531.00002       286.70032       98794.620       14888.629       2.5810000     -0.80450000     -0.36125000       340.76500       2.0331167     0.010355492
       536.00003       286.70029       98789.501       14903.476       2.2215000     -0.21525000      0.24575000       340.93800       2.0286343    0.0092875420
       541.00000       286.70001       98790.356       14891.077       1.8080000     -0.52075000      0.35675000       340.93700       2.0196566    0.0092437670
       546.00002       286.70001       98786.684       14882.431       2.7522500      0.40150000     0.076000010       341.07600       1.9141246     0.013789059
       552.00002       286.69975       98774.552       14872.432       3.1552500       1.3265000     -0.29875000       340.51700       1.9436325    0.0092601871
       557.00000       286.69948       98768.612       14849.557       3.2595000      0.87000010     -0.58325000       340.56100       1.9544511     0.011974328
       562.00001       286.70001       98759.360       14813.129       3.3442500      0.62150000     -0.17200000       340.71100       1.9382542     0.012415148
       567.00002       286.69998       98757.752       14782.227       3.4537500      0.80700000    -0.097000000       340.69100       1.9236852     0.015151548
       572.00000       286.68587       98767.168       14707.296       3.2865000       1.2237500      0.22325000       340.67000       1.9458813     0.013436041
       577.00001       286.69694       98771.204       14696.303       3.5970000     -0.17825000     -0.20150000       340.53100       1.9533919    0.0099024001
       582.00002       286.73434       98776.804       14740.815       3.6512500    -0.078750010     -0.46400000       340.58000       1.9950650    0.0093136268
       586.99999       286.75421       98781.538       14768.758       2.8510000     -0.26925000      0.13750000       340.61000       1.9584096    0.0096201246
       592.00001       286.79009       98780.649       14840.252       2.2420000     -0.41775000     -0.43125000       340.72200       2.0060881     0.010371738
       597.00002       286.80846       98784.906       14886.966       1.0467500      0.52875000      0.42525000       341.00000       2.0186231    0.0084951558
       601.99999       286.78609       98796.198       14892.737       2.6280000      0.95075010     -0.30200000       340.89600       1.9198447     0.012535959
       607.00001       286.79761       98802.174       14931.025       3.6290000       1.2535000     -0.17725000       340.61200       1.9131405     0.010310717
       612.00002       286.83504       98806.926       14995.823       3.2532500      0.83075000     -0.17375000       340.59300       1.9203060     0.013388050
       616.99999       286.85531       98811.785       15044.748       3.5332500     -0.27175000     0.039750000       340.82800       2.0016227    0.0088207188
       622.00001       286.89081       98815.024       15112.951       2.8465000      0.11300000   -0.0032500000       340.83500       1.8212000     0.022320031
       627.00002       286.90928       98815.854       15155.234       2.1300000      0.79600010      0.44075000       340.92200       1.9428864     0.015397964
       632.00003       286.88565       98816.093       15163.842       3.0862500      0.81975000      0.76550000       340.91600       2.0201261    0.0097877054
       637.00000       286.89669       98816.054       15184.956       2.4747500      0.77625010     -0.12550000       340.69800       1.8647003     0.016852347
       643.00001       286.95071       98809.453       15216.838       2.2730000     0.016500000      0.37250000       340.89500       2.0010819    0.0087372676
       648.00003       286.95679       98809.219       15220.302       1.9002500     -0.32350000      0.25225000       340.83800       2.0869065     0.016728932
       653.00000       286.96938       98814.149       15228.446       3.0557500      0.21475000      0.11200000       340.69700       1.9759306    0.0095016629
       658.00001       286.95197       98816.204       15204.571       3.3575000     -0.68725000      0.11325000       340.77300       1.9709549     0.013748013
       663.00002       286.89236       98821.060       15162.071       2.0805000     -0.63475000    0.0030000000       340.88800       2.1087079    0.0093662991
       668.00000       286.82864       98821.273       15083.921       2.9625000      -1.0872500     -0.12600000       340.76100       2.3295647     0.010980750
       673.00001       286.71602       98816.287       14933.468       4.7267500     -0.75775000     -0.34200000       340.55900       2.5157051     0.013142414
       678.00002       286.67405       98814.231       14854.737       3.6105000      0.58975010      0.93675010       340.81700       2.8566130     0.017800331
       683.00000       286.66035       98813.458       14777.934       5.8735000     -0.52150010      0.23550000       340.57200       2.4729334     0.021977560
       688.00001       286.63433       98809.048       14713.776       5.0522500    -0.021250000     0.075500000       340.54500       2.2319376     0.010039416
       693.00002       286.65703       98802.707       14699.420       4.7512500     -0.76375000     -0.15500000       340.68800       1.9883750    0.0089001772
       698.00000       286.65353       98798.718       14674.348       4.0152500     -0.31625000     -0.56600000       340.45200       2.0030537    0.0082959643
       703.00001       286.57917       98792.335       14599.888       3.8182500      0.80575000     0.014750000       340.60000       1.9827124     0.011028162
       708.00002       286.59014       98787.636       14608.114       3.0475000      0.76750000    -0.027750000       340.69000       2.7274885     0.013668734
       713.00000       286.66388       98786.581       14674.975       3.6105000    -0.084500010     -0.13700000       340.73800       4.5016431     0.013613451
       718.00001       286.71743       98784.625       14746.134       4.0222500     -0.24925000     0.024000000       340.60100       4.0804875     0.019573188
       723.00002       286.84053       98780.742       14885.742       2.5885000    -0.042750000      0.11450000       340.56500       2.6372015     0.011171912
       729.00003       286.88250       98778.907       14998.272       4.2745000     -0.96900000      0.46000000       340.58200       4.7182370     0.013821549
       734.00000       286.84623       98780.322       15086.088       3.9415000      0.63300000     -0.85925010       340.47100       5.6738470     0.014972684
       739.00001       286.85614       98780.365       15157.693       4.2330000      0.12675000     -0.26375000       340.50700       4.3807446     0.014744146
       744.00003       286.83239       98779.298       15214.403       2.8987500     -0.48850000      0.39450000       340.68500       2.8182668     0.015283157
       749.00000       286.85498       98781.004       15255.412       3.0172500     -0.54700010      0.12500000       340.49800       2.6170962     0.010365259
       754.00001       286.97593       98785.634       15313.084       2.9600000      0.12475000     -0.11175000       340.64500       2.1920844    0.0093511506
       759.00003       286.96171       98786.011       15287.425       1.5600000      0.24400000      0.39775000       340.76300       2.1766938    0.0092690533
       764.00000       286.87306       98782.407       15206.762       2.4122500      0.33100000     -0.45300000       340.71500       3.1557801     0.020187164
       769.00001       286.82708       98786.531       15118.514       2.7615000     -0.23250000     0.039250000       340.87000       3.5409645     0.011209107
       774.00003       286.69011       98792.766       14932.941       2.3067500     0.071500000     -0.50550000       340.83600       4.9232882     0.014655075
       779.00000       286.66582       98797.447       14851.143       1.7425000    -0.091250000      0.42600000       340.88400       4.5132036     0.014047464
       784.00001       286.74221       98808.943       14800.552       2.1850000     -0.42550000      0.56250000       340.97800       2.8710998     0.010199754
       789.00003       286.76240       98814.767       14765.769       2.9855000     -0.10700000      0.69825010       340.75800       4.1922918     0.010950563
       794.00000       286.81049       98815.539       14793.566       3.0890000      0.10275000     0.037000000       340.68200       2.7712102     0.016324883
       799.00001       286.80809       98815.917       14782.253       2.3480000      0.11400000      0.52925000       340.74700       4.8955069     0.013559720
       804.00002       286.74645       98816.227       14736.573       4.5852500       2.7442500    -0.072250000       340.71300       3.7749648     0.012205555
       809.00000       286.74269       98815.674       14756.249       3.1465000       1.3512500     0.031250000       340.72000       3.1691107     0.014143715
       814.00001       286.75417       98809.121       14811.608       2.7565000      0.78975000     -0.11225000       340.82700       5.0620722     0.016106453
       820.00002       286.74237       98809.648       14853.957       3.4957500      0.83750000     0.033750000       340.66900       4.6496197     0.013892620
       825.00003       286.74831       98817.710       14930.010       4.1090000       1.0477500     -0.43475000       340.88300       3.8395126     0.013025452
       830.00000       286.75818       98814.037       14971.073       3.2757500      0.28600000     -0.18325000       340.55200       3.8956854     0.010768462
       835.00002       286.74349       98804.990       14983.559       3.1827500      0.34925000    -0.050750000       340.77500       2.2135245    0.0099176902
       840.00003       286.75223       98803.868       14996.015       3.6157500     -0.99325010      0.12775000       340.65300       2.8859074     0.010895656
       845.00000       286.81199       98797.782       15025.192       3.2240000     -0.94575010      0.52325000       340.68500       3.4593318     0.014004590
       850.00002       286.80473       98800.244       15003.187       3.3702500     -0.98900000      0.15075000       340.67200       3.6252125     0.014752392
       855.00003       286.73637       98818.190       14917.412       2.8540000     -0.64175000      0.37275000       340.63100       2.5028999     0.015589518
       860.00000       286.75380       98816.821       14912.671       2.4787500     -0.59450000      0.10050000       340.61300       2.1451800    0.0094806836
       865.00002       286.78760       98808.046       14921.245       2.5842500     0.013500000     -0.20800000       340.79800       2.2032770     0.010910531
       870.00003       286.81706       98801.194       14925.275       3.1367500     -0.36850000     -0.10825000       340.69400       2.6746308     0.019178298
       875.00000       286.89690       98786.576       14967.258       1.9972500     -0.35700000     -0.40300000       340.90700       3.2384724     0.014741901
       880.00001       286.93854       98777.359       14995.639       3.3395000       1.1295000     -0.12450000       340.61700       4.5860624     0.019493347
       885.00003       286.95566       98768.843       15007.849       3.7652500      0.43375000     -0.32450000       340.53100       3.3125023     0.011434535
       890.00000       286.95700       98767.467       15013.253       2.5157500     -0.40100000     -0.38975000       340.71900       2.5528790     0.013489406
       895.00001       286.94817       98768.037       15026.716       3.7595000     -0.62175010     -0.63050000       340.44100       4.3478761     0.014836536
       900.00003       286.95813       98771.683       15050.542       4.7465000      0.70975010      0.30175000       340.71400       3.5871009     0.018158071
       905.00000       286.93400       98785.634       15035.630       3.7682500      0.25850000    -0.065000010       340.79300       3.3870296     0.015106768
       911.00001       286.96935       98790.491       15109.100       3.6705000       2.3435000     -0.42525000       340.38400       3.5574393     0.013204983
       916.00002       287.06947       98791.505       15255.193       2.0405000       1.2752500      0.13400000       340.83400       3.2614458     0.012811536
       920.99999       287.05574       98790.182       15271.542       2.8787500       1.5885000    -0.026500000       340.71000       3.6644333     0.011970180
       926.00001       287.00045       98783.426       15261.046       2.4237500       1.3225000      0.79350010       340.60100       4.9324248     0.013702842
       931.00002       286.94521       98789.406       15207.380       2.3892500      0.65200000     0.067750010       340.85400       4.0581828     0.011160126
       935.99999       286.93060       98794.159       15186.596       1.6612500      0.64250000      0.52350000       341.08600       4.4029031     0.018963427
       941.00001       287.01550       98810.504       15240.936       2.4780000      0.35950000     0.050750000       340.93000       2.9968077     0.016278425
       946.00002       287.05636       98818.007       15262.799       2.2780000     -0.38725000     -0.10225000       340.91400       2.9482194     0.011706603
       951.00003       287.08492       98820.593       15273.052       3.8880000      0.30475000     -0.53850000       340.65000       3.1776900     0.012030860
       956.00000       287.11344       98815.534       15277.311       2.6892500    -0.018750000      0.32100000       340.88000       3.1097300     0.015103425
       961.00002       287.10059       98816.561       15248.014       2.2445000      0.91175000      0.38950000       340.89700       2.5170694     0.011554690
       966.00003       287.03872       98814.755       15179.296       2.8077500      0.31600000     -0.36925000       340.62800       4.2974495     0.018830388
       971.00000       287.07592       98818.790       15194.336       3.4135000      0.65875010     -0.42075000       340.57400       4.0917033     0.011434364
       976.00002       287.09495       98820.934       15205.451       3.9977500      0.15075000     0.074500000       340.58400       2.3618997     0.017677234
       981.00003       287.15609       98820.366       15273.056       2.4895000       1.0735000     0.018750000       340.80800       4.3013022     0.012945169
       986.00000       287.20691       98820.401       15328.896       3.5527500       1.8097500     -0.15250000       340.79000       3.1776714     0.011325309
       991.00002       287.21468       98821.802       15342.772       2.9760000      0.92525010     -0.11425000       340.52400       5.3526730     0.016686853
       996.00003       287.24292       98820.955       15389.146       1.8525000    -0.010000000      0.71775000       340.89800       6.1451779     0.013186523
       1002.0000       287.30845       98817.196       15469.445       1.3832500       1.3317500      0.35250000       340.84600       3.0122997     0.011666815
       1007.0000       287.35824       98815.283       15559.742       2.0042500       1.2472500    -0.016250000       340.89500       3.6148534     0.011105173
       1012.0000       287.43790       98811.429       15718.400       2.1272500      0.57525000      0.20025000       340.81200       2.8915116    0.0099848537
       1017.0000       287.46580       98809.586       15811.380       1.6252500      0.50300000      0.25875000       341.01700       3.0622687     0.010895859
       1022.0000       287.44149       98813.065       15894.086       1.5887500      0.41800000    -0.067000000       340.90600       2.3271722     0.017910197
       1027.0000       287.45136       98810.839       15953.745       1.8715000      0.60100000      0.19675000       340.91700       3.0723541     0.010228676
       1032.0000       287.47226       98804.895       15963.389       1.1217500     -0.60200010      0.81575010       340.89600       3.3792364     0.023303750
       1037.0000       287.45131       98799.810       15962.320       2.2357500      0.22725000     -0.20000000       341.05900       3.6124044     0.011080732
       1042.0000       287.45329       98787.402       15985.442       2.5510000    -0.018500000    -0.037500000       341.07100       2.7284112     0.014905514
       1047.0000       287.40895       98782.840       15933.804       3.9120000       1.0457500     -0.58100000       340.83600       2.7049679     0.011361778
       1052.0000       287.25216       98788.861       15801.186       4.3725000       1.1525000     -0.11650000       340.73100       4.2898847     0.013904173
       1057.0000       287.17438       98785.530       15689.612       3.3592500      0.68925010     -0.37875000       340.57700       5.5686843     0.024389126
       1062.0000       287.11895       98775.971       15516.842       2.9532500     -0.87375000      0.29200000       340.68200       5.9395048     0.013594467
       1067.0000       287.08103       98774.009       15392.749       2.2692500       1.0755000      0.40800000       340.94800       3.4609146     0.014112980
       1072.0000       287.14190       98769.850       15317.729       2.1200000      0.57350000     -0.41525000       340.62000       5.9876653     0.014209946
       1077.0000       287.10765       98768.209       15218.222       3.0987500     -0.47275000      0.51250000       340.75700       4.9491646     0.014021997
       1082.0000       286.99817       98778.347       15101.247       3.9010000      0.89250000     -0.16150000       340.95100       6.6918731     0.020066926
       1087.0000       286.93868       98782.062       15025.113       3.4092500      0.66250000      0.27825000       340.96800       3.3558694     0.013392727
       1093.0000       286.80185       98780.346       14923.524       2.7435000      0.27550000     -0.36350000       340.92700       5.3080698     0.013424361
       1098.0000       286.76730       98780.387       14896.754       3.1137500      0.18225000     0.067750010       341.02700       5.3757165     0.013371550
       1103.0000       286.83821       98780.283       14951.244       3.7137500      0.44750000     -0.16575000       340.91800       2.8027280     0.012454510
       1108.0000       286.85850       98780.323       14970.868       2.8000000      0.33900000      0.32950000       341.10200       2.4444826     0.012212146
       1113.0000       286.89526       98778.986       15013.265       3.3177500     -0.61725000      0.35650000       340.93000       3.1679089     0.011597135
       1118.0000       286.91180       98780.360       15034.983       4.1940000      0.93075010     -0.65350000       340.57200       2.8008725     0.014079383
       1123.0000       286.88731       98781.525       15012.043       3.8830000      0.69350000     0.034250000       340.75800       3.2582134     0.015509691
       1128.0000       286.90119       98786.224       15042.191       2.8140000      0.40575000      0.51900010       340.85100       3.8050037     0.019791545
       1133.0000       286.92395       98797.247       15099.561       3.3112500     0.082000000      0.28675000       340.86900       4.2661497     0.012654376
       1138.0000       286.95795       98802.860       15149.477       2.1205000      0.85800000      0.15525000       341.01900       3.2653133     0.018343405
       1143.0000       287.03263       98809.148       15241.946       2.2617500      0.76300000    -0.027000000       340.97600       4.6818096     0.014329683
       1148.0000       287.06898       98812.406       15292.853       2.4940000      0.37025000     -0.52800000       340.79700       3.6587072     0.011685411
       1153.0000       287.12084       98810.173       15338.485       2.8382500      0.91700010     -0.30775000       340.88100       3.2418963     0.011061152
       1158.0000       287.10987       98810.154       15335.925       2.0670000       1.2640000    -0.021000000       341.18300       3.7625379     0.013410029
       1163.0000       286.99822       98810.377       15270.974       3.5475000      0.63750000     -0.14125000       340.94000       3.3167641     0.014297750
       1168.0000       286.98627       98810.395       15248.079       3.2305000       1.2517500     -0.12425000       340.68400       2.5280411     0.013007830
       1173.0000       286.98609       98810.345       15210.201       3.0122500      0.37225000     -0.13100000       340.73600       2.8783731     0.010357101
       1179.0000       286.99790       98810.365       15168.184       2.6952500      0.56500000    -0.047750000       340.75000       3.1906313     0.014003706
       1184.0000       287.09862       98809.114       15164.536       2.8340000       2.0995000     -0.96350000       340.77900       2.5360159     0.014609038
       1189.0000       287.12599       98810.737       15140.009       3.1887500       1.1207500     -0.30050000       341.02800       2.4508296     0.012512161
       1194.0000       287.08902       98815.579       15056.716       3.5262500       1.7790000     -0.54900000       340.52800       3.9793039     0.021694873
       1199.0000       287.10538       98815.947       15066.311       4.0232500       1.2187500     -0.31850000       340.67900       4.7189113     0.012301892
       1204.0000       287.14284       98814.821       15139.708       3.4725000       1.4127500      0.15125000       340.95100       3.2547210     0.013860163
       1209.0000       287.16302       98815.839       15180.481       3.4642500      0.90950010     -0.29500000       340.96700       7.5439578     0.023138777
       1214.0000       287.19908       98814.695       15255.385       3.4965000      0.30100000    -0.039250000       340.94400       3.6916704     0.011752403
       1219.0000       287.21260       98815.357       15310.797       2.3672500      0.67075000      0.82075010       340.99200       3.8614586     0.011438054
       1224.0000       287.18811       98820.123       15323.775       4.2365000       1.0417500     -0.57575010       340.40400       6.1706255     0.014249824
       1229.0000       287.20448       98821.452       15385.393       3.8715000       1.1342500    -0.075250010       340.87500       3.3036065     0.012177055
       1234.0000       287.24196       98820.444       15502.749       3.0355000       1.3065000     -0.26525000       340.84200       3.6321175     0.011753192
       1239.0000       287.26199       98820.546       15555.881       1.9320000       1.0585000     -0.39750000       340.92400       3.5708138     0.010476765
       1244.0000       287.32181       98821.409       15625.224       4.4445000     -0.48850000     -0.21600000       340.77400       5.2759475     0.014321233
       1249.0000       287.30327       98819.745       15614.726       2.2142500      0.59500000      0.98475000       340.91400       2.8574042     0.010898684
       1254.0000       287.21547       98815.860       15517.205       3.8197500      0.58325000     -0.11850000       340.57600       3.2150508     0.015141993
       1259.0000       287.17582       98813.801       15461.243       2.9212500      0.88675000     0.075500000       340.56800       2.8671127     0.010350476
       1264.0000       287.10129       98812.592       15383.533       2.8377500     -0.32250000    0.0017500000       340.42500       3.1850907     0.011594858
       1270.0000       287.07101       98806.897       15285.939       2.8100000    -0.044750000    0.0022500000       340.75400       3.3679692    0.0099165776
       1275.0000       287.10036       98801.182       15210.331      -65.536000      -65.536000      -65.536000       307.23200       3.3492837     0.014618895
       1280.0000       287.10048       98797.099       15139.098       3.2272500      0.20350000      0.25600000       340.78300       3.3398694     0.018426723
       1285.0000       287.10859       98789.708       15038.510       3.8092500     -0.15425000    -0.040500000       340.59500       3.0407543     0.012576146
       1290.0000       287.08966       98787.384       14986.286       2.9172500     -0.50850000     -0.52425000       340.54300       2.9109247     0.011552427
       1295.0000       287.06218       98790.195       14962.131       3.3500000      -1.2895000   -0.0070000000       340.70800       3.0375654     0.011453476
       1300.0000       287.02352       98790.182       14958.322       3.7200000     -0.69600000     -0.44900000       340.79000       2.2265641     0.011038405
       1305.0000       286.95960       98790.329       14989.917       2.1147500      -1.1890000      0.23875000       340.78300       2.0387244     0.019119365
       1310.0000       286.90976       98790.295       14985.080       3.3240000      -1.1607500     0.087500010       340.54300       2.0538491    0.0096712412
       1315.0000       286.84232       98791.256       14988.660       3.3725000     -0.90725000      0.23400000       340.80700       2.0430847     0.011608751
       1320.0000       286.83012       98789.338       14990.694       2.3367500     -0.17700000      0.38725000       340.89700       2.0071146     0.010681064
       1325.0000       286.84338       98785.758       14972.912       3.6825000     -0.21200000     -0.11225000       340.29900       1.9322882     0.012458059
       1330.0000       286.85228       98783.836       14961.660       4.1067500      -1.5980000     -0.10175000       340.33000       2.0036916     0.010642815
       1335.0000       286.89498       98780.004       14972.973       3.4230000      -1.9005000     0.071500000       340.68900       2.1419150     0.017287410
       1340.0000       286.92505       98778.872       14956.539       3.6267500     -0.46725000     0.071500000       340.35700       1.9324008     0.011622515
       1345.0000       286.93747       98779.266       14901.176       3.3995000     -0.90700010      0.13350000       340.63400       1.9306913     0.022023998
       1350.0000       286.97593       98781.086       14895.857       3.3792500      -1.3722500     -0.37900000       340.53400       2.0417616     0.013715259
       1355.0000       287.04916       98785.752       14897.795       2.7465000   -0.0052500000     0.077250000       340.56500       1.9676844     0.014456071
       1361.0000       287.08530       98785.734       14938.803       3.5355000     -0.76650010      0.14725000       340.57100       2.0086304     0.011088425
       1366.0000       287.11289       98786.030       15012.113       3.3682500     -0.45700000  -0.00050000000       340.53300       1.9642289     0.011373995
       1371.0000       287.10005       98784.884       15055.783       3.8027500      -1.3222500     -0.16350000       340.71500       1.9420490    0.0099488485
       1376.0000       287.04422       98779.821       15111.818       2.6517500     -0.70125000      0.28850000       340.89100       2.2469839     0.014519866
       1381.0000       287.03106       98780.278       15125.164       2.5882500    -0.098500010      0.31325000       340.94100       2.2573801     0.010240973
       1386.0000       287.03839       98780.244       15140.818       3.5185000      -1.4792500     -0.13525000       340.71500       2.0223049    0.0092789131
       1391.0000       287.11553       98778.688       15144.431       3.0237500     -0.12450000   -0.0032500000       340.74100       2.0931693     0.017734148
       1396.0000       287.15650       98779.521       15154.052       3.0105000     -0.52125000    -0.090500000       340.69400       2.6760287     0.011219466
       1401.0000       287.18518       98781.576       15165.536       2.5287500     -0.19825000    0.0020000000       340.78000       2.4453164     0.015254298
       1406.0000       287.20681       98785.168       15180.199       2.9467500     -0.41550000     -0.28100000       340.73200       2.1499256     0.010153502
       1411.0000       287.21543       98787.163       15188.154       3.1535000      -1.1172500      0.52075000       340.84100       2.3762936     0.010522977
       1416.0000       287.20003       98790.750       15195.815       4.0427500     -0.77225010      0.46350000       340.62000       2.5475945     0.010649008
       1421.0000       287.18524       98790.274       15180.245       2.7635000      0.14700000      0.10300000       340.54600       2.3043062     0.015053957
       1426.0000       287.19392       98790.285       15195.198       2.1477500      -1.3340000      0.72000000       340.86300       2.4162255     0.010734850
       1431.0000       287.24541       98787.229       15265.365       2.6600000     -0.33125000     -0.29425000       340.70600       2.0018057     0.010748893
       1436.0000       287.25642       98788.949       15286.352       2.0922500    -0.071000000     -0.11900000       340.65900       2.8171393     0.015271325
       1441.0000       287.25526       98799.092       15284.108       1.9197500      0.66950010     -0.14525000       340.95600       3.5655486     0.012577658
       1446.0000       287.25675       98801.263       15298.151       2.7645000   -0.0042500000      0.13450000       340.73700       5.0316460     0.023403137
       1452.0000       287.18030       98798.772       15265.736       2.4700000    -0.029250000      0.19600000       340.76900       4.9915433     0.020901706
       1457.0000       287.18424       98800.791       15267.619       2.7682500     -0.63400000      0.32200000       340.79400       3.0765793     0.011767589
       1462.0000       287.24028       98799.226       15317.706       3.0117500      0.56450000      0.16300000       340.66900       3.0887806     0.014775782
       1467.0000       287.30345       98799.515       15351.978       2.6022500     -0.26775000     0.087500010       340.70700       3.7949040     0.012480958
       1472.0000       287.49237       98806.850       15395.393       2.3277500      0.47500000      0.46000000       341.22400       3.4852143     0.012426573
       1477.0000       287.53774       98811.736       15419.014       1.9767500     0.060250000      0.38350000       341.36800       3.2601769     0.017966944
       1482.0000       287.46416       98813.721       15418.616       2.7075000       1.8955000     0.073250000       341.14600       5.1529196     0.014961874
       1487.0000       287.45290       98815.714       15437.094       4.0127500      0.60400000      0.42000000       340.98600       4.2098832     0.014607533
       1492.0000       287.37692       98820.856       15465.230       4.2582500      0.59250000     -0.74900000       340.36700       3.8870694     0.013589505
       1497.0000       287.32986       98821.573       15471.112       3.4145000       1.1832500      0.11900000       340.97700       2.7640748     0.012262739
       1502.0000       287.35592       98816.824       15500.280       2.6635000      0.44925000     -0.44050000       340.86200       3.0354742     0.010785368
       1507.0000       287.35469       98814.788       15485.567       4.5287500       1.8280000      0.26350000       340.78100       4.7500494     0.016252268
       1512.0000       287.29559       98809.724       15416.605       4.2470000       2.3247500     -0.51875000       341.29900       4.0502154     0.011203319
       1517.0000       287.28796       98808.904       15358.529       3.1372500       1.0572500     0.046750000       340.96200       2.7050207     0.014776510
       1522.0000       287.32004       98815.218       15240.051       3.3250000      -1.0237500      0.52075000       341.29100       3.3624337     0.010683165
       1527.0000       287.35107       98816.108       15199.882       3.4872500     -0.48825000      0.11425000       340.68300       2.4327222     0.010054219
       1532.0000       287.45226       98815.733       15229.803       2.8565000     -0.18400000     -0.28375000       340.88300       2.2947692    0.0099589956
       1537.0000       287.46840       98815.538       15217.698       3.3962500      -1.6785000     -0.13350000       340.47000       2.1531583     0.010583113
       1543.0000       287.39338       98809.383       15235.677       1.7402500     -0.50925000      0.73775010       340.76600       2.5726633     0.011061639
       1548.0000       287.39684       98809.130       15238.167       2.7685000     -0.20075000     -0.17100000       341.10200       2.3180270     0.013528521
       1553.0000       287.36144       98814.149       15153.451       1.9640000      0.58125000      0.76600000       341.11200       2.6721903     0.011949244
       1558.0000       287.39647       98816.204       15182.096       2.5920000     -0.53400000      0.86050000       341.25900       5.0698769     0.015151956
       1563.0000       287.56745       98819.781       15283.223       4.0592500       1.0902500      0.13700000       340.77000       4.6289030     0.013122589
       1568.0000       287.64077       98821.430       15386.470       3.6622500      0.54875000     -0.20875000       340.93800       3.6967265     0.013680886
       1573.0000       287.72891       98821.603       15612.746       2.6257500     -0.87850000     -0.62800000       340.90000       2.7366962     0.016434447
       1578.0000       287.71996       98820.263       15701.506       1.8880000     0.078250010      0.45025000       341.18400       2.4080677     0.010432792
       1583.0000       287.58855       98816.800       15742.911       3.3670000     -0.29500000     0.010250000       340.80900       2.5240804     0.012089024
       1588.0000       287.52843       98814.882       15746.188       3.6047500      -1.3537500     -0.23100000       340.29900       2.2769426     0.015120133
       1593.0000       287.41625       98809.458       15654.095       3.0530000     -0.96300010     -0.15550000       340.91700       2.1413126     0.012087010
       1598.0000       287.36735       98809.184       15579.852       3.6280000     -0.86300000     -0.39025000       340.44200       1.9748116     0.011438132
       1603.0000       287.40027       98814.022       15498.021       3.6265000      -1.3937500     -0.25200000       340.55600       2.0042311     0.010890229
       1608.0000       287.40054       98815.996       15399.420       3.7960000     -0.97075000    -0.039250000       340.52300       1.9255253     0.011471016
       1613.0000       287.40002       98819.947       15256.536       2.9712500     -0.76275000     -0.39850000       340.78900       1.9698821    0.0087908944
       1618.0000       287.40002       98821.620       15149.595       2.6387500     -0.40075000    -0.081750010       340.77400       1.9833164    0.0091042302
       1623.0000       287.38705       98820.337       15016.179       2.3932500     0.077750000      0.15900000       341.17000       1.9457035     0.010396931
       1628.0000       287.40056       98820.337       14953.503       1.6862500     -0.10725000      0.47450000       341.51700       1.9764882    0.0093364090
       1634.0000       287.41781       98820.447       14933.760       2.5755000      0.39925000     -0.30175000       341.13200       2.8393158     0.011641476
       1639.0000       287.47078       98820.490       14941.346       1.3205000      0.28425000     -0.10975000       341.17100       4.4053170     0.011252025
       1644.0000       287.58257       98820.277       14999.385       2.5180000     -0.24825000      0.29500000       341.40300       3.5447931     0.014585580
       1649.0000       287.63663       98820.305       15058.132       3.3090000       1.1627500      0.41200000       341.54500       3.9247868     0.012563980
       1654.0000       287.69870       98820.122       15109.653       4.0157500       1.1535000     -0.54775010       340.69100       3.2902197     0.011185631
       1659.0000       287.72654       98820.063       15227.759       2.6550000     -0.28400000    -0.099250000       341.30500       2.6513351     0.011792387
       1664.0000       287.70032       98820.385       15433.379       4.3240000      0.23325000     -0.27375000       341.01800       2.9212912     0.011508226
       1669.0000       287.70049       98820.429       15550.174       4.7077500     -0.31725000     -0.22425000       341.18100       4.7886318     0.012873029
       1674.0000       287.72283       98820.246       15730.911       3.9447500     -0.67700000     -0.41650000       341.09200       3.6818018     0.011080866
       1679.0000       287.68971       98820.275       15752.021       4.1430000      -1.4822500     -0.55975000       340.76100       3.0196852     0.014978025
       1684.0000       287.61580       98820.441       15631.271       2.4580000      0.56075000      0.22025000       341.82700       3.1949753     0.012819402
       1689.0000       287.57559       98820.516       15560.835       3.0665000      0.12725000     -0.34050000       340.62000       3.5471784     0.013229850
       1694.0000       287.48944       98820.274       15414.607       1.7590000     0.077500000      0.69075010       341.94300       4.5911579     0.019151839
       1699.0000       287.47781       98820.274       15330.226       3.7117500      -1.7000000      0.32825000       341.50400       4.4096488     0.012464919
       1704.0000       287.53129       98820.385       15277.939       3.8425000      0.44375000      0.56475000       341.92000       3.1810651     0.011561065
       1709.0000       287.56736       98820.429       15226.418       3.2927500     -0.16750000      0.34775000       341.76100       2.9062551     0.013272449
       1714.0000       287.65258       98820.337       15172.179       2.3240000    -0.045250000     -0.15800000       341.83500       3.2624219     0.012910060
       1719.0000       287.67020       98820.337       15152.984       3.7597500      -1.3775000     -0.43375000       341.40800       2.5730028     0.014402191
       1725.0000       287.65826       98820.454       15165.453       3.7372500      -1.5620000     -0.13925000       340.36100       2.9528647     0.014369911
       1730.0000       287.64933       98820.501       15177.118       5.0270000     -0.50250000     -0.25575000       340.72700       2.3836967    0.0095360178
       1735.0000       287.58048       98820.281       15203.418       4.1487500     -0.85700010     -0.37675000       340.66700       2.0515680     0.011553098
       1740.0000       287.60699       98820.314       15247.978       3.9692500      0.78975000    -0.037750000       340.82800       2.2519213    0.0095548054
       1745.0000       287.72088       98820.110       15325.290       2.9130000      0.13600000   -0.0035000000       341.33100       2.6783659     0.016413187
       1750.0000       287.70532       98820.051       15338.841       4.2712500     -0.27325000     -0.15900000       340.89700       3.0532949    0.0098244590
       1755.0000       287.65902       98820.393       15334.379       2.9922500      0.37050000      0.44100000       341.70800       4.4330094     0.013987472
       1760.0000       287.64043       98820.439       15352.382       3.7525000     -0.85250000    -0.093250010       341.12600       3.8793601     0.014023476
       1765.0000       287.53593       98820.139       15334.449       4.0222500     -0.72800000      0.13850000       341.55800       2.3097157     0.014313089
       1770.0000       287.52294       98820.080       15334.141       3.0865000      -1.9147500    -0.088750000       340.94800       1.9249807     0.014340615
       1775.0000       287.61953       98821.109       15386.173       3.2780000      -1.7405000     -0.26600000       341.01300       1.9541299     0.010393055
       1780.0000       287.59272       98819.233       15369.029       3.1030000      -2.3842500      0.80225000       341.73300       1.9971745     0.010261912
       1785.0000       287.50645       98814.728       15302.267       3.2295000      -1.6335000     0.094500010       341.39500       2.2755722     0.011849238
       1790.0000       287.46659       98814.623       15249.519       4.5460000      -1.6727500    0.0062500000       341.19700       2.4394702     0.012456631
       1795.0000       287.37621       98814.731       15180.689       3.4337500     -0.55575000      0.12575000       340.66100       2.0791088     0.010466783
       1800.0000       287.39148       98815.650       15129.597       4.0630000     -0.93100010     -0.48225000       340.63300       1.9210836     0.011166904
       1805.0000       287.50081       98820.732       15082.367       3.5930000      -1.5570000      0.12425000       341.21000       1.9516416     0.011720986
       1811.0000       287.52464       98822.038       15004.081       3.7810000     -0.28075000     -0.39375000       340.69700       1.9164655     0.012362338
       1816.0000       287.56359       98820.128       14932.649       1.8137500     -0.32500000    -0.013750000       341.09600       1.9634285    0.0099684859
       1821.0000       287.56063       98820.068       14892.461       3.3572500     -0.94950000     -0.41325000       340.65400       2.2609590     0.011530983
       1826.0000       287.49375       98820.212       14837.288       5.2750000      0.17800000      0.14325000       340.57400       2.5108217     0.018213702
       1831.0000       287.47018       98820.189       14826.075       3.4990000      0.32450000   -0.0077500000       340.65800       2.6231089     0.010240988
       1836.0000       287.48731       98820.130       14881.151       2.5787500      0.59750000     -0.19875000       341.27000       2.0127618     0.011800081
       1841.0000       287.57502       98820.308       15055.019       5.5410000     -0.28100000     -0.63575010       340.90000       2.2177138    0.0097286999
       1846.0000       287.60580       98820.273       15153.415       6.2795000     -0.24250000     -0.71275000       340.58200       3.9792471     0.013527150
       1851.0000       287.62429       98820.223       15241.971       4.1412500       2.2042500      0.16375000       340.74800       2.6433951     0.016295698
       1856.0000       287.65679       98820.127       15381.624       4.8180000    -0.057000000      0.16075000       340.76100       5.0093203     0.014652116
       1861.0000       287.67513       98820.068       15409.011       3.2727500     -0.44750000      0.49825000       341.32600       3.7893508     0.012299587
       1866.0000       287.63234       98820.211       15331.634       3.8285000     -0.87875000      0.63125000       340.67200       3.4140872     0.024055258
       1871.0000       287.71680       98820.188       15335.757       5.5177500      -1.1457500    0.0032500000       340.71800       2.8065842     0.019128271
       1876.0000       287.79601       98820.129       15350.601       5.0245000     -0.30600000      0.42575000       340.96100       2.5970234     0.037037423
       1881.0000       287.96138       98820.308       15421.461       3.9337500     -0.77725010      0.37250000       341.36700       3.4122438     0.013477043
       1886.0000       288.02519       98820.272       15446.559       5.2380000      -1.0747500      0.61750000       340.94600       3.5144405     0.011147442
       1891.0000       287.94991       98820.365       15416.886       3.3727500     -0.22275000   -0.0085000000       340.60500       3.4198778     0.011113286
       1896.0000       287.98699       98820.401       15431.500       2.2127500      -3.1997500     -0.21450000       340.76200       2.4479011     0.014595391
       1902.0000       288.11082       98826.273       15434.835       2.3352500     -0.30325000      0.65075000       341.11900       2.0207704     0.010766515
       1907.0000       288.10806       98821.750       15468.551       3.3305000      0.90325000      0.12150000       341.21900       2.3946987     0.010314112
       1912.0000       288.15113       98802.303       15618.689       2.1172500     -0.99975000      0.62325000       341.70400       3.1279681     0.010624214
       1917.0000       288.12391       98797.576       15655.029       3.1697500      0.59375000     0.014250000       341.08600       2.8987301     0.012539295
       1922.0000       287.87001       98794.402       15630.519       3.7200000      -1.9067500     0.075000000       340.62100       3.4891012     0.014185972
       1927.0000       287.75376       98792.848       15603.006       5.0010000      -2.4740000     -0.26125000       340.53300       2.3810066     0.012207985
       1932.0000       287.70500       98811.653       15498.316       5.7627500     -0.86700000     -0.59025000       341.01200       2.0401738     0.010604767
       1937.0000       287.67905       98813.846       15422.067       4.5227500     -0.12950000     -0.54125010       341.12200       2.0068802     0.014346792
       1942.0000       287.73360       98798.986       15360.268       4.2250000     -0.10475000     -0.24575000       341.27800       3.4074548     0.015608332
       1947.0000       287.75383       98794.182       15300.120       3.5335000     -0.90625010      0.54375000       341.69800       3.8705150     0.012718141
       1952.0000       287.79021       98788.175       15221.494       5.0997500      0.93200000      0.25825000       341.07300       2.4034322    0.0096522261
       1957.0000       287.80920       98783.409       15172.574       4.2825000     -0.14000000     -0.20225000       341.16300       3.8164292     0.011794017
       1962.0000       287.78632       98784.433       15124.543       3.6775000      0.55200000     -0.40950000       341.00400       3.8148492     0.012741845
       1967.0000       287.79760       98785.419       15123.363       5.0652500       1.2050000      0.25800000       340.83300       4.0519585     0.013913669
       1972.0000       287.83421       98786.026       15180.157       4.9410000       1.1365000      0.32450000       340.90500       4.1680866     0.016068944
       1977.0000       287.85401       98785.018       15216.563       4.1555000       1.2355000     -0.44700000       340.96500       3.3825993     0.010951441
       1982.0000       287.89004       98785.990       15273.618       4.2765000      0.55800000     -0.38825000       340.83900       4.0532864     0.013017817
       1987.0000       287.90862       98785.853       15335.200       2.4900000       1.0562500     0.022000000       341.53100       3.2693692     0.012722337
       1993.0000       287.90021       98780.819       15406.318       3.6862500      0.56525000      0.19375000       341.52000       3.5424187     0.013933773
       1998.0000       287.90016       98779.188       15457.448       3.1287500     -0.13000000       1.0337500       341.49000       2.2159120    0.0086303724
       2003.0000       287.91312       98780.377       15554.247       2.9417500      0.86325000      0.15725000       340.96700       2.5444465     0.011815892
       2008.0000       287.89958       98780.417       15574.934       3.0530000     -0.66075000      0.26175000       340.93000       2.7106677     0.012611611
       2013.0000       287.88746       98780.266       15547.616       1.3995000     -0.50800000      0.11550000       341.49600       2.8298976     0.012103917
       2018.0000       287.84021       98780.226       15503.533       2.6947500     -0.34700000    -0.027250000       341.26300       2.7512901     0.012568659
       2023.0000       287.75445       98780.274       15422.342       2.2865000     -0.45350000     0.065750000       341.54700       2.6097179     0.010928478
       2028.0000       287.67125       98780.274       15317.388       2.8907500      -1.2367500     0.016500000       341.30600       2.0833606     0.011146374
       2033.0000       287.50815       98778.772       15149.051       3.6457500      -1.3222500    -0.062250000       341.14500       2.3279433     0.010268273
       2038.0000       287.46357       98780.119       15044.299       3.0540000     -0.64675000     -0.18500000       341.06100       1.9962574     0.011050587
       2043.0000       287.48698       98777.885       14927.818       3.5602500     -0.99850000      0.70550000       341.06200       2.0288079     0.011953704
       2048.0000       287.49461       98786.958       14850.880       2.9110000      -2.2605000     -0.63475000       341.09400       2.0489155     0.010832599
       2053.0000       287.60341       98812.991       14840.244       2.0277500      -1.3915000      0.70775000       341.26400       2.2297776    0.0098348127
       2058.0000       287.62245       98820.603       14808.591       3.0010000      -2.9135000    -0.098500010       341.00900       1.9682099    0.0094292305
       2063.0000       287.56153       98829.182       14763.782       4.5597500      -2.0342500      0.32300000       341.39000       1.9376173     0.010259334
       2068.0000       287.54146       98828.528       14753.064       2.7755000      -1.0665000     -0.29675000       341.28000       1.8982722    0.0096826333
       2073.0000       287.49197       98804.022       14745.122       2.2952500      -1.8577500      0.40175000       341.45700       2.0028325     0.012454708
       2078.0000       287.48919       98795.098       14781.726       4.5625000      -2.9782500     -0.41050000       341.15600       1.9482835    0.0098711808
       2084.0000       287.54100       98788.033       14890.324       4.3342500      -1.3060000     -0.24800000       340.63500       1.9657609     0.010287788
       2089.0000       287.56112       98788.582       14963.053       3.2970000     -0.96175000     -0.28700000       340.71600       1.9226432     0.010122662
       2094.0000       287.62122       98797.589       15101.973       3.3032500      -1.8232500     0.088500000       340.72000       1.9380649     0.010043934
       2099.0000       287.60264       98803.265       15123.535       5.1397500      -1.6425000     -0.69275000       341.30700       1.9282888     0.010271833
       2104.0000       287.51476       98814.579       15070.103       3.0420000     -0.76925000      0.18625000       341.11400       1.9015619    0.0093918969
       2109.0000       287.47454       98819.433       15038.014       2.8052500     -0.96175000      0.44425000       341.05800       1.9143979     0.011394320
       2114.0000       287.40114       98820.251       14940.174       3.0097500     -0.46350000      0.32750000       341.17600       2.1109262     0.019286757
       2119.0000       287.37383       98821.648       14889.463       3.1690000    -0.036000000    -0.057000000       341.34500       2.5206372     0.010366410
       2124.0000       287.38843       98820.401       14877.835       3.4655000     -0.48425000      0.62300000       340.97100       2.4487842     0.011931680
       2129.0000       287.40491       98820.488       14836.465       4.6860000     -0.41950000     -0.13650000       341.21800       2.2776042     0.012065782
       2134.0000       287.45321       98820.444       14780.641       3.8415000    -0.031500000      0.79450010       341.37900       1.8260726     0.013931471
       2139.0000       287.45683       98820.546       14734.306       3.3785000     -0.34150000     -0.23125000       341.02200       3.3287474     0.011761353
       2144.0000       287.44548       98820.122       14656.603       3.2305000      0.71250000      0.43375000       341.04800       3.6592536     0.016813355
       2149.0000       287.45547       98820.062       14652.384       3.8840000      -1.6902500      0.46275000       340.99000       4.8890911     0.014387815
       2154.0000       287.45409       98817.984       14700.864       3.4932500     -0.69775000      0.53350000       341.06300       2.7405490     0.012621961
       2159.0000       287.44413       98821.223       14720.309       3.7082500      -1.4665000      0.26100000       341.06200       2.0427423     0.011832663
       2164.0000       287.44626       98828.554       14767.767       3.4972500      -1.9020000      0.14350000       341.17700       2.0349612     0.012774871
       2169.0000       287.45633       98832.509       14814.020       2.6860000     -0.89950010     -0.25325000       340.88800       1.9865492     0.011225732
       2175.0000       287.43315       98840.787       14835.764       4.1035000     -0.37225000     -0.13525000       340.73300       1.9733739     0.011278470
       2180.0000       287.46128       98842.978       14902.171       3.9665000    -0.078500000    -0.098500010       340.61100       1.9266846     0.010287868
       2185.0000       287.55767       98841.941       15040.164       3.2467500     -0.29275000      0.10425000       340.79500       1.9361792     0.010415045
       2190.0000       287.57059       98838.162       15081.743       3.9185000      -1.1365000    -0.068750000       340.64600       2.0242398     0.010048286
       2195.0000       287.56563       98830.827       15111.200       4.0192500      -1.3307500     -0.51700000       340.63800       2.8190926     0.010552834
       2200.0000       287.53850       98826.790       15088.579       4.1987500      -1.6317500    -0.031000000       340.82500       2.3679714     0.012804345
       2205.0000       287.44207       98819.685       14981.719       2.1747500      -1.2745000      0.18325000       340.70400       1.9916800     0.011150164
       2210.0000       287.42957       98817.427       14936.358       3.0892500     -0.79025010     -0.23750000       340.89800       2.0074395     0.011415425
       2215.0000       287.42378       98820.455       14873.177       4.1765000     -0.98300000      0.17450000       340.68100       2.3437891     0.010891515
       2220.0000       287.47114       98820.501       14860.501       3.6917500      -1.3927500     -0.12425000       341.02000       1.9306583    0.0093198234
       2225.0000       287.60357       98821.172       14888.926       2.9932500      -1.9772500     0.066000000       340.80800       2.0227807     0.010522625
       2230.0000       287.63619       98819.295       14894.254       2.5482500     -0.36550000      0.28575000       341.04700       2.0376033     0.010987274
       2235.0000       287.67791       98815.412       14916.763       3.0587500     -0.93725000    -0.037500000       340.94200       1.8542520     0.013173562
       2240.0000       287.64330       98813.358       14923.465       4.3627500      -2.3845000     -0.14275000       340.55700       2.0196537    0.0098142048
       2245.0000       287.49584       98811.780       14911.333       3.7115000      0.61675000      0.62250000       341.08700       1.8817012     0.014003492
       2250.0000       287.46393       98806.984       14918.053       2.9342500      -1.6650000      0.26675000       341.07600       1.9745822    0.0095383067
       2255.0000       287.44000       98801.205       14930.911       2.8242500      -1.6282500     -0.12575000       340.73300       1.8782071    0.0098466739
       2260.0000       287.43714       98797.247       14944.508       1.9972500     -0.74675010     -0.49500000       341.00300       1.9073857    0.0097049893
       2266.0000       287.50704       98789.751       14972.540       3.5712500      -2.8380000      0.24625000       340.75800       1.9123911    0.0099485337
       2271.0000       287.51596       98785.890       14979.269       4.3295000      -1.9450000     -0.66850000       340.57900       2.0171383     0.011198187
       2276.0000       287.49378       98785.304       14974.089       3.7250000     -0.43525000     -0.46375000       340.92600       1.9412786    0.0083511768
       2281.0000       287.53044       98780.328       15008.042       3.0360000     -0.21375000     -0.62700000       340.81300       1.9815505     0.010327689
       2286.0000       287.55071       98779.042       15021.636       2.3777500     -0.39900000      0.41575000       340.89100       2.1978710     0.010192164
       2291.0000       287.59999       98784.940       15057.994       2.9005000    0.0025000000      0.17050000       340.93000       2.5721502     0.012198272
       2296.0000       287.61212       98786.087       15062.986       2.3752500     -0.55475000     -0.20775000       340.88900       4.0901393     0.012563831
       2301.0000       287.59960       98785.998       15043.816       4.2280000     -0.61575000    -0.099750000       340.81700       3.6654591     0.011168266
       2306.0000       287.55105       98785.640       14983.552       4.0077500     -0.86825000    -0.030750000       340.81700       3.1606012     0.012212522
       2311.0000       287.53080       98786.756       14960.561       3.8017500      -1.0732500      0.42625000       340.93400       2.4902342     0.011140033
       2316.0000       287.49379       98784.597       14931.586       4.5245000     -0.93025000     -0.70900010       340.42800       2.6210349     0.011380672
       2321.0000       287.50006       98788.763       14942.287       4.9097500     -0.51825000   -0.0025000000       340.52100       2.1903590     0.010935947
       2326.0000       287.50008       98790.882       14924.768       4.0117500      -1.0460000     -0.32200000       340.90700       2.3965921     0.010158537
       2331.0000       287.50011       98790.334       14869.582       2.5515000      0.12375000     -0.32575000       340.91500       2.0537873    0.0095100199
       2336.0000       287.50025       98790.358       14838.901       3.3887500      0.23875000    -0.038500000       340.74900       2.1659339    0.0095179942
       2341.0000       287.48490       98787.221       14787.601       3.6427500      -1.5457500     -0.23025000       340.49100       2.0794006    0.0093774524
       2346.0000       287.49335       98788.902       14768.885       2.8457500     -0.54500000      0.26975000       341.01500       2.3803952    0.0096842383
       2352.0000       287.50432       98797.142       14783.921       1.5480000      0.17225000      0.28825000       341.65300       2.3922131     0.011561096
       2357.0000       287.54722       98801.243       14817.725       1.8650000      0.23075000      0.13850000       340.86100       3.0243451     0.014309093
       2362.0000       287.65756       98806.751       14888.490       1.9540000     -0.52975000      0.26650000       341.33900       5.2314103     0.013598154
       2367.0000       287.71673       98811.649       14949.131       2.4672500     -0.50850000     -0.14800000       340.88600       5.3535607     0.013717808
       2372.0000       287.76609       98813.609       14994.709       2.4360000      0.62700000     -0.16800000       341.34600       3.6566724     0.012741962
       2377.0000       287.81508       98815.587       15089.444       2.5215000      0.57225000      0.11875000       341.41400       3.2470877     0.022697783
       2382.0000       287.83444       98819.447       15239.586       3.9300000      0.41375000  -0.00075000000       341.11100       4.5621564     0.014996672
       2387.0000       287.85434       98821.371       15343.584       3.7002500      0.79350010     -0.22650000       341.04700       5.3948436     0.020301874
       2392.0000       287.89052       98817.459       15507.298       3.1395000    -0.010750000      0.10850000       340.91100       3.8938022     0.016547668
       2397.0000       287.90915       98819.764       15584.264       2.8837500      0.24350000     -0.29975000       341.14200       2.9936350     0.010010200
       2402.0000       287.91392       98827.009       15577.614       2.5147500      0.29025000      0.24075000       341.64500       2.5351704     0.011371834
       2407.0000       287.90243       98830.979       15561.700       1.5297500     -0.82325010    -0.013500000       341.60800       2.7927623     0.010670527
       2412.0000       287.85111       98841.118       15477.338       2.4705000      0.46725000    -0.087750000       341.36800       3.7836929     0.013072323
       2417.0000       287.84213       98842.638       15426.703       2.2935000     -0.32625000     -0.53025000       340.75500       3.2118628     0.011132475
       2422.0000       287.85811       98833.409       15393.604       1.9107500    -0.090750000      0.12825000       341.17400       2.6156827     0.011233103
       2427.0000       287.84827       98829.400       15327.732       1.9560000     -0.23100000    0.0020000000       341.75200       2.8812136     0.011976508
       2432.0000       287.87044       98822.329       15240.186       1.4510000     -0.51175000      0.10525000       341.06400       3.3128348     0.011483002
       2437.0000       287.85819       98818.652       15177.313       2.2987500     -0.46900000     0.019750000       341.03600       3.1245098     0.011466646
       2443.0000       287.76774       98821.680       15057.814       1.9492500     -0.23200000      0.88075010       341.24600       2.4922859     0.012082744
       2448.0000       287.73151       98820.325       15017.510       3.4817500      -1.3705000     -0.44725000       340.87900       2.0297878     0.011836812
       2453.0000       287.69278       98816.651       15029.712       2.0272500     -0.18900000      0.30350000       341.39600       2.0809486     0.010325412
       2458.0000       287.69017       98814.714       15051.121       3.4895000     0.099250000    -0.045000000       341.02400       2.3585265     0.010480492
       2463.0000       287.75147       98813.313       15140.858       1.7670000     -0.62350000      0.24400000       341.55500       2.1076669     0.010042106
       2468.0000       287.75805       98808.938       15161.281       2.6997500      -1.6135000      0.37600000       341.25000       2.0601612    0.0098495672
       2473.0000       287.74432       98802.794       15139.700       3.6160000     -0.39600000      0.16350000       340.90700       2.1352102     0.011327023
       2478.0000       287.75443       98798.883       15161.980       3.9950000    -0.065500010     -0.14125000       340.83700       2.8156224     0.012372651
       2483.0000       287.74274       98792.626       15157.005       4.4030000      -1.0445000      0.47675000       341.06100       2.5377620     0.010942385
       2488.0000       287.74701       98788.025       15182.779       4.9185000      -2.4917500      0.13175000       340.92800       2.2344134    0.0095987706
       2493.0000       287.83261       98786.423       15320.424       3.2932500      -1.5007500     -0.18575000       341.20800       2.0260517    0.0096290587
       2498.0000       287.80701       98784.409       15322.823       5.1147500    -0.027750000    -0.056000000       341.05500       1.9938905    0.0096674152
       2503.0000       287.68363       98779.436       15242.436       3.0730000      0.25550000      0.21875000       341.38100       1.9469689     0.011199353
       2508.0000       287.62328       98779.181       15178.166       3.5880000      0.18875000      0.54425000       341.22600       1.9979690     0.012355364
       2513.0000       287.51442       98784.091       15038.377       2.7472500      -1.1552500      0.50125000       341.18600       2.5114485     0.014901877
       2518.0000       287.46640       98786.024       14943.028       3.8172500      -1.0797500     0.017250000       341.04800       2.3000585    0.0098305861
       2523.0000       287.50016       98787.346       14880.579       3.7490000      -1.2830000     0.084750000       341.16500       1.9671775    0.0095220036
       2528.0000       287.50032       98791.762       14803.344       2.6242500      -1.3742500     -0.49300000       341.10200       1.8823181    0.0094473097
       2534.0000       287.47659       98798.510       14663.842       3.1360000      -1.3660000     -0.24275000       341.10200       1.9684285    0.0090576090
       2539.0000       287.50940       98802.536       14637.892       3.6452500     -0.89475010      0.32575000       340.81900       1.8586633     0.011067560
       2544.0000       287.56161       98808.869       14633.668       3.7107500     -0.74225000      0.39025000       341.06600       1.9326401    0.0089581277
       2549.0000       287.63420       98813.294       14694.737       3.0435000     -0.81825010      0.76675000       341.11700       1.9503486    0.0098755446
       2554.0000       287.80647       98812.155       14875.212       3.7097500      -1.1760000     -0.34625000       341.09900       1.9443391    0.0094173191
       2559.0000       287.84234       98817.310       14984.021       3.6280000     -0.26675000     -0.50600000       341.01000       2.0223870     0.015276237
       2564.0000       287.82513       98828.528       15123.726       3.4130000     -0.76425000       1.3845000       341.06500       1.9529930     0.010100259
       2569.0000       287.79629       98833.792       15194.349       2.6950000     -0.54975000      0.44650000       341.14700       1.9689661     0.011103907
       2574.0000       287.66025       98842.562       15219.194       1.6710000      -1.3185000    -0.064500000       341.03300       1.9069001    0.0097898859
       2579.0000       287.61308       98841.973       15228.227       4.1032500     0.094000000     -0.32875000       340.60500       1.9234657    0.0092831740
       2584.0000       287.60102       98831.955       15190.340       2.9007500     -0.65175000      0.48175000       340.76500       1.9583169     0.012418263
       2589.0000       287.58721       98828.012       15172.032       3.8117500      -1.8500000     -0.23500000       340.81500       2.0141513     0.014228503
       2594.0000       287.61136       98820.397       15170.388       2.8817500      0.41725000      0.53750000       341.34600       1.9253001    0.0091127126
       2599.0000       287.59528       98817.627       15102.339       3.5087500      0.27025000      0.46900000       340.89500       1.9168156    0.0095615777
       2604.0000       287.54698       98821.468       14987.012       2.7267500     -0.91175000     0.093000000       340.81000       1.8605242     0.019604079
       2609.0000       287.54346       98819.893       14907.357       3.6477500     -0.79975000     -0.16750000       340.76800       1.9216647    0.0094238953
       2614.0000       287.53110       98816.265       14756.958       3.2402500      0.22900000      0.13175000       340.89500       1.9835872    0.0091473784
       2619.0000       287.55290       98814.325       14711.161       4.4310000      0.86400000     -0.44325000       340.91500       1.9210211    0.0089554359
       2625.0000       287.64774       98812.018       14749.580       3.6742500      -1.1552500     -0.20225000       340.82200       1.9909672     0.010596314
       2630.0000       287.67894       98807.161       14767.645       3.5407500     -0.87750010     -0.68150000       340.89700       1.9465893    0.0092788363
       2635.0000       287.70227       98798.456       14814.688       1.8727500      0.27850000      0.76425000       341.31700       1.9237313    0.0099291141
       2640.0000       287.71355       98800.106       14863.123       3.4150000      0.87825010     -0.42675000       341.09400       1.9474017     0.010630944
       2645.0000       287.70878       98804.420       14903.897       3.1870000     -0.88500010    -0.058250000       340.67900       1.8776520     0.011935064
       2650.0000       287.69017       98806.247       14989.796       3.4622500     -0.20175000     -0.12750000       340.89400       1.9425040    0.0089728396
       2655.0000       287.67189       98816.645       15157.073       3.6910000       2.4247500      0.63650000       340.84600       1.9278477    0.0096101497
       2660.0000       287.61470       98818.007       15176.188       3.5427500      0.29450000     -0.13025000       340.85400       1.9283428    0.0095816400
       2665.0000       287.51531       98809.782       15181.876       4.6495000     -0.47350000      0.17975000       340.80300       1.9020675     0.010220147
       2670.0000       287.44453       98808.631       15104.935       5.5575000      0.31125000      0.40050000       340.83800       1.9159811     0.010143095
       2675.0000       287.34871       98810.195       14886.295       4.9552500      0.60200010      0.11500000       340.88400       1.8832548     0.010417521
       2680.0000       287.30620       98810.182       14774.671       6.6102500      -2.5167500      0.27100000       340.41700       2.0024547     0.014436710
       2685.0000       287.28766       98809.450       14667.669       4.8335000     -0.78775010     0.020750000       340.57500       1.9471811    0.0090964446
       2690.0000       287.29482       98811.307       14584.170       4.2377500      -1.2487500      0.19050000       340.72900       1.9914393     0.012241878
       2695.0000       287.33759       98814.645       14526.728       2.9375000      0.22600000     -0.15975000       340.75300       1.9524304    0.0092578023
       2700.0000       287.37623       98816.541       14477.716       2.6027500      0.64050000     -0.45450000       341.06000       1.9905767    0.0098132134
       2705.0000       287.43992       98820.621       14426.262       1.7777500     -0.60775010      0.58800000       341.23600       1.9221961     0.011727300
       2710.0000       287.48950       98821.737       14427.460       2.1205000      0.47625000      0.87725000       341.12400       1.9366080    0.0079751808
       2716.0000       287.55564       98820.892       14470.976       3.2787500      0.75375000      0.72900000       340.65400       1.9131785     0.010360154
       2721.0000       287.58469       98818.680       14523.454       3.4742500      0.70925000     0.029000000       340.82000       1.9572412     0.010428398
       2726.0000       287.61208       98814.557       14622.052       3.3370000      -1.2155000     -0.36950000       340.88100       1.9575133    0.0093144144
       2731.0000       287.56976       98816.381       14652.954       3.7735000       1.2010000     -0.17875000       340.65200       1.8937472     0.011454986
       2736.0000       287.54960       98815.388       14711.908       3.9207500      0.64225000      0.20600000       340.68100       1.8697976     0.012270899
       2741.0000       287.49976       98818.740       14776.624       5.1265000      -1.2962500     -0.23700000       340.59500       1.8992797     0.010455438
       2746.0000       287.48736       98817.084       14840.590       3.2872500     -0.96750000     -0.14625000       340.66900       1.8593444     0.010903491
       2751.0000       287.49948       98811.719       14914.379       3.7162500      -1.3747500     -0.24700000       340.84700       1.9072592    0.0086055586
       2756.0000       287.55536       98800.363       15039.010       1.8642500     -0.82750000      0.47250000       341.08600       1.9583073    0.0093385128
       2761.0000       287.55380       98793.252       15048.246       2.6452500     -0.81375000      0.10375000       340.92100       1.9732836     0.010668158
       2766.0000       287.55598       98783.590       15014.967       2.9055000     -0.33750000     0.063500000       340.75300       1.9881945     0.013182896
       2771.0000       287.50005       98784.860       14912.675       3.2507500     -0.39450000     -0.35900000       340.72800       1.8327251     0.010176129
       2776.0000       287.48735       98784.756       14862.490       3.2615000     -0.32175000    -0.061000000       340.75400       1.8446079     0.011306271
       2781.0000       287.53033       98784.401       14859.824       2.4835000      -1.3935000     -0.30300000       341.06900       1.9817975     0.010674627
       2786.0000       287.55012       98789.144       14843.937       2.7620000     -0.28800000    0.0080000000       340.85300       1.9095865    0.0091369020
       2791.0000       287.59991       98799.190       14857.558       3.7992500      -1.4330000    -0.052750000       340.80400       1.8886598    0.0094019549
       2796.0000       287.61234       98805.116       14848.940       3.6192500     -0.99650010     0.041000000       340.87500       1.9786687     0.012935087
       2801.0000       287.60014       98811.041       14826.874       3.0915000      -1.0365000     0.084250000       340.80500       1.9364172     0.010019473
       2807.0000       287.54332       98823.013       14772.668       3.0857500     -0.28425000      0.12100000       340.91100       1.9185543    0.0094965129
       2812.0000       287.55826       98817.468       14789.306       2.3110000     -0.77025000      0.37800000       341.10500       1.9292813    0.0087042611
       2817.0000       287.54811       98819.751       14797.388       2.7585000      -2.0552500     -0.41325000       340.85900       1.8969273    0.0093482988
       2822.0000       287.55555       98830.056       14841.206       3.1167500     -0.17250000       1.0122500       341.08800       2.0116047     0.012108774
       2827.0000       287.55432       98831.909       14867.485       3.2662500      -1.3387500     -0.25200000       340.93500       1.9059046    0.0093455760
       2832.0000       287.50958       98831.588       14856.928       3.6347500     -0.41375000     0.062750000       340.90800       1.9171641    0.0093210391
       2837.0000       287.49083       98831.313       14875.850       3.4732500     -0.74700000     -0.14950000       340.81900       1.8712579    0.0095407369
       2842.0000       287.50063       98826.708       14931.489       3.7910000      -1.0927500     -0.40125000       340.67300       1.9396932    0.0097852129
