MIRICO/SHELL project - Processed LDS file generated on
Thu Jul 20 01:19:59 2017
Time stamp for record start
05/12/2017  09:48: 0.0000
Nb of points in the record
         563
Beam position index
       3.0000000
Beam angle (degrees)
     -0.96000000
Open Path length (m)
       44.550000
****************** Temporal data record ************************
Elapsedtime_sec Temp_K Press_Pa Humidity_ppmv WindX_m/s WindY_m/s WindZ_m/s Speedofsound_m/s CH4vmr_ppmv CH4vmrerror_ppmv  
      0.00000000       286.76999       98772.687       15146.635       3.9595000       1.0090000    -0.058750000       340.56700       2.0402304     0.010487161
       5.0000131       286.75006       98768.258       15137.480       3.1400000       1.2730000     -0.10375000       340.55900       2.0115558     0.010106129
       10.000026       286.73007       98767.509       15123.698       3.4072500       1.0137500     0.036000000       340.87500       2.0781140     0.010371218
       14.999999       286.68738       98768.300       15087.408       2.9292500       2.3485000     -0.36875000       341.04800       1.9028626     0.016680860
       20.000012       286.70034       98772.734       15083.644       2.8735000      0.89700000     0.058000000       340.99200       2.0766146     0.013927009
       25.000025       286.73803       98785.115       15085.529       3.3000000       1.0255000     -0.23325000       340.94000       1.9948649     0.011946529
       29.999998       286.87593       98793.455       15201.824       4.0502500      0.84575000      0.12550000       340.82900       2.0399026     0.013569435
       35.000011       286.92103       98800.536       15243.913       1.6380000     0.089000000     0.078250010       341.17400       2.0307873     0.010374068
       40.000024       286.89494       98810.187       15250.101       3.1345000      0.54400000      0.12775000       341.08300       1.9166320     0.013708249
       45.000038       286.90594       98816.308       15290.746       3.4975000      0.96625010      0.40625000       340.91400       1.9363543     0.015496647
       50.000010       286.90464       98819.972       15323.427       3.5210000     -0.97325000     0.097250010       340.94200       2.0747976     0.012544971
       55.000024       286.83704       98821.684       15295.289       3.7245000      0.42575000      0.34925000       340.87700       1.9751953     0.016716981
       61.000031       286.90409       98819.658       15426.263       4.9172500      0.69625000     -0.37375000       340.75100       2.0696768     0.010567114
       66.000004       286.91165       98815.411       15457.660       3.0647500       1.4397500     0.073000010       340.93500       2.0160163     0.011687087
       71.000017       286.83725       98805.644       15411.725       2.6287500      0.29175000    -0.046750000       340.88500       2.0200701     0.010439818
       76.000030       286.83941       98798.581       15393.830       3.9900000     -0.13550000    -0.087750000       340.71300       2.0464076    0.0099065183
       81.000003       286.84976       98791.683       15309.580       3.6362500     0.014250000     -0.30400000       340.77400       1.9902798    0.0099784607
       86.000016       286.89358       98783.801       15298.240       4.1620000      0.13775000    -0.031250000       340.65600       2.1043209     0.010332249
       91.000029       287.06236       98771.510       15365.661       2.7697500      0.87300000     -0.63475000       340.94200       2.0339350    0.0082911946
       96.000002       287.12815       98767.838       15393.766       3.2567500      0.77250000     0.034250000       340.93200       2.0631192    0.0094771764
       101.00002       287.17691       98767.431       15436.554       2.3935000      0.85100000      0.13475000       341.18500       1.9577638     0.010448002
       106.00003       287.17175       98768.836       15475.813       2.5027500      0.73450010     0.057250000       341.19700       2.0756007    0.0098666542
       111.00000       287.04277       98778.686       15497.551       2.3910000      0.88975010      0.35600000       341.35200       2.0820927    0.0095914518
       116.00001       286.98394       98786.724       15512.723       2.8160000      0.82350000     -0.18000000       340.75600       2.0352928     0.010274963
       121.00003       286.93355       98796.354       15568.970       2.1902500      0.64550000     0.028000000       341.07800       2.0480263    0.0091054649
       126.00000       286.88451       98802.334       15557.890       2.3407500       1.1807500      0.55075000       341.23900       2.0185006    0.0088670770
       131.00001       286.86634       98807.037       15476.403       2.2495000      0.58100000     0.064250000       340.96100       2.0430600     0.010378035
       136.00003       286.84669       98811.924       15418.831       3.8720000      0.50825000     -0.31200000       340.53700       2.0029211     0.012641936
       141.00000       286.83901       98813.757       15330.103       2.9880000       1.2697500     0.040500000       340.88000       1.9659086     0.014453910
       146.00001       286.79756       98815.844       15250.814       2.6782500      0.32750000      0.53275000       341.15600       2.0071480    0.0089209663
       152.00002       286.72367       98821.084       15177.512       2.7120000       1.2277500    -0.012500000       340.96400       1.9479300     0.012970777
       157.00003       286.68343       98821.361       15107.503       2.7980000      0.28225000     0.068250000       340.96300       2.0669332    0.0095251145
       162.00001       286.62224       98818.959       15031.569       2.3107500       1.1952500      0.16475000       341.25300       1.8977983     0.027807925
       167.00002       286.57588       98814.219       14944.891       1.7975000       2.1890000     0.012250000       340.92200       2.0733594     0.011168610
       172.00003       286.53625       98804.331       14807.317       2.9140000       2.1855000     -0.39000000       340.80900       1.9697333     0.011923408
       177.00001       286.54402       98797.338       14763.086       3.2722500       1.7840000      0.23800000       341.01000       1.9770624     0.011473086
       182.00002       286.58118       98787.383       14747.571       2.0835000       2.7097500      0.32250000       341.02800       2.0524674    0.0092473094
       187.00003       286.60475       98782.106       14755.043       2.9657500       1.2872500      0.40650000       340.76400       2.0687301    0.0094479435
       192.00000       286.68977       98780.757       14842.042       2.7457500       2.3830000    -0.035750000       340.51700       1.9824450     0.010548720
       197.00002       286.72205       98779.149       14914.220       2.7427500       1.2387500     -0.87175010       340.62700       1.8080706     0.020289089
       202.00003       286.69962       98779.108       15002.833      0.86425010       1.0192500      0.64650010       341.00700       2.0681982     0.011259019
       207.00000       286.69954       98780.562       15060.297       3.2900000      0.80000000    -0.031250000       340.98800       2.0583696     0.010027991
       212.00002       286.67432       98781.561       15104.157       3.0692500       1.7742500      0.10850000       340.67700       1.9780263     0.010781626
       217.00003       286.70153       98786.281       15175.210       3.6395000       2.0327500     -0.74050000       340.58500       2.0485709     0.011542038
       222.00000       286.78910       98797.470       15267.523       2.9757500       1.0120000     -0.25775000       340.80300       1.9684473     0.017165773
       227.00002       286.81508       98803.041       15298.542       2.8605000       1.2162500      0.27200000       340.94900       2.0572812    0.0095349280
       232.00003       286.83972       98812.184       15327.095       2.7060000      0.99875000     -0.47400000       340.75900       1.8985902     0.015142505
       238.00004       286.86946       98812.187       15345.163       1.9805000      0.37075000      0.27025000       341.27300       1.9940461     0.012020391
       243.00001       286.84371       98799.759       15297.651       2.5080000      0.23475000     -0.17775000       340.86700       1.9952443     0.010129962
       248.00002       286.85021       98799.087       15258.131       2.5355000      0.91800000     -0.16025000       340.97800       2.0160893     0.010748514
       253.00004       286.89956       98799.096       15219.225       3.0322500      0.34825000     -0.31300000       340.73400       2.0223863     0.010143528
       258.00001       286.91346       98800.403       15203.219       2.6997500      0.28950000      0.25725000       340.98900       1.8804656     0.021902555
       263.00002       286.92252       98812.474       15174.216       1.9535000      0.57975000     -0.37825000       341.23500       2.0309853    0.0096301167
       268.00003       286.89021       98811.994       15144.413      0.76800000       1.2565000      0.46725000       341.20500       2.0228472     0.011442793
       273.00001       286.81625       98803.004       15147.843       2.2840000      0.97675010     0.019250000       341.06100       1.8898671     0.018707902
       278.00002       286.77655       98797.419       15135.741       2.4930000      0.98075000    -0.090000000       341.19600       2.0589215     0.010577787
       283.00003       286.70202       98788.809       15080.494       2.2737500       1.4072500     -0.41025000       341.04800       1.9940670     0.012752302
       288.00001       286.67472       98780.813       15069.281       4.2362500       2.2737500     -0.36150000       340.57300       1.9987403     0.010159666
       293.00002       286.72163       98772.048       15122.981       3.1500000       1.2620000     -0.39800000       340.63000       2.0685799     0.010503258
       298.00003       286.68879       98766.643       15093.878       2.8935000       1.6410000    -0.017500000       340.89600       2.0841952    0.0094424780
       303.00001       286.60382       98758.049       15022.990       3.9105000       1.6482500      0.24675000       340.82800       1.9946220     0.013195353
       308.00002       286.57992       98758.452       14977.535       3.8372500      0.20400000    -0.065000010       340.44600       2.0667790    0.0096026523
       313.00003       286.53242       98767.650       14884.271       2.5287500      0.16350000      0.20500000       340.94200       1.9394847     0.013883461
       318.00001       286.54118       98773.274       14848.949       3.7142500       1.2455000     -0.42450000       340.61400       2.0109887     0.012046857
       323.00002       286.62912       98784.294       14854.474       3.8350000      0.99375000     -0.19000000       340.61000       2.0388910     0.010044264
       329.00003       286.68942       98789.747       14866.961       3.8542500       1.0282500     -0.87750010       340.52300       2.1354952     0.011415245
       334.00000       286.74907       98789.121       14897.697       3.4867500      0.36725000    -0.034500000       340.45400       1.9870484     0.011122154
       339.00001       286.78051       98794.171       14922.834       2.2880000      0.58750000      0.37250000       340.84000       2.0045224     0.010513013
       344.00003       286.80280       98799.706       14950.615       1.7835000      0.54450010      0.44650000       341.03300       2.0631136    0.0098344170
       349.00000       286.81394       98803.730       15008.563       2.0020000     -0.61525010     0.024250000       341.07000       2.0775702     0.012526703
       354.00001       286.80874       98810.866       15098.175       2.7255000     -0.60425000     -0.30000000       340.89200       2.0246762     0.011162906
       359.00002       286.78994       98813.058       15129.568       2.6465000     -0.36225000     -0.23125000       340.91900       2.0159756     0.010956350
       364.00004       286.75394       98810.441       15176.680       2.3710000     -0.42375000   -0.0092500000       340.83500       1.9519422     0.010948179
       369.00001       286.73403       98810.500       15171.761       2.9020000     -0.49575000     -0.15550000       340.56400       1.9427097     0.017090752
       374.00002       286.69754       98812.281       15097.165       2.3217500      0.22950000     -0.29375000       340.90900       2.0587624     0.010389196
       379.00004       286.68645       98808.513       15057.053       2.2432500      0.31525000     0.073000010       340.78000       2.1295198     0.012671297
       384.00001       286.70021       98801.221       15019.951       2.4420000     -0.39600000   -0.0045000000       340.84400       2.0521338     0.015110625
       389.00002       286.70027       98797.250       14972.403       1.3745000      0.66025000      0.36700000       340.98900       2.0261943     0.011555463
       394.00004       286.70949       98790.339       14925.546       2.0017500    -0.054500000    -0.039750000       340.95600       2.0454820     0.010189521
       399.00001       286.69118       98786.147       14850.337       2.5815000     -0.21000000     -0.16825000       340.88700       1.9470945     0.014049866
       404.00002       286.64495       98787.581       14732.504       1.9310000     -0.42275000      0.48100000       341.02500       2.0435038     0.010434963
       409.00003       286.64375       98781.911       14690.984       2.7670000     -0.17850000    -0.082250010       340.70200       1.9866610     0.010770729
       414.00001       286.63288       98770.800       14639.918       2.4567500     -0.34900000      0.57650000       340.82100       1.9796703     0.015472268
       420.00002       286.66967       98764.675       14669.215       2.2182500      0.52125000     0.013750000       341.04400       1.9712932     0.015423886
       425.00003       286.76175       98757.674       14776.870       2.2395000     -0.51175000      0.17400000       340.68700       2.0029581    0.0098132148
       430.00000       286.76926       98766.389       14869.711       3.1107500      0.89975010      0.64250000       341.13800       1.8201277     0.018790495
       435.00001       286.76184       98770.432       14926.802      0.98275010      0.57825010      0.37125000       341.20900       2.0628475    0.0096502433
       440.00003       286.68409       98777.455       14964.371       2.9182500     -0.11500000     -0.77175000       340.81600       1.9285174     0.015865750
       445.00000       286.64308       98781.660       14986.827       4.0082500      0.97100010     -0.34450000       340.54200       2.0378382    0.0095640536
       450.00001       286.61511       98775.813       14984.586       3.4440000      0.92750010     -0.15400000       340.60600       1.7573171     0.021620727
       455.00003       286.59395       98778.411       14967.524       2.9397500     -0.13375000     -0.12075000       340.74400       1.9836933     0.010792081
       460.00000       286.58508       98784.704       14936.379       3.2205000      0.66750000    -0.036250000       340.76900       2.0047500    0.0095925552
       465.00001       286.59973       98794.897       14899.257       3.7225000      0.67725000     -0.64425000       340.80200       2.0736266     0.011163397
       470.00003       286.59954       98800.891       14824.211       3.1022500    -0.047750000     -0.12100000       341.01000       1.9553870     0.014628504
       475.00000       286.59378       98811.460       14708.405       3.6135000      0.95575000     -0.36100000       340.83100       1.9739494     0.017218609
       480.00001       286.63081       98814.754       14630.436       4.4882500      0.72625010     -0.24400000       340.70100       1.9268742     0.012569251
       485.00002       286.65130       98815.890       14578.519       3.1935000       1.0707500      0.85925010       340.80000       2.1336210     0.010416306
       490.00000       286.68559       98814.256       14575.622       3.8327500      0.92050000     -0.59325000       340.61600       2.0659866    0.0094483904
       495.00001       286.70660       98815.204       14578.985       3.5697500       1.9237500      0.54600000       340.80300       1.9978182     0.010642337
       500.00002       286.71522       98816.152       14594.278       2.7887500    0.0067500000    -0.033250000       340.60400       1.9577828     0.013837219
       505.00004       286.69954       98815.192       14614.577       3.0112500      0.40275000      0.50250000       340.81000       2.0579392     0.011066518
       511.00000       286.70001       98818.586       14695.150       2.9707500      0.60025000      0.15150000       340.78500       2.0606603     0.011120510
       516.00002       286.69998       98816.155       14749.152       2.5657500      0.72500000      0.68425010       341.00100       2.1007797     0.014783009
       521.00003       286.69964       98804.300       14826.786       2.7262500     0.014750000      0.38500000       340.83900       2.0108456     0.011771277
       526.00000       286.69955       98798.368       14871.535       4.0270000     -0.21675000      0.48300000       340.93400       1.9883724     0.010953464
       531.00002       286.70032       98793.499       14892.733       3.0235000      -1.0425000    -0.024250000       340.70500       2.0611687     0.010619979
       536.00003       286.70028       98788.622       14904.744       2.7960000     -0.12175000     0.075000000       340.80400       2.0692260     0.012151054
       541.00000       286.70001       98789.820       14889.636       2.1792500    -0.088500000     0.028750000       340.84500       1.8062327     0.023442331
       546.00002       286.70001       98785.653       14880.268       2.1835000     0.054750000     0.033750000       341.09200       1.8650290     0.020306886
       551.00003       286.69975       98774.552       14872.432       3.4905000      0.73000000     -0.11300000       340.67400       2.0365771     0.012637566
       556.00000       286.69948       98768.612       14849.557       2.6552500       1.0500000      0.70850000       340.74300       1.9957079     0.011545545
       561.00001       286.70001       98759.360       14813.129       3.1705000       1.1427500      0.13225000       340.88700       1.9566930     0.015412569
       566.00003       286.69998       98757.752       14782.227       3.8605000      0.77500000     -0.12700000       340.75200       2.0699846    0.0098256408
       571.00000       286.68587       98767.168       14707.296       3.3410000      0.42725000      0.43975000       340.77500       2.1230563     0.011875274
       576.00001       286.69694       98771.204       14696.303       3.4012500      0.63775000     -0.15425000       340.58700       1.9687850     0.012856057
       581.00003       286.73434       98776.804       14740.815       3.8320000     -0.16025000     -0.19975000       340.57700       2.0861066     0.010334300
       586.00000       286.75421       98781.538       14768.758       3.1095000      0.14250000     0.083500010       340.69500       2.0070704    0.0087734906
       591.00001       286.79009       98780.649       14840.252       1.7390000     -0.56050000      0.37975000       340.85800       1.9117846     0.016413606
       596.00003       286.80846       98784.906       14886.966       1.4540000      0.45500000     0.061750000       340.98600       1.9132329     0.015186829
       602.00003       286.78739       98797.492       14899.382       2.4842500    -0.012500000     -0.18825000       340.96800       2.1433416     0.012916918
       607.00001       286.80143       98803.221       14940.207       2.9200000       1.2722500      0.21025000       340.59300       2.0227592    0.0098406600
       612.00002       286.83913       98808.002       15005.634       2.9162500      0.27825000      0.15600000       340.69600       1.9806454     0.011458139
       617.00003       286.85932       98812.601       15054.494       3.6037500     -0.40875000     0.040750000       340.59100       1.9572050     0.016407410
       622.00001       286.89549       98815.289       15122.695       2.7007500      0.26575000      0.36150000       340.89000       2.0116309     0.010829837
       627.00002       286.91149       98815.872       15161.755       2.6435000      0.72725000     -0.59650000       340.74400       1.9603612     0.014105622
       632.00003       286.88687       98816.184       15168.192       2.7747500      0.28500000      0.26275000       340.90600       2.0100902     0.011249065
       637.00000       286.90037       98815.898       15188.989       3.1890000      0.32225000      0.50100000       340.77900       2.0806862    0.0098720268
       642.00002       286.95071       98809.453       15216.838       2.4130000      -1.1447500      0.36425000       340.89200       1.9480360     0.016417501
       647.00003       286.95679       98809.219       15220.302       2.1007500     -0.18250000     -0.11775000       340.87200       2.0139926     0.012900709
       652.00000       286.96938       98814.149       15228.446       2.9097500      0.55575000    -0.015500000       340.76400       2.0725216     0.015936526
       657.00002       286.95197       98816.204       15204.571       2.9840000     -0.84625010      0.14900000       340.89100       2.2694572     0.011687182
       662.00003       286.89236       98821.060       15162.071       2.3790000     -0.38525000     -0.38850000       340.71700       2.9844840     0.012715572
       667.00000       286.82864       98821.273       15083.921       3.3952500     -0.26675000     -0.77075000       340.76800       2.5706021     0.016434196
       672.00002       286.71602       98816.287       14933.468       4.3602500     -0.32700000     -0.28650000       340.60900       4.4465198     0.015978216
       677.00003       286.67405       98814.231       14854.737       2.9230000     -0.72100000      0.46625000       340.89300       3.5461534     0.015466296
       682.00000       286.66035       98813.458       14777.934       4.7752500     -0.60075000     -0.22925000       340.57200       2.7467664     0.012010318
       687.00002       286.63433       98809.048       14713.776       5.0410000     -0.31850000    -0.084500010       340.52200       2.5677370     0.014851289
       693.00002       286.65733       98801.908       14694.403       4.6647500     -0.41525000      0.10700000       340.59300       1.9746600     0.014445590
       698.00004       286.65134       98797.922       14669.340       3.8897500      0.17725000      0.55425000       340.53000       1.9391046     0.019010724
       703.00001       286.57834       98791.292       14598.135       3.4325000      0.86975000     -0.65850000       340.65300       2.5209246     0.010918229
       708.00002       286.59688       98786.852       14614.861       2.5360000      0.36950000      0.12150000       340.75600       8.5119620     0.017951296
       713.00004       286.67360       98786.190       14687.111       3.1770000    -0.087750000     -0.41825000       340.73800       8.8195583     0.022065794
       718.00001       286.72963       98784.234       14763.524       3.3557500     -0.92675010     -0.34350000       340.60800       4.7215149     0.020041933
       723.00002       286.85121       98780.314       14905.495       2.4807500      0.75625000      0.30975000       340.73200       4.0137531     0.011288909
       728.00003       286.88250       98778.907       14998.272       2.9255000      0.47400000      0.35350000       340.65200       11.501496     0.023911236
       733.00001       286.84623       98780.322       15086.088       4.2877500     -0.41625000     -0.37825000       340.58000       3.7759216     0.011582333
       738.00002       286.85614       98780.365       15157.693       3.8685000     -0.31300000     -0.68175010       340.51200       3.7615150     0.014438321
       743.00003       286.83239       98779.298       15214.403       2.6737500     -0.74300000     -0.28225000       340.60900       4.7599584     0.014265549
       748.00001       286.85498       98781.004       15255.412       2.9267500     -0.68075000      0.11525000       340.48500       3.1899666     0.013242732
       753.00002       286.97593       98785.634       15313.084       2.8697500      0.54400000     -0.96950010       340.65300       2.4559391     0.011194471
       758.00003       286.96171       98786.011       15287.425       1.4715000      0.18150000      0.45175000       340.78600       3.8195821     0.017546161
       763.00001       286.87306       98782.407       15206.762       2.1170000     -0.23325000    -0.028250000       340.76200       6.2474195     0.015081242
       768.00002       286.82708       98786.531       15118.514       2.8375000     -0.35000000     -0.58900000       340.58100       6.3195267     0.013458059
       773.00003       286.69011       98792.766       14932.941       1.8075000      0.13325000     -0.16050000       340.82800       7.6247957     0.025273526
       779.00000       286.66701       98798.543       14838.673       1.9585000      0.21675000      0.26775000       340.97700       3.6669499     0.010317947
       784.00001       286.74624       98810.307       14791.456       2.0697500     -0.43050000      0.26950000       340.95100       5.0180789     0.013438992
       789.00003       286.76645       98815.633       14762.026       3.3687500      0.20675000    -0.021500000       340.65000       5.9578984     0.017871456
       794.00000       286.81203       98815.716       14791.770       2.6400000     -0.10525000     -0.15150000       340.65300       5.2131332     0.012328520
       799.00001       286.80457       98815.841       14779.291       3.1412500      0.71075000     0.092000010       340.73300       7.2585476     0.013932614
       804.00002       286.74471       98816.215       14738.418       4.5157500      0.71525000      0.20125000       340.76300       4.8353782     0.012540055
       809.00004       286.74342       98815.415       14763.322       3.3390000       1.2780000     -0.55125000       340.75300       11.733246     0.023156286
       814.00001       286.75220       98808.963       14817.910       2.0495000      0.21175000      0.25600000       340.95900       10.495653     0.017722020
       819.00002       286.74237       98809.648       14853.957       4.0130000      0.93075010     -0.67650000       340.72900       8.2863767     0.019011530
       824.00004       286.74831       98817.710       14930.010       3.7377500       1.6957500     -0.40225000       340.74400       8.9841406     0.019403892
       829.00001       286.75818       98814.037       14971.073       2.6655000      0.13350000     -0.31075000       340.56400       6.7298576     0.013152077
       834.00002       286.74349       98804.990       14983.559       3.1835000      0.70300000      0.76025000       340.89200       3.1223752    0.0097724443
       839.00004       286.75223       98803.868       14996.015       3.0837500     -0.86975000     -0.31100000       340.72000       4.9402587     0.011640789
       844.00001       286.81199       98797.782       15025.192       3.9482500     -0.83875010     -0.25000000       340.56100       6.8058650     0.018561035
       849.00002       286.80473       98800.244       15003.187       2.7842500      -1.3020000     -0.32875000       340.64800       5.3993206     0.015084821
       854.00003       286.73637       98818.190       14917.412       2.9117500     -0.56000000     -0.11200000       340.62600       3.0668283     0.013762074
       859.00001       286.75380       98816.821       14912.671       2.3810000     -0.60475000     -0.22600000       340.56400       2.3214944     0.012437899
       864.00002       286.78760       98808.046       14921.245       2.2970000     -0.34050000      0.22175000       340.70400       4.3351799     0.014276554
       870.00003       286.82455       98799.508       14927.415       3.1700000     -0.17225000     0.062500000       340.77200       4.5695455     0.013118343
       875.00000       286.90623       98784.633       14973.109       1.8160000     0.091250000      0.27575000       340.98200       12.244742     0.018722870
       880.00001       286.94534       98772.716       15001.407       3.3260000       1.4497500      0.56650000       340.63500       7.0810001     0.014547534
       885.00003       286.95695       98768.260       15009.165       4.2655000      0.78025000      0.12125000       340.59400       5.2771456     0.014768236
       890.00000       286.94021       98767.791       15008.717       2.6467500      0.37450000      0.18900000       340.63400       3.6296030     0.012046234
       895.00001       286.95016       98768.470       15031.364       4.1395000     -0.68700000      0.14900000       340.50400       9.1977758     0.018450896
       900.00003       286.93010       98780.429       15014.649       4.2285000       1.0630000     -0.29450000       340.59600       4.0423102     0.013904320
       905.00000       286.93744       98786.689       15044.367       4.0887500      0.77100000     0.080000010       340.71600       4.6596303     0.017922299
       910.00001       286.96935       98790.491       15109.100       3.5182500       2.4515000    -0.023000000       340.60700       9.7843091     0.018426805
       915.00003       287.06947       98791.505       15255.193       2.2920000       1.5825000     -0.24050000       340.70100       10.998691     0.017551889
       920.00000       287.05574       98790.182       15271.542       2.4705000       1.3125000    -0.025750000       340.70200       4.7850568     0.014684543
       925.00001       287.00045       98783.426       15261.046       2.5572500     -0.18475000      0.23825000       340.87800       2.3419583     0.018967109
       930.00003       286.94521       98789.406       15207.380       2.8565000       1.7097500     -0.19075000       340.72900       5.6835834     0.015171568
       935.00000       286.93060       98794.159       15186.596       2.6422500       1.2505000     -0.44300000       340.69400       3.4039666     0.010255530
       940.00001       287.01550       98810.504       15240.936       2.2457500     -0.24550000     -0.32950000       340.93200       3.6852545     0.020204119
       945.00002       287.05636       98818.007       15262.799       3.0312500     0.051500000     0.011750000       340.74600       5.5388884     0.016556063
       950.00004       287.08492       98820.593       15273.052       2.6400000      0.56525000     -0.81225000       340.69300       4.7004425     0.014217408
       955.00001       287.11344       98815.534       15277.311       3.2770000      0.84050010    -0.059750000       340.74700       4.9861826     0.021119696
       961.00002       287.03837       98814.730       15188.266       2.1972500      0.50450000      0.42700000       340.88400       8.6706409     0.021460392
       966.00003       287.04132       98814.890       15179.549       2.7877500      0.19550000     -0.25700000       340.75300       10.310300     0.021809410
       971.00000       287.07876       98819.320       15194.896       3.6215000       1.0940000     -0.46975000       340.61200       2.7100644     0.012099343
       976.00002       287.10021       98821.211       15210.171       3.2680000      0.15475000     -0.14450000       340.48700       4.3040786     0.012679828
       981.00003       287.16724       98820.372       15284.871       2.2760000      0.79375000      0.18575000       340.71500       3.4071474     0.012299412
       986.00000       287.21560       98820.410       15339.091       4.0650000       1.5467500     -0.41425000       340.45200       6.3603421     0.018863226
       991.00002       287.21935       98821.729       15350.538       3.0320000      0.91625010    -0.039750000       340.43500       4.8749280     0.016191056
       996.00003       287.25003       98820.641       15400.691       1.8025000      0.90975000      0.98225000       340.89700       2.7430281     0.012631351
       1001.0000       287.30845       98817.196       15469.445       2.1420000       1.7230000     -0.14750000       340.58200       4.5196920     0.013180448
       1006.0000       287.35824       98815.283       15559.742       1.5832500      0.59050010      0.27200000       340.92100       3.0706858     0.013608010
       1011.0000       287.43790       98811.429       15718.400       1.6685000      0.92775010      0.20925000       340.87900       6.0385460     0.016141796
       1016.0000       287.46580       98809.586       15811.380       2.2857500      0.20475000     -0.17025000       340.87100       3.6488036     0.015455845
       1021.0000       287.44149       98813.065       15894.086       2.3095000      0.62425010    -0.089000000       340.86400       2.7379753     0.012051349
       1026.0000       287.45136       98810.839       15953.745       1.7415000      0.37675000      0.24725000       340.97100       5.6695797     0.014152378
       1031.0000       287.47226       98804.895       15963.389       1.9842500     -0.48250000      0.46500000       341.07900       5.0265041     0.012840055
       1036.0000       287.45131       98799.810       15962.320       1.9190000      0.60150000     -0.10575000       341.16700       3.7160503     0.013226072
       1041.0000       287.45329       98787.402       15985.442       2.6550000     -0.41625000     -0.20375000       340.73500       4.9348410     0.014288181
       1046.0000       287.40895       98782.840       15933.804       4.5410000      0.46825000      0.21100000       340.93000       7.1730327     0.014897925
       1052.0000       287.23460       98788.396       15780.067       3.7220000      0.45150000     -0.65550010       340.54600       7.2264712     0.017533378
       1057.0000       287.16182       98784.562       15665.507       2.7372500      0.78375010    -0.046250000       340.71300       10.486123     0.016971959
       1062.0000       287.10933       98775.470       15490.184       2.4465000     0.075000000     -0.26350000       340.84200       4.5371071     0.016022651
       1067.0000       287.07649       98773.778       15370.665       1.8472500      0.77975000      0.16950000       341.06100       10.325246     0.016979723
       1072.0000       287.13801       98769.226       15297.874       2.7800000      0.63175000      0.18825000       340.75000       3.0202100     0.012406204
       1077.0000       287.09636       98768.324       15198.267       2.1020000       1.1975000      0.34275000       341.03800       11.276010     0.020888143
       1082.0000       286.98628       98779.288       15084.663       3.2235000      0.20200000    -0.087500010       340.79000       3.2109375     0.012360506
       1087.0000       286.92678       98782.509       15011.914       2.5530000      0.74125000     -0.21025000       340.97200       7.4056846     0.015568554
       1092.0000       286.80185       98780.346       14923.524       2.8925000      0.78175000     -0.12350000       340.86500       8.0645161     0.016808407
       1097.0000       286.76730       98780.387       14896.754       4.0257500       1.7632500      0.75575010       340.66900       4.7434803     0.012475213
       1102.0000       286.83821       98780.283       14951.244       3.6955000      0.27275000     -0.43775000       340.85600       5.2028731     0.019041841
       1107.0000       286.85850       98780.323       14970.868       2.9245000      0.19850000     -0.69100000       340.75000       3.3680973     0.011405360
       1112.0000       286.89526       98778.986       15013.265       3.1417500     -0.56750010      0.15300000       340.94800       4.3698724     0.014017886
       1117.0000       286.91180       98780.360       15034.983       3.4375000      0.87050000     -0.86100010       340.79900       4.3105425     0.014535578
       1122.0000       286.88731       98781.525       15012.043       3.6150000      0.92300000     -0.27800000       340.85000       6.8726199     0.013544864
       1127.0000       286.90119       98786.224       15042.191       2.6055000      0.90100000      0.45575000       341.07100       5.8602677     0.014576583
       1132.0000       286.92395       98797.247       15099.561       3.4817500       1.0350000      0.63025000       340.88000       8.2810585     0.017388463
       1137.0000       286.95795       98802.860       15149.477       1.7937500     0.011000000    -0.026250000       341.05000       7.0575283     0.014133427
       1143.0000       287.04091       98810.000       15253.594       2.4080000      0.54725000     -0.14675000       340.91800       3.8187368     0.011155279
       1148.0000       287.07474       98812.758       15300.830       2.5575000      0.62150000     -0.10600000       340.75300       6.3096746     0.013201362
       1153.0000       287.12167       98810.168       15340.540       3.2707500      0.61400000    -0.059000000       340.83400       4.2902274     0.012582506
       1158.0000       287.10313       98810.152       15331.561       2.7432500       1.3452500      0.14275000       341.12000       5.4894478     0.019208157
       1163.0000       286.99387       98810.382       15266.362       3.0165000       1.3757500     -0.33450000       340.86300       3.7716844     0.016334517
       1168.0000       286.98683       98810.397       15243.548       3.1195000      0.87675010     -0.21600000       340.72600       5.2810805     0.014540001
       1173.0000       286.98560       98810.350       15202.558       2.7182500     -0.16300000     -0.31750000       340.76400       6.6482502     0.022225626
       1178.0000       286.99790       98810.365       15168.184       2.4965000     -0.20375000     -0.21600000       340.65200       4.6672660     0.014461484
       1183.0000       287.09862       98809.114       15164.536       2.2365000      0.77300010   -0.0015000000       340.78900       4.1147873     0.013332606
       1188.0000       287.12599       98810.737       15140.009       2.9850000       1.2222500     -0.12875000       340.97800       2.8304982     0.010553391
       1193.0000       287.08902       98815.579       15056.716       3.6962500       1.6150000     -0.48900000       340.78600       5.0645496     0.013243792
       1198.0000       287.10538       98815.947       15066.311       3.7850000       1.3597500     -0.20925000       340.87500       5.9121725     0.012936752
       1203.0000       287.14284       98814.821       15139.708       2.6795000      0.70950000      0.33075000       341.08300       9.8664432     0.022978614
       1208.0000       287.16302       98815.839       15180.481       3.0885000     -0.17775000      0.24650000       341.06500       5.3518272     0.018852679
       1213.0000       287.19908       98814.695       15255.385       3.4317500      0.45875000     -0.21600000       340.71300       4.7816334     0.021770976
       1218.0000       287.21260       98815.357       15310.797       3.1890000       1.0165000    -0.067250010       340.80200       7.3488680     0.024960017
       1223.0000       287.18811       98820.123       15323.775       3.0845000      0.86300000     -0.82750000       340.76500       3.2396072     0.011126982
       1228.0000       287.20448       98821.452       15385.393       3.5870000      0.41800000      0.17700000       341.01400       5.2583128     0.019039298
       1234.0000       287.24597       98820.463       15514.880       2.9555000       1.2062500     -0.41600000       340.78800       5.5093686     0.012936300
       1239.0000       287.26599       98820.569       15564.247       2.5457500     0.028750000      0.39775000       340.71900       4.9576570     0.013200365
       1244.0000       287.32113       98821.179       15627.077       4.1712500      0.84500000    -0.088500000       340.39900       4.7710314     0.016234712
       1249.0000       287.29502       98819.257       15606.703       2.8252500      0.67050000     -0.23450000       340.70000       5.7205232     0.013702396
       1254.0000       287.20753       98815.449       15506.653       3.6317500      0.60475000     -0.90825000       340.67700       3.5257415     0.011100024
       1259.0000       287.16790       98813.388       15449.092       2.2492500      0.27200000      0.21375000       340.73000       4.9396824     0.011925857
       1264.0000       287.09378       98811.766       15367.597       2.9715000     0.054000000     -0.17225000       340.65300       6.1634450     0.014944616
       1269.0000       287.07101       98806.897       15285.939       3.6832500     -0.69450000      0.19500000       340.65500       5.8584105     0.016782879
       1274.0000       287.10036       98801.182       15210.331      -65.536000      -65.536000      -65.536000       307.23200       4.0534934     0.019230066
       1279.0000       287.10048       98797.099       15139.098       3.0305000     -0.25875000    -0.051000000       340.60700       4.2382969     0.014956491
       1284.0000       287.10859       98789.708       15038.510       3.6222500    -0.090500000      0.61650000       340.66000       6.4672691     0.017318983
       1289.0000       287.08966       98787.384       14986.286       3.1867500     -0.19600000     -0.72000000       340.53300       4.2079231     0.013251407
       1294.0000       287.06218       98790.195       14962.131       3.1517500      -1.4097500     -0.23200000       340.61500       3.2367320     0.014580307
       1299.0000       287.02352       98790.182       14958.322       3.4355000     -0.36875000     -0.62025000       340.49100       2.8660021     0.011081036
       1304.0000       286.95960       98790.329       14989.917       1.9570000     -0.65625010     0.098250000       340.88900       2.5805923    0.0087820486
       1309.0000       286.90976       98790.295       14985.080       3.3775000      -1.0965000     -0.14125000       340.69800       2.0645242     0.011319636
       1314.0000       286.84232       98791.256       14988.660       3.3755000      -1.4887500   -0.0017500000       340.75000       2.4597492     0.012185246
       1319.0000       286.83012       98789.338       14990.694       1.7607500      -1.3575000       1.0665000       340.96600       2.2204278     0.011562363
       1325.0000       286.84415       98785.372       14970.484       3.4482500     -0.34475000    -0.035250000       340.29800       2.0325588     0.010418790
       1330.0000       286.87077       98781.821       14977.034       4.1225000      -1.3875000     -0.43450000       340.34800       2.5892057     0.015062687
       1335.0000       286.90101       98779.677       14970.698       4.1792500      -1.4067500     -0.23425000       340.52200       2.4238157     0.011700436
       1340.0000       286.91552       98778.690       14916.780       3.4595000     -0.42725000    -0.039500000       340.53800       2.0104475     0.010410246
       1345.0000       286.94418       98779.532       14898.852       3.2492500     -0.14250000      0.38400000       340.82600       2.1526787     0.014304037
       1350.0000       287.01523       98784.776       14888.666       3.8362500      -1.4397500     -0.28675000       340.42400       2.0733117     0.012422185
       1355.0000       287.05641       98785.873       14902.347       3.6047500     -0.63625000     -0.19225000       340.55600       2.0969097    0.0094867129
       1360.0000       287.08530       98785.734       14938.803       3.3740000      -1.0140000     -0.10000000       340.72500       1.9716211     0.012157461
       1365.0000       287.11289       98786.030       15012.113       3.9395000      0.47200000      0.13900000       340.77000       1.9686133     0.015012894
       1370.0000       287.10005       98784.884       15055.783       2.8777500      -1.9455000      0.29800000       340.89200       2.0043634    0.0099477155
       1375.0000       287.04422       98779.821       15111.818       2.9097500     -0.72675000     -0.11650000       340.72700       3.1199170     0.012953021
       1380.0000       287.03106       98780.278       15125.164       2.3385000     -0.85675000     -0.21775000       340.94600       2.4346835     0.010043230
       1385.0000       287.03839       98780.244       15140.818       3.1930000     -0.64325000      0.18600000       340.59300       3.0565776     0.012482284
       1390.0000       287.11553       98778.688       15144.431       3.1537500      0.70225000      0.31650000       340.71300       4.5761071     0.013404263
       1395.0000       287.15650       98779.521       15154.052       3.2557500     -0.20425000     -0.31675000       340.76100       4.7148341     0.012870976
       1400.0000       287.18518       98781.576       15165.536       2.8667500     -0.10475000     -0.15475000       340.82300       2.8665510     0.013405515
       1405.0000       287.20681       98785.168       15180.199       3.1197500      0.28775000     -0.19200000       340.65000       2.8311739    0.0098468917
       1411.0000       287.20001       98789.170       15189.300       2.7077500      -1.3510000      0.19825000       340.78900       3.2288188     0.011999530
       1416.0000       287.20004       98791.020       15197.260       4.1885000     -0.36900000      0.13125000       340.50800       2.9964019     0.011619487
       1421.0000       287.18597       98790.274       15181.894       2.7075000     -0.45950000    -0.014500000       340.51800       3.2439482     0.013385103
       1426.0000       287.19717       98790.290       15200.204       1.3862500     -0.70800000       1.0257500       340.89200       2.6486075     0.012650501
       1431.0000       287.24860       98787.376       15270.746       2.4150000     -0.58775000      0.14275000       340.56300       3.8175201     0.014925791
       1436.0000       287.25715       98789.588       15288.772       2.0797500      0.48100000     0.048750000       340.92300       8.0674655     0.017506154
       1441.0000       287.25654       98799.723       15287.544       1.1740000     -0.18850000    -0.093500000       340.95600       9.3642475     0.016640095
       1446.0000       287.25557       98801.402       15300.016       3.5015000     -0.44425000     -0.61775000       340.66800       8.5155347     0.019702546
       1451.0000       287.18030       98798.772       15265.736       1.9182500     -0.35675000      0.51900010       340.96300       6.5978081     0.015676638
       1456.0000       287.18424       98800.791       15267.619       3.4632500     -0.67275010      0.18225000       340.71400       5.5471220     0.011777328
       1461.0000       287.24028       98799.226       15317.706       3.6120000      0.56450000      0.17175000       340.81900       5.8530908     0.014945185
       1466.0000       287.30345       98799.515       15351.978       3.3237500     -0.26500000      0.26650000       340.76400       7.3888233     0.016858294
       1471.0000       287.49237       98806.850       15395.393       1.7437500       1.2625000     0.095250000       341.25000       4.4250144     0.016328454
       1476.0000       287.53774       98811.736       15419.014       2.6760000      0.94275000     -0.31300000       340.78000       6.6621707     0.022609039
       1481.0000       287.46416       98813.721       15418.616       2.7055000       1.6162500     -0.18475000       341.07100       13.194890     0.023842479
       1486.0000       287.45290       98815.714       15437.094       4.3247500       1.1302500     -0.12400000       340.98000       7.1557469     0.013470295
       1491.0000       287.37692       98820.856       15465.230       3.9310000       1.1422500     -0.15450000       340.38400       3.2505250     0.012838015
       1496.0000       287.32986       98821.573       15471.112       2.3800000       1.0860000      0.14375000       340.95300       5.2194656     0.023856286
       1502.0000       287.35667       98816.416       15499.708       2.7712500      0.79550000      0.69725000       341.04800       9.5435269     0.016181817
       1507.0000       287.35294       98814.382       15479.070       4.3580000       1.2470000      0.88825010       340.92000       5.7315192     0.013816767
       1512.0000       287.29203       98809.357       15405.635       5.0640000       2.0572500      0.84450010       341.32000       6.6767619     0.021306400
       1517.0000       287.28948       98809.044       15345.938       4.3510000       1.0012500     -0.50000000       340.91200       3.8207879     0.011233951
       1522.0000       287.32526       98815.495       15229.209       3.2277500     0.091750000      0.31325000       341.50100       8.1904789     0.015200975
       1527.0000       287.35875       98816.138       15196.062       3.6792500     -0.57475000    -0.060750000       340.73600       4.0663064     0.014328305
       1532.0000       287.45845       98815.794       15227.147       3.5162500     -0.86475000   -0.0037500000       340.75000       2.0866059     0.011350596
       1537.0000       287.46720       98815.349       15215.637       4.0352500      -1.5880000      -1.2070000       340.78900       3.0384905     0.012084191
       1542.0000       287.39338       98809.383       15235.677       1.3795000    -0.082750010      0.90900000       340.83100       3.4373290     0.016210229
       1547.0000       287.39684       98809.130       15238.167       2.3655000      0.43675000     -0.18600000       341.16900       3.2508707     0.012305004
       1552.0000       287.36144       98814.149       15153.451       1.7610000      0.55325000      0.49550000       341.07600       9.8125150     0.015746862
       1557.0000       287.39647       98816.204       15182.096       3.1472500     -0.23875000    -0.060250000       340.76600       5.8321801     0.015230667
       1562.0000       287.56745       98819.781       15283.223       3.8660000      0.85775010     -0.38100000       340.57600       6.4965268     0.014606434
       1567.0000       287.64077       98821.430       15386.470       2.7597500      -1.2415000     -0.42775000       341.32200       3.5713954     0.011983834
       1572.0000       287.72891       98821.603       15612.746       2.6770000     -0.90175000     -0.70825000       341.12900       3.6353842     0.012993983
       1577.0000       287.71996       98820.263       15701.506       1.9775000     -0.75000010     0.093000000       341.20100       3.1709455     0.016749974
       1582.0000       287.58855       98816.800       15742.911       3.1702500     -0.52950000      0.46200000       340.98100       2.9733402     0.011957557
       1587.0000       287.52843       98814.882       15746.188       3.6097500      -1.3137500     -0.18725000       340.55500       2.7352661     0.011767699
       1593.0000       287.40346       98809.201       15640.236       2.8967500      -1.9527500     -0.34150000       340.98700       2.2715056     0.017357110
       1598.0000       287.36209       98809.433       15563.517       3.5040000     -0.93900010      0.17500000       340.56100       2.0669353     0.012902765
       1603.0000       287.40032       98814.418       15479.589       3.7522500      -1.4840000     -0.53125000       340.42300       1.9845851     0.018003490
       1608.0000       287.40061       98816.389       15377.767       3.7135000      -1.0125000     -0.17125000       340.41300       2.0269571     0.012564260
       1613.0000       287.40002       98820.378       15234.464       3.2187500     -0.41050000      0.37675000       340.91500       1.8934725     0.017327551
       1618.0000       287.40002       98821.809       15129.232       2.7052500     -0.16950000     -0.37625000       340.69800       1.9934874     0.010828747
       1623.0000       287.38877       98820.337       15000.518       2.3412500      0.45725000      0.12350000       341.11400       2.0779676     0.014524301
       1628.0000       287.40473       98820.337       14945.654       2.2840000     -0.25175000    -0.025500000       341.09300       2.6661715     0.016156632
       1633.0000       287.41781       98820.447       14933.760       2.1987500     -0.19475000    -0.014000000       341.09100       7.1431652     0.022181455
       1638.0000       287.47078       98820.490       14941.346       1.2290000     -0.28575000      0.56900000       341.93800       9.0727001     0.015577982
       1643.0000       287.58257       98820.277       14999.385       2.3302500      0.77600000      0.79950000       341.52800       5.4908835     0.016091421
       1648.0000       287.63663       98820.305       15058.132       1.9892500      0.54500000       1.0652500       341.68300       5.2119279     0.015904491
       1653.0000       287.69870       98820.122       15109.653       3.7420000      0.77450000      0.19675000       340.60600       3.8772077     0.012567248
       1658.0000       287.72654       98820.063       15227.759       2.5045000      0.85475000    -0.035750000       341.66400       5.7122038     0.012354964
       1663.0000       287.70032       98820.385       15433.379       4.2555000      0.42900000    -0.092750010       340.93900       7.8986550     0.014958729
       1668.0000       287.70049       98820.429       15550.174       4.9192500     -0.15825000     -0.56025000       341.26400       6.7976473     0.018803438
       1673.0000       287.72283       98820.246       15730.911       3.6005000     -0.87175010     -0.14225000       341.28200       5.2494750     0.014366503
       1678.0000       287.68971       98820.275       15752.021       3.9807500      -1.3037500   -0.0090000010       341.69900       4.3048071     0.014048404
       1684.0000       287.60776       98820.457       15619.062       2.1390000      0.52900000      0.32600000       341.90700       4.5928846     0.012099070
       1689.0000       287.56754       98820.529       15543.938       2.6975000      0.68175010      0.44850000       341.07800       6.5608615     0.014350589
       1694.0000       287.48407       98820.274       15396.142       2.5805000      0.18225000     0.097750010       342.15800       10.345623     0.017884678
       1699.0000       287.48005       98820.274       15315.710       3.2130000      -1.7440000      0.99275000       341.96600       6.3988974     0.025470481
       1704.0000       287.53752       98820.393       15266.843       3.2370000    -0.044250000      0.87750010       342.06500       4.9482463     0.015045291
       1709.0000       287.57604       98820.440       15217.295       3.0780000   -0.0045000000     -0.19275000       341.15400       6.9426017     0.020481883
       1714.0000       287.65807       98820.337       15166.572       2.2127500     -0.35375000    -0.012000000       341.89900       5.3012458     0.024121341
       1719.0000       287.67077       98820.337       15151.805       4.0950000      -1.2437500      -1.0227500       340.97400       4.2559057     0.017430825
       1724.0000       287.65826       98820.454       15165.453       3.8967500      -1.1637500     -0.23000000       340.41500       3.0723365     0.013935898
       1729.0000       287.64933       98820.501       15177.118       4.1887500     -0.41000000     -0.10250000       340.32500       2.5771124     0.017865051
       1734.0000       287.58048       98820.281       15203.418       4.1385000     -0.36300000     -0.21875000       340.74500       2.3480554     0.015134662
       1739.0000       287.60699       98820.314       15247.978       3.6632500      0.67850010   -0.0042500000       340.91500       3.5938566     0.014434092
       1744.0000       287.72088       98820.110       15325.290       2.2732500      0.43025000      0.79700010       341.47300       5.0687082     0.015374858
       1749.0000       287.70532       98820.051       15338.841       3.3170000      -1.2680000    -0.038250000       341.50800       10.563567     0.046439121
       1754.0000       287.65902       98820.393       15334.379       2.1342500      0.10175000      0.91700010       341.70400       8.6090505     0.019321461
       1759.0000       287.64043       98820.439       15352.382       4.4785000      -1.2132500    -0.053500000       341.14900       3.5339386     0.012386489
       1764.0000       287.53593       98820.139       15334.449       4.6600000      -2.0752500     -0.35850000       340.84300       2.6279705     0.014035403
       1769.0000       287.52294       98820.080       15334.141       3.1510000      -1.6632500      0.20200000       340.98800       1.9794571     0.013157147
       1775.0000       287.61718       98820.833       15385.081       2.8732500      -1.8372500      0.39625000       341.35800       2.0262934     0.012616965
       1780.0000       287.53881       98815.753       15338.547       2.5305000    -0.065500010       1.4860000       341.78000       2.6002453     0.014732312
       1785.0000       287.49843       98814.603       15292.373       5.0997500      -1.7230000      0.25300000       341.28000       4.1706499     0.010887192
       1790.0000       287.39944       98814.886       15223.841       4.2990000      -1.3795000      0.20850000       340.81900       3.5827013     0.022190581
       1795.0000       287.37533       98814.816       15170.230       3.8012500     -0.67900000      0.17750000       340.78000       2.1611482     0.010031102
       1800.0000       287.47504       98818.895       15129.766       3.7760000      -1.1685000      0.21450000       341.01900       1.9244649     0.013658290
       1805.0000       287.50602       98821.070       15069.912       3.3422500      -1.3372500      0.27700000       341.27500       1.8880504     0.012969360
       1810.0000       287.52464       98822.038       15004.081       3.7182500     -0.82000010      0.28975000       340.83200       2.0005612     0.012395880
       1815.0000       287.56359       98820.128       14932.649       1.7577500     -0.52000000     0.087750000       341.30800       1.9549493     0.014706282
       1820.0000       287.56063       98820.068       14892.461       2.8732500     -0.64150010     0.053250000       340.80200       3.6428053     0.012157683
       1825.0000       287.49375       98820.212       14837.288       4.7480000     -0.23725000     -0.41350000       340.45600       4.0381449     0.012879946
       1830.0000       287.47018       98820.189       14826.075       3.7955000     -0.47025000      -1.3727500       340.66300       3.0301559     0.013167984
       1835.0000       287.48731       98820.130       14881.151       3.2615000     0.030750000     -0.18400000       341.33600       2.4855462     0.010965112
       1840.0000       287.57502       98820.308       15055.019       4.8270000     -0.21350000     -0.46950000       340.99600       7.3257866     0.021113804
       1845.0000       287.60580       98820.273       15153.415       5.9692500     -0.53125000     -0.80825000       340.60300       6.0900527     0.014649658
       1850.0000       287.62429       98820.223       15241.971       5.4162500       1.7130000     -0.34975000       340.62200       4.1834461     0.015584704
       1855.0000       287.65679       98820.127       15381.624       4.4680000      0.58650000     -0.17350000       340.79700       5.7292657     0.013759387
       1860.0000       287.67513       98820.068       15409.011       3.7400000      -1.3865000     -0.18250000       341.28700       6.9421071     0.016534134
       1866.0000       287.64016       98820.203       15332.876       3.7967500      -1.3367500     -0.96975000       340.63400       3.6331005     0.011525466
       1871.0000       287.73170       98820.177       15337.581       5.1655000      0.30100000     -0.19875000       340.61900       3.7756671     0.011671464
       1876.0000       287.81327       98820.117       15355.290       4.0420000    -0.096250010     -0.11875000       340.49500       2.7994810     0.013567562
       1881.0000       287.97808       98820.302       15428.041       3.8365000     -0.33750000     -0.31400000       340.51300       5.9705855     0.014494390
       1886.0000       288.03205       98820.263       15449.245       4.6382500      0.24500000     -0.58200000       340.38100       5.0265226     0.013664301
       1891.0000       287.95536       98820.371       15419.036       3.4197500      0.16400000     0.095250000       340.53600       4.7996938     0.018176109
       1896.0000       287.99735       98820.409       15435.580      0.74700000      -1.1222500       1.1605000       341.33300       2.3964016     0.015504989
       1901.0000       288.11082       98826.273       15434.835       2.7235000    -0.071250010      0.50300000       341.16800       2.5312750     0.013408287
       1906.0000       288.10806       98821.750       15468.551       3.9010000       1.6717500     -0.19000000       340.91200       5.5180245     0.015023288
       1911.0000       288.15113       98802.303       15618.689       2.3450000    -0.035500000      0.31325000       341.50400       4.8665983     0.017765882
       1916.0000       288.12391       98797.576       15655.029       2.0890000     -0.67750000     -0.17200000       341.54900       4.7085072     0.013023794
       1921.0000       287.87001       98794.402       15630.519       3.7552500      -1.4675000     0.070000000       340.42000       3.8599478     0.015825985
       1926.0000       287.75376       98792.848       15603.006       5.4615000      -1.8012500      0.20750000       341.36000       2.7191385     0.013947195
       1931.0000       287.70500       98811.653       15498.316       5.2420000      -1.6002500    -0.020250000       341.46800       2.3986268     0.011885465
       1936.0000       287.67905       98813.846       15422.067       3.4665000      0.85500000     -0.52800000       340.96600       1.9001534     0.015251426
       1941.0000       287.73360       98798.986       15360.268       4.2625000      0.62550000      0.32350000       341.03900       6.3723641     0.020989765
       1946.0000       287.75383       98794.182       15300.120       5.5145000     -0.37900000      0.31950000       341.21200       4.5906516     0.013746410
       1952.0000       287.79501       98787.022       15210.312       5.0500000      0.20200000     -0.25850000       340.69800       2.9627772     0.014495449
       1957.0000       287.81149       98782.756       15164.896       4.4680000       1.1610000      0.14250000       340.83700       6.6730735     0.026738269
       1962.0000       287.78757       98784.629       15121.725       3.7380000       1.5490000     -0.68800000       341.14800       3.9320335     0.015505703
       1967.0000       287.80137       98785.618       15127.003       4.9447500       1.0702500      0.26650000       340.90700       4.7809173     0.012314152
       1972.0000       287.83817       98785.824       15186.746       4.1950000      0.59175000    -0.031750000       341.15600       4.4653132     0.015086077
       1977.0000       287.85796       98784.817       15224.884       4.6780000       1.3392500     -0.34625000       340.81000       5.8785358     0.014508369
       1982.0000       287.89474       98786.062       15285.860       4.0720000       1.0475000     0.097500000       340.92600       4.2697658     0.021018460
       1987.0000       287.91086       98785.676       15347.625       4.1747500       1.5757500     -0.92625000       340.95300       6.0955229     0.012518533
       1992.0000       287.90021       98780.819       15406.318       3.5865000      0.10500000      0.47750000       341.41700       3.4141229     0.011885027
       1997.0000       287.90016       98779.188       15457.448       4.3572500       1.5955000     -0.34050000       340.67200       2.4460153     0.011305016
       2002.0000       287.91312       98780.377       15554.247       3.0612500      0.18600000     -0.10300000       341.20300       5.1871891     0.021273919
       2007.0000       287.89958       98780.417       15574.934       3.6735000      0.18500000     -0.14300000       341.16800       3.4846519     0.014132852
       2012.0000       287.88746       98780.266       15547.616       2.9550000     -0.58675000     -0.14800000       341.26700       3.7521594     0.012348744
       2017.0000       287.84021       98780.226       15503.533       2.2507500     -0.60975000     0.053250000       341.26900       3.5188661     0.018243108
       2022.0000       287.75445       98780.274       15422.342       2.1347500     -0.42200000     -0.37600000       341.31900       4.4539381     0.013756710
       2027.0000       287.67125       98780.274       15317.388       3.3172500      -1.1115000     -0.23850000       340.92400       3.7806130     0.014815194
       2032.0000       287.50815       98778.772       15149.051       3.3272500     -0.83800010   -0.0095000010       340.86500       3.1711184     0.017242139
       2037.0000       287.46357       98780.119       15044.299       3.3135000     -0.76100000      0.36075000       340.91200       2.2673718     0.015769603
       2043.0000       287.48650       98779.197       14909.859       2.8582500      -2.3307500     -0.51350000       341.18800       2.2040710     0.012022985
       2048.0000       287.49915       98789.528       14839.335       3.6682500      -2.0397500      0.28825000       341.19800       2.6820280     0.016185534
       2053.0000       287.61025       98814.928       14833.663       2.3060000     -0.50475000     -0.87200000       341.01500       2.5500826     0.011845014
       2058.0000       287.62170       98821.503       14802.650       4.1367500      -2.1670000      0.48325000       341.46500       2.0817576     0.013579869
       2063.0000       287.55752       98829.740       14760.192       3.8017500      -2.6402500     0.060000000       340.82400       1.9763824     0.010465775
       2068.0000       287.53744       98827.364       14753.088       3.0237500      -1.1702500      0.11050000       341.24800       1.9902026     0.012465473
       2073.0000       287.48946       98801.944       14749.916       4.4847500      -3.2460000    -0.092250000       341.02700       1.9477557     0.011513749
       2078.0000       287.49157       98793.753       14792.845       4.8645000      -2.2697500     -0.31575000       341.03700       2.0379236     0.014443017
       2083.0000       287.54100       98788.033       14890.324       4.0842500     -0.79300000     -0.25175000       340.82000       1.9263697     0.010873936
       2088.0000       287.56112       98788.582       14963.053       3.4802500      -1.1285000    -0.035000000       340.86200       1.9699159     0.010131024
       2093.0000       287.62122       98797.589       15101.973       3.6827500      -2.1645000    -0.087250000       340.68200       2.2115944     0.020861742
       2098.0000       287.60264       98803.265       15123.535       4.9667500     -0.13025000      0.41425000       341.15100       2.0094442    0.0097649301
       2103.0000       287.51476       98814.579       15070.103       3.1082500     -0.59825000      0.15875000       341.16000       2.0547790     0.020279973
       2108.0000       287.47454       98819.433       15038.014       3.1930000     -0.94000010    -0.049750000       341.09600       2.1982614     0.025420821
       2113.0000       287.40114       98820.251       14940.174       2.7360000      -1.3125000      0.73850010       341.32300       2.7705164     0.011787907
       2118.0000       287.37383       98821.648       14889.463       3.3687500    -0.029500000      0.24075000       341.44200       2.9891325     0.015113035
       2123.0000       287.38843       98820.401       14877.835       3.1345000      -1.4552500     -0.40850000       340.76800       3.7991630     0.016418958
       2128.0000       287.40491       98820.488       14836.465       4.0325000     -0.42950000      0.17725000       341.14800       2.7693041     0.011574312
       2134.0000       287.45494       98820.463       14771.329       2.5117500      0.24400000      0.99550000       341.44000       2.3436290     0.016171557
       2139.0000       287.45605       98820.569       14725.110       3.1845000      0.57925000     -0.14450000       341.02500       10.233151     0.016840465
       2144.0000       287.44746       98820.110       14652.989       3.9700000     -0.51300000     -0.41175000       341.10000       10.091586     0.025208680
       2149.0000       287.45750       98820.050       14655.697       4.0027500      -1.4152500      0.41150000       341.13700       7.7926562     0.014073399
       2154.0000       287.45210       98818.434       14704.117       3.2792500     -0.34725000      0.18475000       340.93100       3.4557575     0.013871962
       2159.0000       287.44214       98822.167       14725.151       3.2620000     -0.97600010     -0.85900000       340.53800       2.1903289     0.013809600
       2164.0000       287.44828       98829.344       14777.013       2.4380000     0.068750000      0.64250000       341.15400       1.8138521     0.024378854
       2169.0000       287.45835       98833.301       14823.277       2.5212500     -0.13425000      0.32050000       340.95900       1.9845981     0.011668327
       2174.0000       287.43315       98840.787       14835.764       4.3892500     -0.42925000     0.029500000       340.65500       2.0173854     0.010561206
       2179.0000       287.46128       98842.978       14902.171       4.3870000     -0.36250000      0.91100010       340.91600       2.0572868     0.013007001
       2184.0000       287.55767       98841.941       15040.164       3.1805000     -0.63025000     0.099000010       340.74700       2.0377723     0.011134992
       2189.0000       287.57059       98838.162       15081.743       4.3400000     -0.82600000     -0.48475000       340.77200       2.1905114     0.011608896
       2194.0000       287.56563       98830.827       15111.200       4.7690000      -2.3782500     -0.29100000       340.57800       4.3447635     0.017812779
       2199.0000       287.53850       98826.790       15088.579       3.7920000     -0.87875000      0.16450000       340.76600       2.6743174     0.015752221
       2204.0000       287.44207       98819.685       14981.719       2.8007500      -1.0175000     0.091000010       340.88000       1.9803946     0.010875694
       2209.0000       287.42957       98817.427       14936.358       3.7115000      -1.1750000     -0.37650000       340.79300       2.8218071     0.015270298
       2214.0000       287.42378       98820.455       14873.177       4.2760000     -0.17775000     -0.33500000       340.40200       2.3793251     0.011815702
       2219.0000       287.47114       98820.501       14860.501       3.0507500      -1.1947500     0.016000000       340.98000       2.1712117     0.021055189
       2225.0000       287.61209       98820.895       14889.696       3.7615000     -0.20175000      0.17825000       340.96100       2.2137447     0.011942515
       2230.0000       287.66945       98817.086       14907.130       3.3942500     -0.77550010     -0.43850000       341.00900       2.0866044     0.011486378
       2235.0000       287.67501       98814.998       14918.584       2.7775000     -0.81325010     -0.16225000       341.06300       2.1525022     0.016951734
       2240.0000       287.53911       98814.746       14909.774       4.1037500      -1.9725000      0.26175000       340.80400       2.4472274     0.015413133
       2245.0000       287.48749       98810.917       14912.248       3.1817500     -0.42700000      0.46725000       340.93800       1.9801712     0.010175311
       2250.0000       287.45999       98804.361       14922.336       3.0550000      -1.5780000      0.34450000       340.77700       1.9602640     0.011629434
       2255.0000       287.43746       98800.414       14933.372       2.7657500      -1.2112500    -0.095250000       340.83600       2.0653066     0.013043582
       2260.0000       287.43952       98796.454       14947.618       2.4922500     -0.62025000   -0.0082500000       340.92100       1.8953057     0.010876773
       2265.0000       287.50704       98789.751       14972.540       3.9677500      -1.3887500     -0.17250000       340.72200       1.9945178     0.012908806
       2270.0000       287.51596       98785.890       14979.269       3.7405000      -1.5050000    0.0040000000       340.83600       2.0369477     0.015448619
       2275.0000       287.49378       98785.304       14974.089       4.1340000     0.072000000     -0.58250000       340.79900       2.0138916     0.012564416
       2280.0000       287.53044       98780.328       15008.042       3.5102500    -0.074750010      0.33025000       341.05900       2.3901463     0.012273313
       2285.0000       287.55071       98779.042       15021.636       2.5137500      0.29750000      0.33975000       340.94700       3.4827606     0.011142364
       2290.0000       287.59999       98784.940       15057.994       2.2877500     -0.23925000    -0.046500000       340.94200       5.2416522     0.012991569
       2295.0000       287.61212       98786.087       15062.986       2.4150000     -0.72750000      0.12925000       341.15500       8.0443857     0.014464971
       2300.0000       287.59960       98785.998       15043.816       3.7592500     -0.47950000     -0.22200000       340.79500       6.0630670     0.018946972
       2305.0000       287.55105       98785.640       14983.552       4.4062500     -0.78950010      0.20675000       340.96300       4.1891788     0.014917783
       2310.0000       287.53080       98786.756       14960.561       4.5332500     0.054000000      0.28025000       340.85800       3.2111707     0.014297333
       2316.0000       287.49100       98784.716       14927.718       4.5972500     -0.31150000    -0.071500000       340.64900       3.1793164     0.013047577
       2321.0000       287.50006       98789.287       14939.955       4.6770000     -0.32475000      0.48700000       340.79500       2.9039789     0.012649590
       2326.0000       287.50009       98791.156       14919.507       3.5157500     -0.54500000    -0.032750000       340.96500       3.7736737     0.019107032
       2331.0000       287.50014       98790.340       14863.106       3.0925000    -0.056250000     -0.68750010       340.88800       2.1224771     0.011722406
       2336.0000       287.50029       98790.361       14833.275       3.1145000     -0.21900000      0.13650000       341.00900       2.9066600     0.019007120
       2341.0000       287.48561       98787.361       14781.933       3.4600000      -1.6392500     -0.38875000       340.45000       2.8759947     0.018185838
       2346.0000       287.49650       98789.533       14768.028       3.1705000     -0.85000000     -0.15825000       340.86300       4.2307949     0.015143904
       2351.0000       287.50432       98797.142       14783.921       2.8135000     0.018750000     0.051500000       341.11600       3.4162948     0.011226956
       2356.0000       287.54722       98801.243       14817.725       1.8565000      0.47800000      0.65075000       341.07500       8.4814493     0.021499004
       2361.0000       287.65756       98806.751       14888.490       1.8395000      0.64450000      0.56275000       341.31400       5.6251210     0.020278871
       2366.0000       287.71673       98811.649       14949.131       2.0210000      0.41350000     0.010000000       341.40000       4.6142515     0.014786912
       2371.0000       287.76609       98813.609       14994.709       3.2532500      0.30850000     -0.11100000       341.20100       3.1527912     0.017798175
       2376.0000       287.81508       98815.587       15089.444       1.5697500      0.86900000     -0.28825000       341.20300       4.3128202     0.015347371
       2381.0000       287.83444       98819.447       15239.586       3.3870000    0.0062500000      0.36025000       341.25300       5.1267531     0.017971389
       2386.0000       287.85434       98821.371       15343.584       3.4280000      0.28525000     -0.39650000       341.14000       4.8664521     0.012348376
       2391.0000       287.89052       98817.459       15507.298       2.4595000      0.41225000      0.56850000       341.11900       3.3256288     0.011766804
       2396.0000       287.90915       98819.764       15584.264       2.9640000      0.61375000    -0.033250000       341.22100       6.1683954     0.014128672
       2401.0000       287.91392       98827.009       15577.614       3.1390000      0.49900000   -0.0080000000       341.06300       4.7894085     0.012374495
       2407.0000       287.89863       98831.773       15554.876       2.1392500     -0.25475000    -0.099250000       341.36100       5.0055753     0.016190761
       2412.0000       287.84828       98841.826       15466.948       2.3537500   -0.0077500000      0.17200000       341.47500       3.7159378     0.013370624
       2417.0000       287.84189       98842.335       15416.965       2.5165000     -0.39400000      0.35900000       340.92900       3.8182188     0.010563426
       2422.0000       287.85614       98832.608       15381.283       1.8375000     -0.33600000    -0.023750000       341.12900       4.3394328     0.013275350
       2427.0000       287.84630       98828.596       15313.279       1.7187500    -0.094250000     0.085750010       341.49400       9.2414754     0.027860171
       2432.0000       287.86996       98821.395       15227.534       2.1652500     -0.62475000      0.30800000       341.02800       7.3999043     0.020936406
       2437.0000       287.85279       98818.215       15164.864       2.2770000     -0.53525000      0.13250000       341.29500       5.2824784     0.014992877
       2442.0000       287.76774       98821.680       15057.814       1.6272500      -1.1217500      0.31950000       341.38100       2.7601935     0.012969980
       2447.0000       287.73151       98820.325       15017.510       3.3625000    -0.017750000     -0.58000000       341.11300       2.4476627     0.015643377
       2452.0000       287.69278       98816.651       15029.712       2.4317500    -0.083750000      0.30675000       341.23500       3.4137093     0.013825468
       2457.0000       287.69017       98814.714       15051.121       3.0467500      0.63800000     -0.17900000       341.08900       2.6845540     0.015140587
       2462.0000       287.75147       98813.313       15140.858       1.6852500     -0.34175000      0.19150000       341.54500       2.5885035     0.012865365
       2467.0000       287.75805       98808.938       15161.281       2.8007500     -0.87300000      0.45475000       341.12000       3.4134419     0.015133044
       2472.0000       287.74432       98802.794       15139.700       3.0895000     -0.15125000     0.030000000       341.08900       3.0954589     0.011588581
       2477.0000       287.75443       98798.883       15161.980       3.3882500     -0.71725000     -0.71925000       340.70500       5.9640377     0.014608901
       2482.0000       287.74274       98792.626       15157.005       3.1880000      -1.5012500     -0.22300000       341.39200       3.2130374     0.017133729
       2487.0000       287.74701       98788.025       15182.779       4.5677500     -0.90150000     -0.48250000       340.99800       2.4409448     0.011041680
       2492.0000       287.83261       98786.423       15320.424       2.9587500     -0.99375000     0.022250000       341.13800       2.2161353     0.016137487
       2498.0000       287.79588       98784.006       15316.466       4.4782500     -0.25875000     -0.46075000       340.71300       2.0466432     0.011379853
       2503.0000       287.67148       98779.183       15231.609       2.5790000     -0.16000000      0.63450000       341.37400       1.9805252     0.010130800
       2508.0000       287.61133       98779.434       15162.283       3.7580000     -0.40575000       1.1067500       341.41000       2.3532716     0.011123941
       2513.0000       287.50187       98784.480       15018.207       4.6425000      -1.4875000   -0.0072500000       340.97500       3.8900267     0.013164879
       2518.0000       287.46122       98786.407       14925.591       3.8515000     -0.92850010     -0.15225000       340.95600       2.5600669     0.018628208
       2523.0000       287.50019       98788.130       14865.309       3.7077500      -1.8562500      0.16300000       341.12000       2.0792698     0.013167490
       2528.0000       287.50036       98792.795       14787.631       3.2672500      -1.9292500     -0.15700000       340.88100       2.1597607     0.013717162
       2533.0000       287.47659       98798.510       14663.842       2.7855000      -1.0532500     -0.17300000       341.18400       2.0824283     0.017590452
       2538.0000       287.50940       98802.536       14637.892       2.6770000      0.42075000     -0.54950000       340.90400       1.9136524     0.013455514
       2543.0000       287.56161       98808.869       14633.668       3.1175000      -2.1680000     -0.55525000       341.17100       1.9602040     0.013096390
       2548.0000       287.63420       98813.294       14694.737       3.3812500      -1.3057500      0.40925000       341.14000       2.1411065     0.016468783
       2553.0000       287.80647       98812.155       14875.212       3.6527500      -1.1282500     -0.15625000       340.75500       1.9851041     0.014439696
       2558.0000       287.84234       98817.310       14984.021       3.1075000     -0.50800000    -0.061250000       340.71800       1.9673673    0.0096999672
       2563.0000       287.82513       98828.528       15123.726       3.9660000     -0.50325000      0.55025010       340.76700       1.9582117    0.0096431717
       2568.0000       287.79629       98833.792       15194.349       2.7300000      -1.1640000    -0.042250000       340.98600       1.8886015     0.012025039
       2573.0000       287.66025       98842.562       15219.194      0.90300010      -1.1285000      0.41450000       341.28000       1.9462564     0.010887088
       2578.0000       287.61308       98841.973       15228.227       4.5452500      0.17525000      0.16475000       340.40600       1.9636282     0.012304993
       2584.0000       287.59725       98831.164       15187.050       2.3000000      -2.1727500      0.90625010       340.83100       1.9615302    0.0091594793
       2589.0000       287.58596       98827.227       15167.813       3.8385000      -2.0685000     -0.13350000       340.89100       1.9744059     0.011162427
       2594.0000       287.60915       98819.641       15159.339       3.0177500      0.52525000      0.11975000       340.70000       1.9421416    0.0096995903
       2599.0000       287.59055       98817.376       15084.899       3.6455000    0.0087500000      0.25325000       341.03200       2.1768906     0.026623705
       2604.0000       287.54529       98821.251       14971.442       2.9975000      0.72350000      0.97525010       341.10000       2.0861773     0.016258680
       2609.0000       287.54423       98819.431       14890.878       3.5042500    -0.061000000     -0.21175000       340.56300       2.0469366    0.0094885267
       2614.0000       287.53350       98815.879       14743.894       2.2235000      0.48150000     -0.34900000       340.76600       2.0731342     0.010343556
       2619.0000       287.56020       98813.936       14707.853       4.3830000     -0.37500000     -0.41250000       341.00300       2.0801609     0.010598191
       2624.0000       287.64774       98812.018       14749.580       3.6802500      -1.0930000    -0.092250000       340.90100       2.0636676     0.011409003
       2629.0000       287.67894       98807.161       14767.645       3.0067500      0.11200000   0.00075000000       341.01100       2.0293484     0.011532976
       2634.0000       287.70227       98798.456       14814.688       2.1435000    -0.041250000     -0.40525000       341.06700       2.0629542     0.022897331
       2639.0000       287.71355       98800.106       14863.123       2.6270000     -0.10375000      0.10025000       341.17700       2.0040443     0.011588630
       2644.0000       287.70878       98804.420       14903.897       3.1345000      -1.0150000    -0.075250010       340.60900       1.9620337     0.010573664
       2649.0000       287.69017       98806.247       14989.796       3.7865000      0.25425000      0.30600000       340.96000       2.0722223     0.011217445
       2654.0000       287.67189       98816.645       15157.073       4.1042500       1.5865000     -0.49050000       340.62000       2.0109213    0.0092586470
       2659.0000       287.61470       98818.007       15176.188       3.2680000      0.89800010     -0.28900000       340.55200       2.0682124     0.011218618
       2664.0000       287.51531       98809.782       15181.876       4.5992500     -0.76025000      0.33550000       340.87500       2.0562169     0.010661360
       2669.0000       287.44453       98808.631       15104.935       5.4385000      0.79825000      0.53625010       340.83000       1.9785433     0.013666832
       2675.0000       287.33819       98810.191       14862.809       6.9092500      -2.5740000     -0.63300000       340.85400       1.9706491     0.012025343
       2680.0000       287.30006       98808.855       14747.818       6.3395000      -1.9397500     -0.20350000       340.40400       2.1246872     0.020511918
       2685.0000       287.28707       98809.723       14649.498       4.2140000     -0.72525000     -0.30050000       340.44000       2.1391829     0.020450433
       2690.0000       287.31553       98813.128       14575.665       3.6522500     -0.74950000      0.21050000       340.72100       1.9457979     0.010752532
       2695.0000       287.34434       98815.024       14515.848       2.3212500       1.0787500      0.14975000       340.95600       2.0798728     0.017922510
       2700.0000       287.40021       98818.838       14447.762       2.4280000      0.62375000     -0.38700000       340.90800       1.9538397    0.0085220933
       2705.0000       287.44984       98820.943       14423.999       1.1917500    -0.033250000      0.97750000       341.14700       2.0453860     0.014504931
       2710.0000       287.49942       98821.811       14431.467       2.2332500      0.87575010      0.26150000       341.08200       2.0151428     0.012594032
       2715.0000       287.55564       98820.892       14470.976       4.0572500       1.1635000     -0.20025000       340.90900       1.9921853     0.011279113
       2720.0000       287.58469       98818.680       14523.454       2.3360000     -0.45850000      0.26325000       341.06600       1.9918834     0.011192527
       2725.0000       287.61208       98814.557       14622.052       3.1070000     -0.47275000      0.34425000       340.66900       2.1403969     0.027224936
       2730.0000       287.56976       98816.381       14652.954       4.6230000       1.5750000      0.10725000       340.72600       2.0642576     0.013082938
       2735.0000       287.54960       98815.388       14711.908       4.3112500     -0.30350000      0.14500000       340.87500       2.0134561     0.016781213
       2740.0000       287.49976       98818.740       14776.624       5.0687500      -1.4537500     -0.30875000       340.54000       2.0331073     0.013311288
       2745.0000       287.48736       98817.084       14840.590       3.3487500     -0.78200010     -0.17150000       340.71800       1.9828572     0.011811587
       2750.0000       287.49948       98811.719       14914.379       3.9715000     -0.76725010     -0.17300000       340.74500       2.0597782     0.017447247
       2755.0000       287.55536       98800.363       15039.010       2.3425000      -1.0167500      0.22175000       340.95300       1.8959522     0.010508884
       2760.0000       287.55380       98793.252       15048.246       2.6870000    -0.091250000      0.35650000       341.06400       2.0243905     0.013620915
       2766.0000       287.55476       98782.970       15009.248       2.6827500     -0.24850000      0.41025000       340.73900       2.0816273     0.017518342
       2771.0000       287.49548       98784.739       14900.633       2.8115000     -0.29650000     -0.38200000       340.76500       2.0478505     0.018057334
       2776.0000       287.48785       98784.885       14855.452       3.1720000      -1.1040000      0.38200000       340.88200       1.9893453     0.016436924
       2781.0000       287.53429       98785.153       14856.177       2.8447500     -0.90675000     -0.41175000       340.75100       1.9652533     0.012616062
       2786.0000       287.55408       98790.387       14841.465       3.1485000     -0.43725000     -0.35075000       340.66200       1.9973596     0.013426168
       2791.0000       287.60437       98800.375       14856.913       3.5255000      -1.5157500     -0.51850000       340.73800       2.1561496     0.022879979
       2796.0000       287.61187       98806.301       14845.600       2.8270000      -1.0332500       1.1857500       340.87500       1.9101573     0.011004556
       2801.0000       287.55212       98817.377       14783.101       4.0062500      -1.0847500     -0.16450000       340.76100       2.0699715     0.020023612
       2806.0000       287.54332       98823.013       14772.668       2.8172500     -0.38950000     0.044250000       340.83200       1.9661822     0.010996636
       2811.0000       287.55826       98817.468       14789.306       2.0275000     -0.58575000      0.37000000       341.09600       1.9517046     0.010170900
       2816.0000       287.54811       98819.751       14797.388       1.9895000      -1.9090000      0.96125010       340.99100       1.8894787    0.0089265562
       2821.0000       287.55555       98830.056       14841.206       2.0265000     -0.98250010      0.78975000       341.07000       1.8984340     0.011437294
       2826.0000       287.55432       98831.909       14867.485       2.4970000      -1.1590000       1.0280000       341.05500       1.9938265     0.012431915
       2831.0000       287.50958       98831.588       14856.928       3.1345000     -0.89450000     0.081000000       340.70400       2.0159557     0.013827454
       2836.0000       287.49083       98831.313       14875.850       3.2360000     -0.95450000    -0.060250000       340.83200       1.9853602     0.011843611
       2841.0000       287.50063       98826.708       14931.489       3.2627500      -1.3457500     -0.15400000       340.90000       1.9978917     0.014270851
