MIRICO/SHELL project - Processed LDS file generated on
Thu Jul 20 02:24:05 2017
Time stamp for record start
05/12/2017  09:48: 0.0000
Nb of points in the record
         563
Beam position index
       4.0000000
Beam angle (degrees)
    -0.040000000
Open Path length (m)
       98.010000
****************** Temporal data record ************************
Elapsedtime_sec Temp_K Press_Pa Humidity_ppmv WindX_m/s WindY_m/s WindZ_m/s Speedofsound_m/s CH4vmr_ppmv CH4vmrerror_ppmv  
      0.00000000       286.76999       98772.687       15146.635       3.3112500       1.4965000     -0.45800000       340.52300       1.9723260     0.011267402
       5.0000131       286.75006       98768.258       15137.480       3.1052500       1.3357500    -0.075000000       340.62800       1.9630416     0.010797048
       10.000026       286.73007       98767.509       15123.698       3.1660000      0.92900000     0.028500000       340.85000       1.9411491    0.0094334963
       14.999999       286.68738       98768.300       15087.408       2.5770000       1.5477500     -0.33575000       340.75700       1.9528219    0.0098040754
       21.000007       286.70580       98778.686       15063.498       2.7677500      0.62450000    0.0080000000       340.94600       1.9610418    0.0097162611
       26.000020       286.74860       98786.724       15094.157       2.9862500       1.5265000    -0.052750000       340.87900       1.9242757     0.014276478
       31.000033       286.88803       98794.878       15211.849       3.8702500       1.0447500      0.72500000       340.91000       1.9815482    0.0097342292
       36.000006       286.92543       98801.942       15249.917       2.4315000      0.84975000    -0.099250000       340.88900       1.9666120    0.0088552718
       41.000019       286.89813       98811.608       15258.863       3.9767500      0.52950000     -0.10550000       341.15800       1.9653152    0.0094511736
       46.000032       286.90666       98817.238       15297.922       4.3197500       1.0572500      0.67225000       341.00000       1.9860212    0.0096073771
       51.000005       286.85271       98820.862       15282.501       3.8047500      0.65525000       1.1775000       341.04000       1.9511051    0.0092618802
       56.000018       286.83566       98821.638       15301.128       4.6885000       1.1835000      0.46225000       340.83000       1.9514547    0.0096720741
       61.000031       286.90409       98819.658       15426.263       4.5530000      0.42775000     -0.12475000       340.79900       1.9529273    0.0099877342
       66.000004       286.91165       98815.411       15457.660       3.1397500      0.70425000     -0.31900000       341.05200       1.9542307    0.0088319785
       71.000017       286.83725       98805.644       15411.725       2.9007500       1.6595000     -0.77025000       340.67400       1.9676893    0.0091867477
       76.000030       286.83941       98798.581       15393.830       4.0475000      0.14600000      0.10225000       340.71900       1.9484960     0.010894465
       81.000003       286.84976       98791.683       15309.580       4.4282500     -0.33375000      -1.0045000       340.74600       1.9600695    0.0091029725
       86.000016       286.89358       98783.801       15298.240       4.0460000     -0.11975000    -0.027500000       340.71600       1.9647997    0.0093807603
       91.000029       287.06236       98771.510       15365.661       2.6847500       1.6600000     -0.13200000       341.07700       1.9665071    0.0086670720
       96.000002       287.12815       98767.838       15393.766       3.0447500      0.88575010     -0.24525000       340.84500       1.9927906    0.0097391717
       101.00002       287.17691       98767.431       15436.554       2.9170000       2.0305000      -1.0355000       340.70700       1.9422320     0.010423419
       106.00003       287.17175       98768.836       15475.813       2.9997500      0.16350000     -0.21050000       341.08000       1.9665265     0.010028292
       112.00004       287.02999       98780.292       15500.745       2.6940000       1.2180000     -0.25600000       340.88700       1.9627651    0.0093847816
       117.00001       286.97368       98788.333       15515.526       2.8510000      0.89900000      0.19900000       340.95300       1.9583019    0.0079839482
       122.00002       286.92271       98797.657       15569.848       1.8010000    0.0092500000     0.099250000       341.20500       1.9540809    0.0097318846
       127.00004       286.87624       98803.370       15551.052       2.6497500      0.87125000     -0.27475000       340.82500       1.9517015    0.0098499957
       132.00001       286.86240       98808.111       15465.664       3.3290000       1.3085000     -0.49125000       340.65900       1.9415677     0.010601955
       137.00002       286.84277       98812.756       15406.154       4.0317500      0.62750010     -0.18400000       340.57900       1.9455990     0.011037115
       142.00003       286.83174       98814.169       15313.799       2.8680000       1.2665000    -0.031750000       340.78500       1.9476794    0.0097982449
       147.00001       286.78774       98816.270       15235.627       2.3270000    -0.089250010      0.14075000       341.24600       1.9460567    0.0091087384
       152.00002       286.72367       98821.084       15177.512       2.3887500      0.81725000      0.22225000       340.99600       1.9488679    0.0089296864
       157.00003       286.68343       98821.361       15107.503       3.2795000      0.61000000     0.050500000       340.75400       1.9597761     0.010376724
       162.00001       286.62224       98818.959       15031.569       1.7715000       1.3700000     0.059000000       341.29400       1.9548530     0.010395043
       167.00002       286.57588       98814.219       14944.891       1.8637500       2.0077500     -0.74125000       340.83400       1.9451077    0.0095344061
       172.00003       286.53625       98804.331       14807.317       2.5717500       2.4262500     0.077500000       340.81300       1.9447428    0.0097975893
       177.00001       286.54402       98797.338       14763.086       3.5572500       2.2545000      0.13675000       340.98600       1.9416381    0.0087863122
       182.00002       286.58118       98787.383       14747.571       3.4500000       2.9427500     -0.35625000       340.52500       1.9738878    0.0097204668
       187.00003       286.60475       98782.106       14755.043       3.4872500       2.1475000      0.20125000       340.45600       1.9469326    0.0092383269
       192.00000       286.68977       98780.757       14842.042       3.6550000       1.9722500    -0.033000000       340.73300       1.9525966     0.010234066
       197.00002       286.72205       98779.149       14914.220       2.2462500       1.7917500     -0.63525000       340.77500       1.9555866    0.0097038564
       203.00003       286.69960       98779.298       15014.985       1.5025000       1.4087500      0.21300000       341.04800       1.9489760    0.0086047898
       208.00000       286.69953       98781.004       15070.800       3.1395000      0.32000000      0.15500000       341.02800       1.9442674     0.010439639
       213.00001       286.67775       98782.307       15118.020       3.5810000       1.4485000     0.011500000       340.76900       1.9613082    0.0098505648
       218.00002       286.71000       98787.522       15189.950       3.6385000       1.6892500     -0.40100000       340.67200       1.9512613     0.010505544
       223.00004       286.79528       98798.683       15275.341       2.9382500      0.56825000     0.095500010       340.95800       1.9596285     0.010346216
       228.00001       286.81880       98804.007       15302.321       3.0782500       1.2082500    -0.086250010       340.80500       1.9541266     0.011902062
       233.00002       286.84595       98812.689       15332.571       2.7882500       1.0695000     -0.18300000       340.84300       1.9566084    0.0096465627
       238.00004       286.86946       98812.187       15345.163       2.6642500     -0.15375000    0.0090000010       340.94600       1.9686531    0.0092951295
       243.00001       286.84371       98799.759       15297.651       2.3970000      0.12000000      0.17550000       340.90800       1.9694393     0.010087673
       248.00002       286.85021       98799.087       15258.131       2.1777500      0.25875000     -0.30150000       341.19200       1.9875965    0.0090372720
       253.00004       286.89956       98799.096       15219.225       2.8992500      0.58925000     -0.17475000       340.74900       1.9608650    0.0096800338
       258.00001       286.91346       98800.403       15203.219       2.5512500       1.0740000     -0.10275000       341.13000       1.9585638     0.010444853
       263.00002       286.92252       98812.474       15174.216       1.7457500      0.65550010     -0.20425000       341.25800       1.9497454     0.011188514
       268.00003       286.89021       98811.994       15144.413       1.5272500       1.3382500      0.34100000       341.23700       1.9509257     0.011087820
       273.00001       286.81625       98803.004       15147.843       1.9525000      0.95300010     -0.10325000       341.05000       1.9560230     0.010623363
       278.00002       286.77655       98797.419       15135.741       2.4350000       1.0570000     -0.47825000       340.96800       1.9596164     0.010541212
       283.00003       286.70202       98788.809       15080.494       2.5885000      0.88150010    -0.034750000       341.01700       1.9660944     0.010011866
       289.00000       286.67227       98779.207       15069.320       4.0727500       1.7082500     -0.30325000       340.41600       1.9568365     0.010895929
       294.00001       286.71706       98770.866       15119.498       3.4710000       1.6730000     -0.45075000       340.75700       1.9653989    0.0097119923
       299.00003       286.67922       98765.713       15084.558       3.7232500      0.75925000    -0.084000010       340.61700       1.9533728     0.010834827
       304.00000       286.59798       98757.725       15014.356       4.3112500       1.0770000    -0.037750000       340.72800       1.9398081    0.0094493784
       309.00001       286.57673       98759.139       14967.758       3.5770000      0.40575000     0.013000000       340.47700       1.9535485    0.0098350581
       314.00003       286.53121       98768.675       14875.103       2.8885000      0.99425010   -0.0090000010       340.92900       1.9637490    0.0099405711
       319.00000       286.54736       98774.549       14845.028       3.2067500       1.0242500    -0.091250000       340.66400       1.9528035     0.010280807
       324.00001       286.63912       98785.447       14855.100       3.9792500       1.5617500     -0.42475000       340.46300       1.9567323     0.010098902
       329.00003       286.68942       98789.747       14866.961       3.6317500      0.97625010     -0.51450000       340.57700       1.9547525    0.0098906520
       334.00000       286.74907       98789.121       14897.697       3.1770000      0.13200000     -0.26900000       340.44700       1.9724673     0.011146387
       339.00001       286.78051       98794.171       14922.834       2.4712500      0.45425000     0.056000000       340.79800       1.9627525    0.0095454556
       344.00003       286.80280       98799.706       14950.615       1.7450000      0.23025000      0.55175000       341.10000       1.9752888     0.010171579
       349.00000       286.81394       98803.730       15008.563       2.0600000     -0.47525000      0.44375000       341.00600       1.9714357    0.0095665984
       354.00001       286.80874       98810.866       15098.175       2.6647500     -0.87950000     -0.20075000       340.52000       1.9650846     0.010383983
       359.00002       286.78994       98813.058       15129.568       2.7237500     -0.15950000      0.38300000       340.95300       1.9687583    0.0096115090
       364.00004       286.75394       98810.441       15176.680       1.7102500     -0.40850000      0.31400000       341.07100       1.9635098     0.010541491
       369.00001       286.73403       98810.500       15171.761       2.7392500     -0.19725000     -0.21200000       340.69100       1.9560114     0.011221647
       374.00002       286.69754       98812.281       15097.165       2.6232500      0.17450000    -0.052250000       340.69700       2.0057077    0.0099500809
       380.00003       286.68575       98807.455       15048.836       2.0247500      0.14350000     -0.40075000       340.75500       1.9354556     0.012258416
       385.00000       286.70022       98800.427       15010.923       2.1670000     -0.39525000     -0.12600000       340.90400       1.9694466     0.010078950
       390.00002       286.71514       98794.623       14974.190       2.0250000     0.011250000    -0.093750010       340.76100       1.9464327     0.011625203
       395.00003       286.70683       98789.397       14911.780       2.0525000     -0.64975010      0.32975000       341.03700       1.9607982     0.010816143
       400.00000       286.65481       98790.337       14783.253       2.9940000    -0.031250000    -0.064500000       340.85700       1.9485116     0.011072677
       405.00002       286.64372       98786.645       14722.256       2.1170000    -0.078000000      0.26700000       341.06000       1.9489308     0.010950799
       410.00003       286.64499       98780.481       14685.592       2.7295000      0.11750000     -0.24375000       340.78000       1.9487993    0.0098778207
       415.00000       286.63645       98769.661       14640.110       2.1370000      0.25600000      0.10675000       340.89000       1.9541095     0.010835500
       420.00002       286.66967       98764.675       14669.215       1.3397500      0.46800000      0.20575000       341.08400       1.9670465    0.0090759265
       425.00003       286.76175       98757.674       14776.870       2.1935000     -0.22000000      0.64050000       340.70800       1.9389891    0.0099643281
       430.00000       286.76926       98766.389       14869.711       3.1777500      0.10175000     0.063500000       340.83000       1.9454103     0.011029608
       435.00001       286.76184       98770.432       14926.802       1.3867500      0.79525010    -0.020750000       341.22600       1.9365167     0.012510970
       440.00003       286.68409       98777.455       14964.371       4.3450000      0.61625000     -0.81150000       340.47300       1.9618186     0.010359928
       445.00000       286.64308       98781.660       14986.827       3.5662500      0.98650000     -0.14075000       340.64000       1.9465316     0.010933235
       450.00001       286.61511       98775.813       14984.586       3.2530000      0.78225000    -0.078750010       340.63000       1.9502305    0.0097036683
       455.00003       286.59395       98778.411       14967.524       2.4615000    -0.062500000     -0.46075000       340.78100       1.9472276    0.0095471369
       460.00000       286.58508       98784.704       14936.379       2.8092500      0.87300000     -0.29050000       340.85700       1.9459426     0.010295378
       465.00001       286.59973       98794.897       14899.257       3.5325000      0.73800000     -0.15375000       340.85600       1.9437203     0.010706088
       471.00002       286.58579       98805.790       14764.773       2.3525000      0.63250010      0.55950000       341.04800       1.9363434    0.0091565237
       476.00003       286.59703       98812.628       14695.558       3.5497500       1.0255000    -0.072500010       340.84500       1.9454974    0.0088314150
       481.00001       286.63494       98815.085       14617.755       4.6550000      0.48350000     -0.12875000       340.58500       1.9540930    0.0091593299
       486.00002       286.65535       98815.963       14571.586       2.9005000       1.0690000      0.37700000       340.88800       1.9186383     0.010557036
       491.00003       286.69078       98814.445       14575.343       3.9840000      0.99475000     -0.47175000       340.60700       1.9459466    0.0092958645
       496.00001       286.70932       98815.394       14581.088       2.9780000     0.087750000      0.56200000       341.02200       1.9506278     0.010013370
       501.00002       286.69974       98816.016       14589.916       3.2055000     -0.11100000      0.10450000       340.79200       1.9548071    0.0095984923
       506.00003       286.69948       98814.987       14622.612       3.4372500      0.87800000     -0.82200000       340.63700       1.9511756     0.010760302
       511.00000       286.70001       98818.586       14695.150       3.2862500      0.28650000      0.51525000       340.81500       1.9463560     0.010209010
       516.00002       286.69998       98816.155       14749.152       3.1600000      0.47575000     -0.35200000       340.70600       1.9407358     0.010321949
       521.00003       286.69964       98804.300       14826.786       3.6430000     -0.49900000      0.46025000       340.77700       1.9449433    0.0094366185
       526.00000       286.69955       98798.368       14871.535       3.0065000       1.0580000      0.97475000       340.80100       2.0229861    0.0083357073
       531.00002       286.70032       98793.499       14892.733       3.1772500     -0.72900000      0.11700000       340.79100       1.9633624    0.0091546031
       536.00003       286.70028       98788.622       14904.744       2.4655000     -0.34175000    -0.048500000       340.79200       1.9518063    0.0093367110
       541.00000       286.70001       98789.820       14889.636       2.5835000      0.46225000      0.39050000       341.02900       1.9665001     0.010109635
       546.00002       286.70001       98785.653       14880.268       2.9382500      0.31150000      0.64625000       340.98300       1.9386550     0.010691526
       551.00003       286.69975       98774.552       14872.432       3.1657500      0.88700000      0.33700000       340.64900       1.9496723     0.010606406
       556.00000       286.69948       98768.612       14849.557       3.3285000       1.3335000     -0.10650000       340.51900       1.9554928    0.0099363246
       562.00001       286.70001       98758.640       14807.176       3.2950000       1.2695000      0.40275000       340.79100       1.9532491    0.0099325954
       567.00002       286.69997       98758.028       14775.706       3.9490000    -0.054750000     -0.27150000       340.69000       1.9525455    0.0091572773
       572.00004       286.68708       98767.979       14702.472       3.9505000      0.18700000     -0.13425000       340.44900       1.9457653    0.0099676050
       577.00001       286.70066       98772.006       14698.043       3.0750000     0.056000000     0.090250010       340.70900       1.9358447     0.011064386
       582.00002       286.73832       98777.852       14745.431       3.7372500      0.34600000     -0.10175000       340.68700       1.9653464    0.0097084496
       587.00003       286.75818       98782.333       14775.807       3.5352500      0.26275000      0.25525000       340.66400       1.9489085     0.010617522
       592.00001       286.79478       98781.296       14850.590       1.5647500     -0.31800000      0.47450000       340.91700       1.9557655     0.010471451
       597.00002       286.81062       98786.064       14894.811       1.6425000      0.75075010      0.29825000       340.98300       1.9856146     0.011120347
       602.00003       286.78739       98797.492       14899.382       2.3292500      0.85600010      0.76650010       340.94800       1.9561026    0.0097931040
       607.00001       286.80143       98803.221       14940.207       3.8997500       1.0607500      0.36225000       340.65900       1.9667638    0.0094294158
       612.00002       286.83913       98808.002       15005.634       3.1387500      0.76550000    -0.022000000       340.70300       1.9439777     0.010581891
       617.00003       286.85932       98812.601       15054.494       3.7600000     -0.62600000    -0.046500000       340.61600       1.9602171     0.010069207
       622.00001       286.89549       98815.289       15122.695       2.7295000      0.44600000    -0.010000000       340.87400       1.9757074    0.0087505086
       632.00003       286.88687       98816.184       15168.192       2.9012500       1.2740000      0.19425000       340.68100       1.9618791    0.0090562069
       642.00002       286.95071       98809.453       15216.838       2.5872500     -0.89975010     0.044750000       340.70000       1.9464975     0.010751752
       647.00003       286.95679       98809.219       15220.302       1.7997500     -0.28825000      0.25375000       340.89900       1.9596636     0.010046973
       653.00000       286.96790       98814.559       15225.514       3.1407500      0.54225000      0.25825000       340.78500       2.0277048     0.010373586
       658.00001       286.94549       98816.617       15197.036       3.1835000      -1.0582500     -0.27150000       340.70300       2.1219543     0.010973174
       663.00002       286.88058       98821.308       15148.663       2.3117500     -0.32625000      0.29425000       340.87200       2.4563122     0.011403876
       668.00000       286.81445       98821.007       15064.973       3.0565000      -1.1320000     -0.25500000       340.78700       2.6285438     0.010667238
       673.00001       286.70565       98815.877       14916.390       4.3810000     -0.72375010      0.12175000       340.63400       3.1086361     0.012178367
       678.00002       286.66861       98813.818       14840.976       3.4680000   -0.0050000000     -0.32500000       340.65600       2.7501069     0.010648148
       683.00004       286.65412       98812.679       14763.453       4.7990000      -1.0752500     -0.67800000       340.53100       2.2924249     0.011095825
       688.00001       286.63066       98808.011       14703.411       4.1155000    -0.039500000    0.0015000000       340.55400       2.2586527     0.010117349
       693.00002       286.65733       98801.908       14694.403       5.1467500     -0.57650000     0.018250000       340.50700       1.9695150    0.0096045456
       698.00004       286.65134       98797.922       14669.340       4.2570000      0.44425000      0.37475000       340.53200       1.9540464     0.010408346
       703.00001       286.57834       98791.292       14598.135       3.2682500       1.1945000      0.17875000       340.73600       2.2723892    0.0097316489
       708.00002       286.59688       98786.852       14614.861       2.3937500     -0.13250000      0.77950000       340.80700       5.9831711     0.011713530
       713.00004       286.67360       98786.190       14687.111       2.8932500      0.56925000      0.14900000       340.81200       4.8545043     0.011841775
       718.00001       286.72963       98784.234       14763.524       3.9925000     -0.85975000     -0.91800000       340.61100       3.7897467     0.010823617
       723.00002       286.85121       98780.314       14905.495       3.3052500      0.72100000     -0.26075000       340.63600       3.4709904     0.010898733
       728.00003       286.88250       98778.907       14998.272       3.4265000     -0.49250000      0.35025000       340.63600       4.7644832     0.010660194
       733.00001       286.84623       98780.322       15086.088       4.2082500     -0.19575000     -0.49975000       340.44200       3.7078048    0.0094455286
       738.00002       286.85614       98780.365       15157.693       4.1190000     -0.20950000     -0.19725000       340.54800       2.4538570     0.010565556
       744.00003       286.83490       98779.538       15223.707       3.3527500     -0.58350000     0.040250000       340.71800       3.3525369    0.0099595018
       749.00000       286.86250       98781.497       15261.960       3.1027500     -0.58625000     0.045750000       340.52100       2.4659241    0.0097995575
       754.00001       286.97715       98785.814       15311.688       2.4365000     -0.72200010    -0.052000000       340.63100       2.1722217     0.011306532
       759.00003       286.95277       98785.930       15276.702       1.4942500      0.36150000      0.14875000       340.81600       5.4211614     0.015388085
       764.00000       286.86485       98783.035       15191.553       1.9595000      0.57575010      0.16225000       340.84400       4.4927650     0.011537225
       769.00001       286.81641       98787.651       15097.220       3.4975000     -0.22375000    -0.011250000       340.63800       5.3022477     0.012082615
       774.00003       286.68122       98793.595       14913.970       1.8207500      0.17550000      0.26050000       340.89800       4.5080063     0.012103882
       779.00000       286.66701       98798.543       14838.673       2.1647500      0.77800010      0.16825000       340.95500       2.8724395     0.010563388
       784.00001       286.74624       98810.307       14791.456       1.9367500      0.59425000     -0.10925000       340.91600       4.8011337     0.010418227
       789.00003       286.76645       98815.633       14762.026       3.1390000      0.66950010     -0.10625000       340.67500       2.3961651    0.0097127817
       794.00000       286.81203       98815.716       14791.770       2.7767500     -0.21700000      0.23825000       340.68600       3.5193374     0.011484742
       799.00001       286.80457       98815.841       14779.291       1.9450000      0.78875010    -0.087000000       340.80400       4.2452163     0.013551418
       804.00002       286.74471       98816.215       14738.418       3.2370000       2.3310000     -0.63750000       340.79600       5.0868848     0.011198452
       809.00004       286.74342       98815.415       14763.322       2.8155000      0.37900000    -0.040500000       340.74900       4.8977828     0.011245859
       814.00001       286.75220       98808.963       14817.910       1.8290000     0.081250000    -0.056750000       340.98700       2.6295312    0.0096794754
       819.00002       286.74237       98809.648       14853.957       3.9265000      0.40425000    -0.079750000       340.69100       2.1038162    0.0092047872
       824.00004       286.74831       98817.710       14930.010       3.5510000      0.93250010      0.69750010       340.83000       3.4433036     0.010579384
       829.00001       286.75818       98814.037       14971.073       2.6222500     -0.45675000     -0.52175000       340.52600       2.6314897    0.0089758557
       835.00002       286.74423       98804.665       14986.534       3.3540000     -0.25075000     -0.10725000       340.60200       2.6114977    0.0093740791
       840.00003       286.79962       98799.423       15022.823       3.0117500     -0.86175010      0.16025000       340.81200       3.4722062     0.010614544
       845.00000       286.81256       98797.873       15023.009       3.9917500      -1.5662500     -0.20725000       340.67800       4.6674910     0.011927772
       850.00002       286.74017       98814.856       14936.492       3.3505000      -1.7547500     -0.64075010       340.54600       3.4016012     0.011289711
       855.00003       286.73789       98818.408       14914.768       3.1517500     -0.67500000      0.28725000       340.59800       2.4060385     0.010377199
       860.00000       286.76024       98815.809       14914.266       2.5592500     -0.63325010    -0.060500000       340.59300       2.1250566     0.010817603
       865.00002       286.79243       98806.885       14921.161       2.1882500     -0.26325000      0.39200000       340.71100       3.1811109     0.011311931
       870.00003       286.82455       98799.508       14927.415       3.2702500     -0.21475000    -0.098500010       340.75900       3.7326192     0.011056710
       875.00000       286.90623       98784.633       14973.109       2.0395000      0.10025000      0.18100000       340.94900       6.2372994     0.012481326
       880.00001       286.94534       98772.716       15001.407       2.0637500     -0.45525000      0.76100000       340.76900       4.6692128     0.011799145
       885.00003       286.95695       98768.260       15009.165       4.1687500       1.2870000    -0.013500000       340.68700       3.2231107     0.010013974
       890.00000       286.94021       98767.791       15008.717       2.6297500      -1.2025000     0.066250000       340.89400       2.9538978    0.0089246865
       895.00001       286.95016       98768.470       15031.364       3.7500000      0.70100000     -0.60300000       340.72900       5.2505284     0.011526070
       900.00003       286.93010       98780.429       15014.649       5.0327500      0.33050000     -0.44500000       340.89400       2.9332996    0.0097167277
       905.00000       286.93744       98786.689       15044.367       4.0097500       1.2375000     -0.42575000       340.86600       3.1835748     0.010252079
       910.00001       286.96935       98790.491       15109.100       3.3165000       1.8032500   -0.0095000010       340.39300       5.6639471     0.011863895
       915.00003       287.06947       98791.505       15255.193       2.7182500       1.7385000     -0.25075000       340.42400       7.2465568     0.014088184
       921.00003       287.00819       98782.631       15248.954       2.4072500       1.3325000      0.25125000       340.70600       4.9278159     0.011387346
       926.00001       286.99853       98784.002       15262.364       2.0597500      0.11500000      0.19000000       340.96700       3.5319505     0.010043446
       931.00002       286.93927       98790.162       15201.051       3.5415000       1.3085000      0.18750000       340.79300       4.6955557     0.011420419
       936.00003       286.93221       98795.401       15185.695       3.8575000      0.76175000      0.34400000       340.78700       2.6098033     0.011298545
       941.00001       287.02466       98812.398       15246.235       2.0782500      0.75625000      0.53000000       340.92200       2.1872430     0.010279353
       946.00002       287.06305       98818.917       15265.779       2.7392500      0.76000010      0.65150000       340.84700       3.0490511     0.011619435
       951.00003       287.10555       98814.692       15285.402       2.8680000      0.69025000     -0.35300000       340.75800       3.2232499    0.0096455828
       956.00000       287.11289       98815.742       15273.154       3.1887500      0.16300000     -0.37875000       340.68100       2.8373985     0.010165279
       961.00002       287.03837       98814.730       15188.266       3.1742500      0.81600000     -0.11200000       340.96400       5.2298225     0.013765468
       966.00003       287.04132       98814.890       15179.549       2.7682500     -0.62400000      0.27900000       340.89100       5.6144460     0.010758270
       971.00000       287.07876       98819.320       15194.896       3.2870000       1.2145000     -0.55800000       340.48900       2.3396183    0.0099770243
       976.00002       287.10021       98821.211       15210.171       3.0145000      0.99300000     -0.10200000       340.63900       3.5714083     0.011676103
       981.00003       287.16724       98820.372       15284.871       2.6010000      0.60825000    -0.079750000       340.58500       2.8352028     0.011694655
       986.00000       287.21560       98820.410       15339.091       4.0307500       1.6940000     -0.32425000       340.55100       3.7373211     0.010660401
       991.00002       287.21935       98821.729       15350.538       3.1177500      0.44650000     -0.10100000       340.53900       3.1571472     0.010932761
       996.00003       287.25003       98820.641       15400.691       1.8392500      0.99625000      0.37575000       340.93600       3.1865139     0.010610704
       1001.0000       287.30845       98817.196       15469.445       2.2415000       2.3952500      0.20600000       340.73100       3.5113266    0.0099593275
       1006.0000       287.35824       98815.283       15559.742       2.2640000     -0.11525000      0.11400000       340.63100       2.4287993     0.011028726
       1012.0000       287.44547       98810.958       15738.715       1.7002500      0.39300000      0.33375000       340.76600       2.2430962     0.010240280
       1017.0000       287.46838       98809.371       15827.382       2.3200000      0.35850000     -0.26225000       340.86500       2.0585106    0.0092000408
       1022.0000       287.44344       98812.820       15908.400       1.9920000      0.21575000    -0.049500000       340.69000       2.1006392     0.010746206
       1027.0000       287.45337       98810.093       15962.099       1.6220000      0.25225000      0.19300000       340.88100       3.0698762     0.011639878
       1032.0000       287.46905       98803.977       15964.357       1.1157500      0.80825000      0.96800010       341.11900       3.1663730     0.013635156
       1037.0000       287.44565       98798.644       15960.335       2.7377500    -0.026750000      0.31975000       341.03600       2.5187702     0.011600508
       1042.0000       287.44752       98786.188       15978.905       3.8367500      0.15450000     -0.59800000       340.70400       4.0756220     0.012485534
       1047.0000       287.39544       98782.380       15917.808       3.1162500       1.0185000      0.12100000       341.04200       4.7967630     0.011624474
       1052.0000       287.23460       98788.396       15780.067       3.3777500       1.0620000     -0.35750000       340.72000       5.8889148     0.012142660
       1057.0000       287.16182       98784.562       15665.507       2.6017500      0.60425000      0.36875000       340.69000       7.8663825     0.015318548
       1062.0000       287.10933       98775.470       15490.184       3.4407500    0.0025000000      0.36250000       340.85300       3.2338510     0.015915044
       1067.0000       287.07649       98773.778       15370.665       2.4930000     -0.23550000     -0.17900000       341.02800       4.5832696     0.010800183
       1072.0000       287.13801       98769.226       15297.874       2.6242500      0.38200000    -0.020750000       340.80900       3.7291983     0.010532535
       1077.0000       287.09636       98768.324       15198.267       3.4345000      0.33975000     0.071000000       340.95400       8.6840197     0.069132588
       1082.0000       286.98628       98779.288       15084.663       3.3545000      0.55150000     -0.21175000       340.50600       3.0736224     0.011335430
       1087.0000       286.92678       98782.509       15011.914       2.6910000     0.099500010      0.12625000       341.00400       4.5012703     0.011830002
       1092.0000       286.80185       98780.346       14923.524       2.4365000      0.92275010     0.070500000       340.89900       5.5274294     0.012209173
       1097.0000       286.76730       98780.387       14896.754       4.5580000      0.49525000     -0.25575000       340.75700       2.4042871     0.012637256
       1103.0000       286.84226       98780.290       14954.835       4.0405000      0.16575000     -0.42675000       340.90000       2.8153716    0.0097031181
       1108.0000       286.86257       98780.333       14975.293       4.1487500      0.75975000     -0.53275000       340.69800       2.8338519     0.015146712
       1113.0000       286.89958       98779.160       15018.466       3.0237500      0.41225000      0.59800000       341.07200       2.9605645     0.010745620
       1118.0000       286.91359       98780.787       15038.038       4.1310000      0.14825000    -0.096500000       340.90200       3.3091103     0.010611795
       1123.0000       286.88910       98782.269       15016.475       3.3972500      0.11100000    -0.068500000       340.91400       6.0035162     0.013587121
       1128.0000       286.90544       98787.459       15050.621       2.9832500      0.43925000      0.16650000       340.98900       4.0830333     0.012499935
       1133.0000       286.92971       98798.466       15108.792       3.6942500      0.65675000     0.023750000       340.77900       4.4938373     0.011798455
       1138.0000       286.96631       98803.838       15160.593       2.3845000      0.47800000      0.18325000       340.96900       4.7650285     0.012329857
       1143.0000       287.04091       98810.000       15253.594       2.8445000      0.50650000      0.20975000       341.00800       4.9733692    0.0099011832
       1148.0000       287.07474       98812.758       15300.830       2.5300000     -0.30475000    -0.054000000       340.64000       3.9700917     0.010732843
       1153.0000       287.12167       98810.168       15340.540       2.7665000      0.72400000     -0.59150000       340.93300       2.8055389     0.010696571
       1158.0000       287.10313       98810.152       15331.561       2.6810000      0.98425010      0.36375000       341.10900       4.8021882     0.012706124
       1163.0000       286.99387       98810.382       15266.362       2.9695000       1.1667500    -0.069250000       340.86500       4.0739225     0.010080474
       1168.0000       286.98683       98810.397       15243.548       3.0612500      0.75075010     0.046000000       340.69800       3.0082855     0.010716503
       1173.0000       286.98560       98810.350       15202.558       2.7787500     -0.11100000     -0.11200000       340.66500       4.8770482     0.011261010
       1178.0000       286.99790       98810.365       15168.184       2.9115000     -0.75525000     -0.10775000       340.73800       3.2070796     0.012268266
       1183.0000       287.09862       98809.114       15164.536       2.6877500       1.5835000     0.086500000       340.84600       2.6200316     0.011063140
       1188.0000       287.12599       98810.737       15140.009       2.2235000      0.29650000     -0.14725000       341.05100       3.1635350     0.010472247
       1194.0000       287.09129       98815.753       15055.463       3.1757500       1.2242500      0.46825000       340.84500       3.6052698     0.010801471
       1199.0000       287.11015       98815.868       15072.993       3.4175000       1.0435000    -0.038500000       340.91900       2.9557759     0.010600018
       1204.0000       287.14691       98815.021       15147.234       3.0987500       1.3057500     -0.11200000       341.10700       7.6456930     0.014735686
       1209.0000       287.16701       98816.048       15189.579       2.6942500      0.52275000      0.41550000       340.96400       3.6707917     0.010150233
       1214.0000       287.20277       98814.729       15267.140       3.4787500      0.73475000    -0.015500000       340.82200       3.2995992     0.012023512
       1219.0000       287.21382       98815.638       15320.866       2.9955000      0.49250000      0.40950000       340.87400       5.9219043     0.011652050
       1224.0000       287.19037       98820.489       15334.502       2.9957500       1.7695000      0.11375000       340.86700       2.7182266    0.0094432232
       1229.0000       287.20927       98821.568       15400.119       3.2052500       1.5452500      0.11025000       340.75000       4.8338214     0.010487011
       1234.0000       287.24597       98820.463       15514.880       1.8985000      0.51200000      0.70200000       340.98100       4.1346693    0.0099362432
       1239.0000       287.26599       98820.569       15564.247       2.9155000     -0.19925000     0.054750000       340.76300       3.7929142    0.0090263209
       1244.0000       287.32113       98821.179       15627.077       4.1315000       1.0620000     -0.17775000       340.54500       3.6620786     0.010117089
       1249.0000       287.29502       98819.257       15606.703       3.8322500      0.21025000     -0.22675000       340.75600       4.4870885     0.010483854
       1254.0000       287.20753       98815.449       15506.653       3.2172500      0.54775010     -0.15750000       340.72300       3.3030755     0.010482353
       1259.0000       287.16790       98813.388       15449.092       3.4240000       1.1560000     0.073000010       340.53400       3.2454537    0.0096827592
       1264.0000       287.09378       98811.766       15367.597       2.9205000    -0.047250000      0.23650000       340.60900       4.3438034    0.0097342483
       1269.0000       287.07101       98806.897       15285.939       3.3557500     -0.17675000      0.22250000       340.88800       3.3292079     0.010337510
       1274.0000       287.10036       98801.182       15210.331       3.4307500     -0.65450000      0.31025000       340.74100       3.0927953     0.010526795
       1279.0000       287.10048       98797.099       15139.098       2.1275000      0.58800000      0.80250000       340.87100       2.7755124     0.010658667
       1285.0000       287.10581       98789.044       15026.252       3.8795000     -0.37300000    -0.036000000       340.64800       4.3780514     0.013444129
       1290.0000       287.08426       98790.216       14980.390       3.2725000      0.28675000     -0.19150000       340.68500       3.2996664     0.010093570
       1295.0000       287.05543       98790.191       14959.684       3.2362500      -1.1732500      0.14450000       340.76300       2.5431744    0.0098117621
       1300.0000       286.99943       98790.337       14990.719       4.1460000     -0.18625000     -0.26025000       340.59300       2.1855470     0.010630246
       1305.0000       286.94964       98790.325       14989.289       2.1730000     -0.84425000   -0.0060000000       340.91200       2.1713510     0.010558817
       1310.0000       286.89979       98790.285       14983.604       3.5412500      -1.6412500      0.11900000       340.70500       2.0280579     0.010850586
       1315.0000       286.83788       98790.974       14989.376       3.7650000      -1.0270000     -0.20625000       340.85200       2.1628108    0.0098079416
       1320.0000       286.83067       98788.801       14990.639       1.8725000     -0.70075010       1.2032500       340.90000       2.0642934    0.0092202966
       1325.0000       286.84415       98785.372       14970.484       3.5545000     -0.93425010     0.067250010       340.31900       2.0329001     0.011783367
       1330.0000       286.87077       98781.821       14977.034       4.7555000      -1.4565000      0.27550000       340.46200       2.3485147    0.0094943821
       1335.0000       286.90101       98779.677       14970.698       3.4015000      -1.2065000     -0.12625000       340.60300       2.1329293    0.0096048337
       1340.0000       286.91552       98778.690       14916.780       3.3437500     -0.23025000      0.10325000       340.56600       1.9564729    0.0091278057
       1345.0000       286.94418       98779.532       14898.852       3.5700000     -0.23175000     -0.55475000       340.42300       1.9367546    0.0093182692
       1350.0000       287.01523       98784.776       14888.666       3.0705000     -0.82025000     -0.79550000       340.51800       1.9536990     0.011646742
       1355.0000       287.05641       98785.873       14902.347       3.6352500     -0.18000000     0.086000000       340.62700       1.9477923     0.011984238
       1360.0000       287.08530       98785.734       14938.803       3.4927500     -0.94700000     -0.60750000       340.46700       1.9676646     0.010487647
       1365.0000       287.11289       98786.030       15012.113       3.8170000      0.25850000     0.086000000       340.46400       1.9648814     0.011029538
       1370.0000       287.10005       98784.884       15055.783       3.4060000      -1.1947500     -0.34350000       340.67700       1.9567081     0.011580198
       1376.0000       287.04350       98779.555       15118.105       2.3475000     -0.34075000      0.30400000       340.90200       2.6624466     0.011889516
       1381.0000       287.03053       98780.272       15128.626       2.6397500     -0.48500000      0.15425000       340.93900       2.0979340     0.010483361
       1386.0000       287.04285       98780.235       15143.453       3.3222500     -0.76175000     -0.36350000       340.65000       2.7830083     0.011396054
       1391.0000       287.12471       98778.757       15146.210       2.7632500     -0.56325000      0.44725000       340.85400       3.5179474     0.012080952
       1396.0000       287.16322       98779.834       15156.197       3.3597500      0.30925000     -0.71225010       340.51600       3.3560876    0.0093090335
       1401.0000       287.19082       98783.592       15172.400       3.5140000     -0.42200000      0.33400000       340.91000       2.4178418     0.011049475
       1406.0000       287.20954       98785.565       15181.949       3.5975000     -0.28225000     -0.45775000       340.49700       2.4197036     0.011047542
       1411.0000       287.20001       98789.170       15189.300       3.7130000     -0.15500000      0.26100000       340.72700       2.5954987     0.011008711
       1416.0000       287.20004       98791.020       15197.260       4.0025000     -0.29950000    -0.065750000       340.55000       2.6737997     0.010266468
       1421.0000       287.18597       98790.274       15181.894       2.3020000      0.23300000      0.52750000       340.68800       2.6257231     0.013210258
       1426.0000       287.19717       98790.290       15200.204       2.7917500      -1.0190000      0.12475000       340.69300       2.1262055     0.010776516
       1431.0000       287.24860       98787.376       15270.746       2.8275000     -0.82250010     -0.15850000       340.43800       3.0680030     0.010126274
       1436.0000       287.25715       98789.588       15288.772       1.4430000      0.18150000     -0.26325000       340.86300       5.1610142     0.011745010
       1441.0000       287.25654       98799.723       15287.544       1.5060000      0.12125000      0.41450000       340.95800       6.0828032     0.013661480
       1446.0000       287.25557       98801.402       15300.016       3.1757500     -0.23325000     0.085750010       340.85600       5.4580790     0.012470628
       1451.0000       287.18030       98798.772       15265.736       1.7272500      0.23150000      0.31625000       341.13500       3.3803525     0.011622096
       1456.0000       287.18424       98800.791       15267.619       3.4865000     -0.67475000      0.60050000       340.84800       3.8749126     0.012614600
       1462.0000       287.25090       98799.083       15324.583       2.9767500     -0.31450000      0.25425000       340.97900       4.5015412     0.012731891
       1467.0000       287.31910       98799.875       15358.790       3.4387500      0.12875000     -0.18525000       340.91600       4.2247765     0.012212214
       1472.0000       287.50655       98807.930       15400.928       1.6392500       1.0497500      0.70925000       341.35400       3.2006601     0.012218580
       1477.0000       287.53916       98812.560       15422.529       3.9112500      0.82550000    -0.077500000       341.19500       5.2362269     0.012872512
       1482.0000       287.46289       98814.118       15422.139       2.0025000      0.64350000      0.41800000       341.10800       6.3384543     0.013761152
       1487.0000       287.44917       98816.115       15441.045       3.3860000       1.4952500      0.56575000       341.19900       5.1178063     0.011326255
       1492.0000       287.36547       98821.201       15466.875       3.9985000      0.82550000     -0.13875000       340.41700       2.7318147     0.010863650
       1497.0000       287.32349       98821.415       15471.599       1.8620000      0.84050010      0.66625010       341.07300       2.9015023    0.0099253132
       1502.0000       287.35667       98816.416       15499.708       3.3830000      0.40875000      0.29275000       340.90400       4.2651837     0.011595225
       1507.0000       287.35294       98814.382       15479.070       4.0095000       1.7235000     -0.63400000       340.83700       3.8887954     0.011071506
       1512.0000       287.29203       98809.357       15405.635       5.5097500       1.8775000      0.65875010       340.79400       4.2724685     0.010049711
       1517.0000       287.28948       98809.044       15345.938       3.4200000       1.4532500      0.26325000       340.99600       3.1101401     0.012636875
       1522.0000       287.32526       98815.495       15229.209       3.2072500     -0.74025010      0.59325000       341.55100       2.1517209    0.0084574034
       1527.0000       287.35875       98816.138       15196.062       3.8430000      0.30075000      0.32150000       341.08000       2.6710614     0.010125699
       1532.0000       287.45845       98815.794       15227.147       3.2730000     -0.24375000     -0.65450000       340.40900       2.1613659     0.011177895
       1537.0000       287.46720       98815.349       15215.637       4.4960000      -1.0005000      0.35700000       340.65500       2.5204194    0.0099667144
       1542.0000       287.39338       98809.383       15235.677       1.2142500      0.31900000      0.54325000       341.03300       2.7319178    0.0096915791
       1547.0000       287.39684       98809.130       15238.167       2.3460000      0.69000010      0.18550000       341.20400       2.8479112     0.010681428
       1553.0000       287.36443       98814.559       15155.007       2.0055000     -0.45950000      0.34075000       341.10800       4.3346582     0.010456514
       1558.0000       287.40949       98816.617       15194.097       3.0687500     -0.24475000      0.19000000       340.93800       3.8905018     0.011924746
       1563.0000       287.58419       98820.212       15301.423       4.1622500       1.4030000    -0.077250000       340.64300       4.3038202     0.011410221
       1568.0000       287.65232       98821.608       15410.806       2.8755000     -0.88100000     0.088500000       341.12200       3.4556301     0.011463112
       1573.0000       287.73205       98821.431       15634.690       2.1912500     -0.70050000      0.17825000       341.16300       2.6798406     0.010848247
       1578.0000       287.71079       98819.850       15712.927       1.7340000     -0.85475000      0.37375000       341.64400       2.3636639     0.010431812
       1583.0000       287.57660       98816.419       15747.600       2.8710000    -0.031250000      0.42900000       341.17300       2.4265172     0.010116504
       1588.0000       287.51629       98814.495       15740.816       3.6050000      -1.4915000     -0.45200000       340.25600       2.2362273     0.010474670
       1593.0000       287.40346       98809.201       15640.236       2.9745000      -1.7337500     -0.24750000       341.08700       2.0461327     0.013353203
       1598.0000       287.36209       98809.433       15563.517       3.6060000     -0.60625000    -0.012250000       340.80800       1.9829231    0.0087743016
       1603.0000       287.40032       98814.418       15479.589       3.7545000      -1.5042500     -0.15125000       340.43800       1.9952830     0.010155218
       1608.0000       287.40061       98816.389       15377.767       3.5320000     -0.95500000     -0.13450000       340.42500       1.9680410     0.010664001
       1613.0000       287.40002       98820.378       15234.464       2.8490000     -0.29550000      0.25925000       340.92000       1.9369048    0.0093742537
       1618.0000       287.40002       98821.809       15129.232       2.7257500      0.37975000    -0.053750000       340.88700       1.9493266     0.010125229
       1623.0000       287.38877       98820.337       15000.518       2.2427500      0.70750000      0.17075000       341.26000       1.9175341    0.0096867293
       1628.0000       287.40473       98820.337       14945.654       1.4617500     -0.13350000     0.092000010       341.46900       2.4246547     0.010665977
       1633.0000       287.41781       98820.447       14933.760       2.1322500      0.13850000      0.26950000       341.10300       4.6060437     0.011481981
       1638.0000       287.47078       98820.490       14941.346       1.8530000      0.56975000      0.46300000       341.29000       5.4293880     0.011785430
       1644.0000       287.59438       98820.281       15009.865      0.92600010     0.042500000      0.91550000       341.49800       3.6048715     0.010185555
       1649.0000       287.64595       98820.314       15071.791       2.2202500     0.099250000     -0.38050000       341.51300       4.1438646     0.013272182
       1654.0000       287.70630       98820.110       15130.083       3.2197500     0.020250000     -0.94800010       341.08100       2.9447973     0.011518327
       1659.0000       287.72906       98820.051       15256.157       3.5422500     0.023750000      0.12950000       341.52100       2.9470703     0.010380800
       1664.0000       287.70035       98820.393       15458.093       3.7137500    -0.022500000      0.45950000       341.36200       4.5471522     0.011857376
       1669.0000       287.70054       98820.439       15571.501       3.5187500     0.088750000      0.14250000       341.38100       3.4650356     0.010275814
       1674.0000       287.71824       98820.250       15742.116       3.6527500     -0.81575010      0.28900000       341.52600       3.1062111    0.0099109106
       1679.0000       287.68004       98820.284       15745.781       3.3900000     -0.62125000      0.12200000       340.80300       3.3710122     0.012381036
       1684.0000       287.60776       98820.457       15619.062       2.0637500      0.37350000     0.095250000       341.99400       4.3106267     0.011202898
       1689.0000       287.56754       98820.529       15543.938       2.9205000      0.33325000   -0.0047500000       340.55200       5.3541502     0.012779821
       1694.0000       287.48407       98820.274       15396.142       3.4057500      0.69975000      0.44475000       341.62800       6.9837022     0.016661217
       1699.0000       287.48005       98820.274       15315.710       4.5360000     -0.76200000      0.60375010       341.42500       2.9219998     0.011097998
       1704.0000       287.53752       98820.393       15266.843       3.5487500      0.27825000    -0.092000010       341.50000       3.4787403     0.010764280
       1709.0000       287.57604       98820.440       15217.295       3.0122500      0.36425000     -0.20425000       341.21900       3.9080437     0.011946915
       1714.0000       287.65807       98820.337       15166.572       2.6017500     -0.76600000      0.22275000       341.90100       3.6470375     0.012306987
       1719.0000       287.67077       98820.337       15151.805       3.9927500     -0.59825000     -0.87500010       341.16200       3.0374399     0.010176083
       1724.0000       287.65826       98820.454       15165.453       3.6950000     -0.38775000      0.13075000       341.13700       2.4792578     0.010044496
       1729.0000       287.64933       98820.501       15177.118       4.0735000      -1.1595000     -0.10975000       340.87900       2.2096359     0.010378410
       1735.0000       287.58277       98820.285       15211.204       4.2950000     -0.14875000     -0.31850000       340.86900       2.1698613    0.0094888271
       1740.0000       287.70575       98820.158       15299.302       3.8987500      0.68525000      0.30325000       340.91300       2.7937826    0.0089242849
       1745.0000       287.72083       98820.098       15329.688       2.6157500    -0.090250010      0.16400000       341.32500       4.2535643     0.011394584
       1750.0000       287.66500       98820.366       15317.100       3.4162500     -0.46000000     -0.28000000       341.10300       5.4369647     0.011458543
       1755.0000       287.65629       98820.401       15338.301       3.2465000     -0.91275010      0.33225000       341.79800       5.5497684     0.013696648
       1760.0000       287.63524       98820.450       15355.497       4.2475000     -0.74825000    -0.019250000       341.13400       2.6532126     0.011093083
       1765.0000       287.53029       98820.127       15333.729       4.1132500      -2.2565000    -0.031750000       340.81900       2.0414680     0.010560802
       1770.0000       287.52491       98820.068       15335.070       2.4260000      -1.9800000      0.25400000       341.38800       1.9043149     0.010084295
       1775.0000       287.61718       98820.833       15385.081       4.2157500      -1.2525000      0.31250000       341.58400       1.9358712     0.011518992
       1780.0000       287.53881       98815.753       15338.547       3.0812500      -1.1962500     0.045250000       341.88400       2.4497298     0.010816746
       1785.0000       287.49843       98814.603       15292.373       4.2605000      -2.1290000     -0.53600000       340.87900       2.8966203     0.010804016
       1790.0000       287.39944       98814.886       15223.841       4.2940000      -1.7165000     -0.51750000       340.66100       2.5392337     0.011076749
       1795.0000       287.37533       98814.816       15170.230       4.1467500      -1.8182500    -0.091500010       340.69000       2.0335278    0.0096851149
       1800.0000       287.47504       98818.895       15129.766       4.3277500     -0.89000000    -0.010000000       340.48700       1.9161954     0.010260798
       1805.0000       287.50602       98821.070       15069.912       4.2425000     -0.43925000     -0.22925000       341.30200       1.9146097     0.010950678
       1810.0000       287.52464       98822.038       15004.081       3.5940000      0.49125000      0.55000000       340.93400       1.9416159    0.0094110912
       1815.0000       287.56359       98820.128       14932.649       2.3652500     -0.47700000      0.25825000       341.35000       1.9805513    0.0093910463
       1820.0000       287.56063       98820.068       14892.461       2.5732500     -0.99000010      0.43800000       340.81900       2.8140933     0.010182426
       1826.0000       287.49092       98820.203       14835.625       4.0800000      0.66725000     -0.60800000       340.46500       2.9353274    0.0098853479
       1831.0000       287.47159       98820.177       14833.259       4.2965000     -0.82350000     -0.45000000       340.90900       2.3741216     0.010134481
       1836.0000       287.49376       98820.118       14897.929       3.2125000  -0.00075000000      0.34250000       341.45600       2.3173652    0.0095053579
       1841.0000       287.58216       98820.302       15075.476       4.9965000      0.62450000     -0.22000000       341.02400       3.6273538     0.015539363
       1846.0000       287.61048       98820.264       15171.920       5.2992500      0.65375000     -0.10675000       340.56700       3.4694936     0.013308518
       1851.0000       287.63291       98820.175       15319.420       4.4225000       1.9927500     -0.53950000       340.96400       2.9655884     0.014250595
       1856.0000       287.66148       98820.115       15391.587       5.1915000      0.35100000      0.23075000       340.87400       3.3584590    0.0099720146
       1861.0000       287.61609       98820.241       15330.556       2.1815000     -0.80025010      0.60300000       341.47700       4.4656992     0.013367607
       1866.0000       287.64016       98820.203       15332.876       3.9382500      -1.3800000      0.30500000       340.80700       3.0476221     0.011145023
       1871.0000       287.73170       98820.177       15337.581       5.1672500       1.0120000     -0.22600000       340.68000       2.9563333     0.010470072
       1876.0000       287.81327       98820.117       15355.290       4.8250000      0.55625000     0.080000010       341.08400       2.4200254    0.0097628771
       1881.0000       287.97808       98820.302       15428.041       3.2587500     -0.89750000      0.23800000       340.95900       3.8866122     0.016264791
       1886.0000       288.03205       98820.263       15449.245       4.6830000    -0.060750000     -0.92325000       340.39700       3.6270128    0.0099592666
       1891.0000       287.95536       98820.371       15419.036       3.3477500    -0.065250000     -0.37700000       340.62100       3.3570315     0.010249476
       1896.0000       287.99735       98820.409       15435.580       1.2467500     -0.61600010       1.2892500       341.66000       2.0693084    0.0091301340
       1901.0000       288.11082       98826.273       15434.835       2.1240000     -0.69225000      0.26850000       341.12500       2.2374254     0.010317091
       1906.0000       288.10806       98821.750       15468.551       3.2077500     -0.42600000      0.25350000       341.56600       4.5006072     0.011479008
       1911.0000       288.15113       98802.303       15618.689       2.2562500     -0.18850000      0.80725000       341.53700       3.2706701     0.010989337
       1917.0000       288.10944       98797.079       15656.700       4.2715000      0.46700000      0.63050000       341.26000       3.5539426     0.012892932
       1922.0000       287.84263       98793.690       15627.459       3.7807500      -1.5402500    0.0097500000       340.45900       2.6304848    0.0099286231
       1927.0000       287.73670       98793.139       15593.904       5.3062500      -1.1170000     -0.21850000       341.49400       2.1823592    0.0093091015
       1932.0000       287.69686       98812.682       15482.509       4.2602500      -2.9790000     -0.83050010       340.91900       2.0269440     0.011016705
       1937.0000       287.67828       98813.400       15407.635       3.0377500       1.5540000     -0.11375000       341.27500       1.8985870     0.012995556
       1942.0000       287.73762       98797.931       15348.143       5.4805000      0.23575000     -0.84125010       341.08900       4.4757525     0.017429592
       1947.0000       287.75791       98793.362       15288.233       4.3465000       1.1515000      0.13475000       341.33400       2.5884247     0.012867556
       1952.0000       287.79501       98787.022       15210.312       4.5657500      0.45250000    -0.061750000       341.11600       2.3743117     0.010731041
       1957.0000       287.81149       98782.756       15164.896       4.6612500      0.61500000     -0.45025000       340.71600       4.2357121     0.013970604
       1962.0000       287.78757       98784.629       15121.725       3.7965000      0.75425000      0.18925000       341.21900       3.0445580     0.010644653
       1967.0000       287.80137       98785.618       15127.003       4.3982500       2.4205000     -0.62175010       341.12900       4.0178246     0.011310033
       1972.0000       287.83817       98785.824       15186.746       4.7122500      0.59200000     -0.15700000       341.27400       4.7185134     0.010974175
       1977.0000       287.85796       98784.817       15224.884       5.5507500       1.5437500     0.034000000       341.04700       4.0945469     0.010027438
       1982.0000       287.89474       98786.062       15285.860       3.8952500     -0.19925000      0.61800000       340.78300       3.1118494     0.012485232
       1987.0000       287.91086       98785.676       15347.625       5.7400000       2.2542500    -0.055000000       341.13900       3.0652636    0.0089164898
       1992.0000       287.90021       98780.819       15406.318       4.4150000      0.69100000       1.2092500       341.44800       2.6985311     0.011673268
       1997.0000       287.90016       98779.188       15457.448       4.4312500       2.6060000      0.27175000       341.05700       2.6807066    0.0099808210
       2002.0000       287.91312       98780.377       15554.247       3.0342500     -0.16200000      0.40625000       341.21000       3.7470377     0.010190114
       2008.0000       287.89539       98780.427       15574.387       2.9402500     -0.28400000     -0.36350000       341.17700       2.5918635     0.010019290
       2013.0000       287.88001       98780.259       15541.169       2.9802500      -1.1100000    -0.086500000       341.09700       2.9558776     0.010144575
       2018.0000       287.82777       98780.216       15491.173       2.3840000     -0.91700010     0.061000000       341.39200       2.6778656    0.0097689758
       2023.0000       287.73880       98780.274       15403.321       1.8737500     -0.83350000      0.28300000       341.56000       2.8443232     0.010822273
       2028.0000       287.65312       98780.274       15293.461       2.7997500     -0.50850000      0.31650000       341.16900       3.3044062     0.012375272
       2033.0000       287.49525       98778.939       15126.923       3.8147500      -1.0290000      0.23325000       340.91100       2.4494846    0.0088498700
       2038.0000       287.46063       98780.542       15025.088       2.9585000     -0.31350000     -0.29925000       340.71900       2.0042061    0.0090644724
       2043.0000       287.48650       98779.197       14909.859       2.3107500      -2.0832500     -0.58750000       341.08200       2.0069980     0.010337148
       2048.0000       287.49915       98789.528       14839.335       3.9302500      -2.7012500     -0.50750010       341.14000       2.2563408     0.010599105
       2053.0000       287.61025       98814.928       14833.663       2.0770000     -0.60100000      0.12125000       341.26300       2.1974050    0.0088655168
       2058.0000       287.62170       98821.503       14802.650       4.0232500      -2.4045000     -0.52525000       341.11900       1.9479482    0.0095738495
       2063.0000       287.55752       98829.740       14760.192       4.4137500      -2.3422500     -0.55925000       341.10400       1.9354149    0.0086484767
       2068.0000       287.53744       98827.364       14753.088       3.5297500      -1.4575000      0.45550000       340.97600       1.9317767    0.0096578415
       2073.0000       287.48946       98801.944       14749.916       4.1875000      -2.5092500     -0.38975000       340.65200       1.9223999    0.0087344179
       2078.0000       287.49157       98793.753       14792.845       5.3425000      -3.1850000     -0.77050010       340.97800       1.9146014    0.0098758215
       2083.0000       287.54100       98788.033       14890.324       4.9550000      -1.4985000    -0.053250000       340.66300       1.9181993    0.0093064600
       2088.0000       287.56112       98788.582       14963.053       3.2250000      -1.0752500    -0.099500010       341.07400       1.9119381    0.0089281975
       2094.0000       287.62051       98798.623       15110.495       3.7020000      -1.6527500    -0.039250000       340.87100       1.9107361    0.0089299606
       2099.0000       287.59442       98804.552       15121.530       4.4345000     -0.63700000     -0.32900000       341.00900       1.9220484    0.0089934010
       2104.0000       287.50667       98815.756       15065.334       3.1102500    -0.025500000      0.12850000       340.92900       1.9157440    0.0091377958
       2109.0000       287.46657       98820.096       15029.130       2.7787500     -0.35075000      0.35975000       341.39100       1.9052910    0.0095952332
       2114.0000       287.39371       98820.628       14928.904       2.0200000     -0.38350000      0.18600000       341.16200       2.5906778    0.0097754629
       2119.0000       287.37132       98821.781       14881.004       2.3347500     -0.33275000      0.65700000       341.59000       2.3836348     0.010183460
       2124.0000       287.39071       98820.416       14870.153       3.0307500     -0.96375010     -0.31950000       340.77900       3.2133777    0.0099601326
       2129.0000       287.40972       98820.509       14827.295       3.7100000      -1.4160000     -0.51150000       341.38700       2.2571517     0.011459713
       2134.0000       287.45494       98820.463       14771.329       2.3220000      0.19775000     -0.25300000       340.90900       2.1005275    0.0093120439
       2139.0000       287.45605       98820.569       14725.110       3.5495000      0.52450000      0.84775010       341.20100       5.2856541     0.011380073
       2144.0000       287.44746       98820.110       14652.989       4.0957500      0.11775000     -0.28075000       341.14100       6.0128785     0.014550539
       2149.0000       287.45750       98820.050       14655.697       4.4227500      -1.5867500      0.34375000       340.90900       4.6654638     0.012576899
       2154.0000       287.45210       98818.434       14704.117       4.4055000      -2.2665000     -0.16325000       340.74000       2.5339093    0.0089681993
       2159.0000       287.44214       98822.167       14725.151       3.8352500      0.29900000      0.92550000       341.01800       2.0805053     0.010174735
       2164.0000       287.44828       98829.344       14777.013       3.4860000     -0.16825000      0.24100000       340.80300       1.9763208    0.0088308129
       2169.0000       287.45835       98833.301       14823.277       2.7940000     -0.71800010    -0.036000000       341.14200       1.9319335    0.0091909111
       2174.0000       287.43315       98840.787       14835.764       4.2045000     -0.65725000    -0.087000000       340.59500       1.9265494    0.0085843165
       2179.0000       287.46128       98842.978       14902.171       5.0355000     -0.18100000      0.15800000       340.37100       1.9129844     0.010368463
       2185.0000       287.56225       98841.384       15050.932       3.2272500     -0.72700010    -0.076500010       340.63500       1.9540070    0.0083728256
       2190.0000       287.56939       98834.107       15098.978       4.1782500      -1.1455000    -0.075500000       340.64900       2.0601397    0.0089902427
       2195.0000       287.56219       98830.014       15110.042       3.7102500      -2.0940000      0.42500000       340.86100       3.0768272     0.010712322
       2200.0000       287.46977       98823.262       15021.698       3.7865000     -0.69000010      0.47625000       340.94500       2.1780374    0.0082794081
       2205.0000       287.43760       98819.037       14972.240       3.3050000     -0.20325000      0.24525000       341.04700       2.1958470    0.0090965093
       2210.0000       287.43001       98817.270       14927.889       4.5782500     -0.51425000      0.29275000       340.96600       2.2597665    0.0088420102
       2215.0000       287.43019       98820.463       14868.565       4.2537500     -0.68375000     -0.20625000       340.43900       2.0694353    0.0094037491
       2220.0000       287.48522       98820.512       14861.072       3.6215000      -1.7325000     -0.19475000       340.87000       1.9746537     0.011453864
       2225.0000       287.61209       98820.895       14889.696       2.7915000      -1.0090000      0.88125000       341.02500       2.0233067    0.0088425820
       2230.0000       287.66945       98817.086       14907.130       3.4542500    -0.047250000     -0.96000000       340.62300       1.9785670    0.0088063509
       2235.0000       287.67501       98814.998       14918.584       2.4387500      -1.0347500      0.18575000       341.10200       1.9921835    0.0092044643
       2240.0000       287.53911       98814.746       14909.774       4.0697500      -1.1685000      0.11075000       340.62700       2.0959189     0.011288809
       2245.0000       287.48749       98810.917       14912.248       2.7392500      -1.2922500     0.067750010       341.03700       1.9472925    0.0093086843
       2250.0000       287.45999       98804.361       14922.336       1.9142500     -0.86900000      0.52200000       340.94100       1.8912560    0.0094850611
       2255.0000       287.43746       98800.414       14933.372       2.6145000      -1.8360000    -0.076750000       340.96300       1.9164773    0.0091349084
       2260.0000       287.43952       98796.454       14947.618       2.3215000     -0.37425000      0.69225000       341.09700       1.9371873    0.0090630947
       2265.0000       287.50704       98789.751       14972.540       3.4812500      -1.2682500      -1.1795000       340.61900       1.8895785    0.0090840860
       2270.0000       287.51596       98785.890       14979.269       5.1097500      -1.5742500      0.13825000       340.63100       1.9021455    0.0092993947
       2276.0000       287.49702       98784.906       14977.602       3.7697500      0.59150000      0.17425000       340.85000       1.9034028     0.010494607
       2281.0000       287.53452       98779.869       15010.983       3.5265000     -0.90675000     -0.65525000       340.74900       2.1772391    0.0095511595
       2286.0000       287.55474       98779.089       15024.022       2.8617500     -0.35325000     -0.15150000       340.75700       2.6408375     0.010423415
       2291.0000       287.60439       98785.269       15060.926       2.4460000     -0.82250010     -0.37675000       340.95900       4.6651201     0.011610491
       2296.0000       287.61158       98786.168       15061.084       1.8195000     -0.43300000      0.31350000       341.08400       4.4888869     0.010917131
       2301.0000       287.56702       98784.757       15004.834       4.6195000     -0.85125010     -0.13225000       340.92100       3.7663093     0.012728505
       2306.0000       287.54703       98785.862       14978.633       3.6660000      0.34950000     -0.61150000       340.85900       2.8144860    0.0094855924
       2311.0000       287.50996       98784.631       14950.219       4.5942500    -0.096000000      0.48450000       340.55000       2.4922231     0.010288787
       2316.0000       287.49100       98784.716       14927.718       5.0600000     -0.12325000      0.23025000       340.41500       2.5111414    0.0091628851
       2321.0000       287.50006       98789.287       14939.955       3.4345000     -0.31575000       1.5062500       340.88400       3.0326033    0.0091249861
       2326.0000       287.50009       98791.156       14919.507       3.1415000      0.15900000      0.12275000       341.00600       2.6593583    0.0087883903
       2331.0000       287.50014       98790.340       14863.106       2.7425000   -0.0057500000      0.59125000       341.09900       2.1256452    0.0091115756
       2336.0000       287.50029       98790.361       14833.275       3.3705000     -0.22300000    -0.089750010       340.71600       2.2857282     0.010111661
       2341.0000       287.48561       98787.361       14781.933       3.2207500      -1.5425000     -0.22275000       340.52200       2.4967446     0.010194243
       2346.0000       287.49650       98789.533       14768.028       2.4777500     -0.71125000     -0.20050000       340.64900       2.7960437     0.010305484
       2351.0000       287.50432       98797.142       14783.921       2.7387500      0.55600010    -0.079750000       341.14000       2.9924843    0.0097307447
       2356.0000       287.54722       98801.243       14817.725       2.8747500     -0.63250010      0.37100000       340.92000       6.8998052     0.014027817
       2361.0000       287.65756       98806.751       14888.490       2.2760000      0.40700000      0.26600000       341.32700       3.8003581    0.0098783066
       2367.0000       287.72706       98812.482       14961.923       1.6152500      0.15125000      0.43800000       341.49600       2.3799911    0.0091362098
       2372.0000       287.77691       98814.006       15011.687       2.9062500      0.25525000      0.10425000       341.29100       2.7484124    0.0094366718
       2377.0000       287.82334       98815.980       15111.349       2.9627500       2.0847500    -0.015500000       340.95800       3.1421150    0.0096002518
       2382.0000       287.83842       98819.928       15260.694       3.2770000      0.99800000      0.67925010       341.48600       5.4560903     0.011898033
       2387.0000       287.85832       98821.611       15363.922       3.6955000      0.16575000     -0.21075000       340.90700       3.5060361     0.010252168
       2392.0000       287.89525       98817.719       15527.063       2.9160000      0.20075000      0.40700000       341.10800       2.4598386    0.0094661133
       2397.0000       287.91137       98820.527       15593.086       2.9302500      0.80875000     0.033500000       341.13800       3.5862376     0.010738610
       2402.0000       287.91263       98827.803       15576.861       2.9135000      0.23325000     -0.51775000       340.91100       3.2102328     0.010451341
       2407.0000       287.89863       98831.773       15554.876       2.3527500     -0.48850000     -0.27500000       341.33500       3.8094335     0.010347840
       2412.0000       287.84828       98841.826       15466.948       3.2230000    -0.078000000      0.14750000       341.30600       3.1013446     0.010825405
       2417.0000       287.84189       98842.335       15416.965       2.2887500     -0.63200000      0.29050000       340.95000       2.7340372     0.012003456
       2422.0000       287.85614       98832.608       15381.283       1.6617500     0.050250000      0.14075000       341.25000       3.0830459    0.0096829827
       2427.0000       287.84630       98828.596       15313.279       2.0902500     -0.14950000    -0.023500000       341.50200       5.6275305     0.014600881
       2432.0000       287.86996       98821.395       15227.534       2.1767500     -0.17125000     0.022000000       341.16300       4.2487441     0.010965750
       2437.0000       287.85279       98818.215       15164.864       2.0062500     -0.61075000      0.30125000       341.17300       3.4456439     0.011976136
       2442.0000       287.76774       98821.680       15057.814       2.8737500     -0.10100000      0.17675000       341.33300       2.3105707    0.0096575898
       2447.0000       287.73151       98820.325       15017.510       3.2162500     -0.26900000     -0.13900000       341.11800       2.3136698    0.0094933691
       2452.0000       287.69278       98816.651       15029.712       3.2720000      0.44775000     -0.17675000       340.85200       2.5891371    0.0098127478
       2458.0000       287.69265       98814.325       15058.109       2.1620000      0.33150000      0.66675000       341.42700       2.2349035    0.0095274876
       2463.0000       287.75381       98812.537       15146.658       1.7445000      0.10925000    0.0042500000       341.54200       2.4482707    0.0094569170
       2468.0000       287.75783       98807.915       15162.790       3.8162500      -1.5727500      0.34575000       341.42600       2.6922284    0.0096187076
       2473.0000       287.74634       98802.011       15143.809       3.2580000    -0.035250000   0.00075000000       341.09700       2.7464757     0.010600231
       2478.0000       287.75646       98798.100       15166.958       2.8732500      0.69875000     -0.15650000       341.14900       4.0020685     0.011125071
       2483.0000       287.74256       98791.606       15160.252       2.7072500      -2.1680000     -0.45625000       341.38500       2.5178406    0.0097646775
       2488.0000       287.74942       98787.254       15190.799       3.9337500     0.013500000     -0.43750000       341.19500       2.1433065    0.0088048766
       2493.0000       287.83150       98786.020       15325.462       3.8575000      -2.0042500      0.42500000       340.91600       1.9761210    0.0096179134
       2498.0000       287.79588       98784.006       15316.466       4.2175000      0.14800000     -0.17400000       341.05700       1.9348877     0.010721855
       2503.0000       287.67148       98779.183       15231.609       3.1847500    -0.061250000     0.053500000       341.45000       1.9209222    0.0091781267
       2508.0000       287.61133       98779.434       15162.283       2.5362500     -0.95975010      0.11425000       341.14700       2.2509969    0.0095558197
       2513.0000       287.50187       98784.480       15018.207       3.8730000     -0.94625000   -0.0035000000       340.72800       2.8781482     0.011794327
       2518.0000       287.46122       98786.407       14925.591       3.9665000     -0.67600010     0.099250000       341.10200       2.1010623     0.010066833
       2523.0000       287.50019       98788.130       14865.309       3.2805000     -0.65675000     -0.66750000       341.10400       1.9453933    0.0099589746
       2528.0000       287.50036       98792.795       14787.631       3.6225000      -1.5040000     -0.75600000       340.76600       1.9867633    0.0096738382
       2533.0000       287.47659       98798.510       14663.842       2.9327500      -1.0450000      0.21800000       341.22300       1.9281328    0.0092389707
       2538.0000       287.50940       98802.536       14637.892       3.4947500      0.97550000      0.71250000       341.08800       1.9199145    0.0085927820
       2543.0000       287.56161       98808.869       14633.668       3.6320000      -1.9395000     -0.17700000       341.34100       1.9793672    0.0088867695
       2549.0000       287.65172       98814.031       14713.769       3.1387500      -1.0817500      0.32400000       341.24500       1.9420118    0.0096883661
       2554.0000       287.81774       98812.989       14897.318       3.1985000     -0.79425000     -0.18700000       340.71400       1.9327001    0.0086111950
       2559.0000       287.84338       98818.638       15005.235       3.1577500    -0.041000000    -0.079500000       341.07500       1.9239115    0.0090886423
       2564.0000       287.82232       98829.679       15140.797       3.8855000     -0.88425000     0.021000000       340.70100       1.9342048    0.0084040856
       2569.0000       287.78608       98834.697       15204.033       2.2090000      -1.3992500     -0.22875000       341.02800       1.9187633    0.0093741756
       2574.0000       287.64883       98842.850       15223.104       1.1705000      -1.0042500      0.18225000       341.23900       1.9247252    0.0091844704
       2579.0000       287.60663       98841.246       15226.898       4.4280000    -0.029250000    -0.098250000       340.80200       1.9235174    0.0098443629
       2584.0000       287.59725       98831.164       15187.050       2.0475000     -0.17900000      0.21475000       340.99600       1.9314941    0.0084874746
       2589.0000       287.58596       98827.227       15167.813       3.6440000      -2.0597500    -0.046250000       340.67200       1.9199643    0.0087393441
       2594.0000       287.60915       98819.641       15159.339       3.3552500      0.41675000      0.14175000       340.76300       1.9028657    0.0089787506
       2599.0000       287.59055       98817.376       15084.899       3.9855000    -0.030250000     -0.11050000       340.83000       1.9374614    0.0088562839
       2604.0000       287.54529       98821.251       14971.442       4.0560000     -0.64325000     -0.32250000       340.38100       1.8961529     0.010314462
       2609.0000       287.54423       98819.431       14890.878       2.7755000     -0.41375000      0.11475000       340.71500       1.9630040    0.0088752017
       2614.0000       287.53350       98815.879       14743.894       2.7192500     -0.62275000     -0.26700000       341.09100       1.8975461    0.0097802280
       2619.0000       287.56020       98813.936       14707.853       4.1190000      0.15825000     -0.35950000       340.81600       1.9564379    0.0087615611
       2624.0000       287.64774       98812.018       14749.580       3.5210000     -0.54275000      0.38400000       340.94100       1.9840293    0.0087108590
       2629.0000       287.67894       98807.161       14767.645       3.2105000     -0.18600000    -0.063250010       340.92600       1.9339531     0.010112019
       2635.0000       287.70553       98798.486       14823.662       1.9845000      0.14225000   -0.0072500000       340.92500       1.9385545    0.0095351194
       2640.0000       287.71462       98803.817       14853.839       2.8480000      0.12825000      0.42075000       341.25200       1.9448112    0.0098748903
       2645.0000       287.70606       98804.690       14919.010       3.1785000     -0.72050010      0.20575000       340.67200       1.9375803    0.0097900427
       2650.0000       287.69986       98812.885       15104.381       4.7167500      0.47275000    -0.049500000       340.72800       1.9433255    0.0089631891
       2655.0000       287.66243       98817.214       15165.051       3.0262500     0.075500000     0.071750000       340.84100       1.9438201    0.0095022614
       2660.0000       287.60030       98817.835       15173.787       3.3460000      0.40925000     -0.36875000       340.59100       2.0089721    0.0097640425
       2665.0000       287.50122       98809.451       15171.895       3.6300000      -1.0190000      0.33700000       340.93300       1.9698026    0.0085967881
       2670.0000       287.43028       98808.552       15081.476       3.9832500     -0.85325000     -0.19025000       341.11800       1.9127919    0.0085517714
       2675.0000       287.33819       98810.191       14862.809       4.9677500      -1.4212500     -0.69175000       340.94100       1.9136289    0.0087038665
       2680.0000       287.30006       98808.855       14747.818       6.2205000      -2.0785000     -0.40700000       340.34900       1.9199083    0.0092075838
       2685.0000       287.28707       98809.723       14649.498       4.5275000     -0.19975000    -0.061750000       340.44400       1.9106111    0.0092161075
       2690.0000       287.31553       98813.128       14575.665       4.5107500      -1.5187500      0.20650000       340.78600       1.9146361    0.0093237033
       2695.0000       287.34434       98815.024       14515.848       2.5392500    -0.092750010      0.32575000       340.94400       1.9092816    0.0089670333
       2700.0000       287.40021       98818.838       14447.762       2.2220000      0.85325000     -0.20000000       340.99500       1.9392781    0.0090581617
       2705.0000       287.44984       98820.943       14423.999       2.4090000      -1.7152500     -0.13450000       341.08500       1.9268734    0.0090102266
       2710.0000       287.49942       98821.811       14431.467       2.2170000      0.44950000       1.0477500       341.07700       1.9492084    0.0087060737
       2715.0000       287.55564       98820.892       14470.976       4.2712500       1.0082500     -0.67175000       340.65300       1.9377258    0.0089447856
       2720.0000       287.58469       98818.680       14523.454       3.4367500      0.10300000      0.15600000       340.93000       1.9291734    0.0095200562
       2726.0000       287.61164       98814.480       14633.146       3.4325000    -0.024250000     -0.33175000       340.85400       1.9291680    0.0086826023
       2731.0000       287.56571       98816.186       14664.103       3.0975000     -0.98875000       1.0605000       340.87900       1.9093899    0.0088619737
       2736.0000       287.54561       98815.184       14724.660       4.5957500     -0.33175000     -0.66525000       340.70300       1.9094300    0.0092054513
       2741.0000       287.49532       98818.705       14788.647       4.4762500      -1.2282500    -0.013500000       340.58400       1.9178431    0.0090608682
       2746.0000       287.48782       98816.307       14854.551       3.0830000     -0.94625000     0.050000000       340.81900       1.9211124    0.0082896729
       2751.0000       287.54765       98805.990       14998.023       3.6267500     -0.84325000     -0.15775000       340.76700       1.9064705    0.0096195176
       2756.0000       287.55605       98798.947       15044.593       2.1402500     -0.75775000      0.42325000       341.06600       1.8998393    0.0094813934
       2761.0000       287.55588       98787.570       15026.699       2.3362500     -0.77325000      0.41300000       341.04000       1.9098690    0.0088467368
       2766.0000       287.55476       98782.970       15009.248       2.9415000     -0.72875010      0.12125000       340.87400       1.9088924    0.0090427380
       2771.0000       287.49548       98784.739       14900.633       3.1717500     -0.29900000    -0.014250000       340.91500       1.8706061     0.012930897
       2776.0000       287.48785       98784.885       14855.452       3.6552500      0.28400000     -0.18375000       340.81400       1.9110298    0.0097046792
       2781.0000       287.53429       98785.153       14856.177       1.8440000      -1.4532500      0.15175000       341.13900       1.9174649    0.0086815158
       2786.0000       287.55408       98790.387       14841.465       3.6845000     -0.90375010     -0.41425000       340.73300       1.9224112    0.0089662065
       2791.0000       287.60437       98800.375       14856.913       3.0892500     -0.54900000     -0.53825000       340.94600       1.9175537    0.0091451416
       2796.0000       287.61187       98806.301       14845.600       2.5047500     -0.27775000      0.42500000       340.95300       1.9238061    0.0083410263
       2801.0000       287.55212       98817.377       14783.101       3.8047500     -0.64050000      0.25850000       340.77300       1.9180491    0.0085926798
       2806.0000       287.54332       98823.013       14772.668       2.6562500      -1.0052500      0.10550000       340.89000       1.8949713    0.0098130189
       2811.0000       287.55826       98817.468       14789.306       1.6212500     -0.55325000      0.52950000       341.04400       1.9189114    0.0087625746
       2817.0000       287.54608       98820.511       14800.247       1.5890000      -1.8660000      0.49975000       340.88100       1.9043446    0.0094393389
       2822.0000       287.55629       98830.633       14847.249       2.4690000     -0.51925000    -0.073750000       340.95400       1.9058125    0.0099064587
       2827.0000       287.55260       98831.971       14871.557       3.1382500      -1.3467500      0.82000010       340.87000       1.9056625    0.0092987874
       2832.0000       287.50485       98831.731       14859.732       3.4517500      -1.5100000     -0.25300000       340.79100       1.9042432    0.0099242753
       2837.0000       287.48855       98830.961       14881.107       3.8582500      -2.0120000     -0.31950000       340.74800       1.9096199    0.0094150134
       2842.0000       287.50068       98825.394       14936.979       3.6150000     -0.57525000    -0.078000000       340.68700       1.9171446    0.0095329825
