MIRICO/SHELL project - Processed LDS file generated on
Thu Jul 20 00:38:01 2017
Time stamp for record start
05/12/2017  09:48: 1.0001
Nb of points in the record
         563
Beam position index
       5.0000000
Beam angle (degrees)
       8.5250000
Open Path length (m)
       83.010000
****************** Temporal data record ************************
Elapsedtime_sec Temp_K Press_Pa Humidity_ppmv WindX_m/s WindY_m/s WindZ_m/s Speedofsound_m/s CH4vmr_ppmv CH4vmrerror_ppmv  
      0.00000000       286.76600       98771.507       15145.175       3.5100000       1.3925000     -0.13675000       340.64800       1.9414740     0.010945235
       4.9999729       286.74606       98767.814       15135.093       3.0860000      0.89650010     0.085250010       340.65200       1.9613336     0.010036576
       9.9999860       286.69523       98767.493       15099.293       3.2477500       1.1547500     -0.28950000       340.84100       1.9007808     0.015057663
       14.999999       286.68795       98768.882       15085.670       3.1392500       1.7420000     -0.36950000       340.77900       1.9668557     0.013822524
       19.999972       286.70580       98778.686       15063.498       3.0985000      0.29475000     -0.37800000       340.79100       1.9638782     0.011095783
       24.999985       286.74860       98786.724       15094.157       3.3065000       1.2255000     -0.16325000       340.56700       1.9780476    0.0095953397
       29.999998       286.88803       98794.878       15211.849       3.4750000       2.1202500     -0.35150000       341.02100       1.9340931     0.012795578
       34.999971       286.92543       98801.942       15249.917       3.4710000     -0.12475000     -0.66000000       341.03100       1.8955429     0.016986102
       39.999984       286.89813       98811.608       15258.863       2.9267500      0.74050000     -0.60500000       340.99000       1.9513489     0.010261208
       44.999997       286.90666       98817.238       15297.922       4.8477500       1.8305000    -0.081000000       340.67700       1.9260887     0.010630415
       49.999970       286.85271       98820.862       15282.501       3.4387500     -0.15400000     -0.15750000       340.74000       1.9813991     0.010445277
       54.999983       286.83566       98821.638       15301.128       4.5155000      0.82525000     -0.62000000       340.71200       1.9545505    0.0099605519
       59.999996       286.90409       98819.658       15426.263       4.6275000      0.90875010    -0.054500000       340.84200       1.9616791     0.011731017
       64.999969       286.91165       98815.411       15457.660       3.5425000      0.97025010    -0.092500000       341.05100       1.9557511     0.010614127
       70.999977       286.83565       98804.225       15408.863       3.4302500       1.8825000     0.081000000       341.00400       1.9396999     0.010397387
       75.999990       286.84290       98797.178       15389.170       3.8360000       1.2242500    -0.019750000       340.84400       1.9601195    0.0099150574
       80.999963       286.85557       98790.106       15304.342       3.4590000     -0.88625000     -0.94600000       340.74400       1.9368140     0.012649531
       85.999976       286.90678       98782.225       15300.422       4.2357500      0.47950000     -0.54525000       340.73200       1.9608729     0.011208677
       90.999989       287.07847       98770.482       15371.224       3.2680000       1.6122500     -0.58625000       340.57300       1.9531409     0.012008672
       96.000002       287.13688       98767.543       15399.487       2.8515000      0.91725000      0.23725000       341.00200       1.9612099     0.011779575
       100.99998       287.17995       98767.405       15445.009       2.0260000       1.5557500      0.20300000       340.85300       1.9759762    0.0091859053
       105.99999       287.16462       98769.578       15482.740       2.2142500      0.26550000      0.60850000       341.23600       1.9427275     0.012264707
       111.00000       287.02999       98780.292       15500.745       2.8662500      0.98775010     0.044500000       340.95800       1.9768959     0.013129197
       115.99997       286.97368       98788.333       15515.526       2.7845000       1.2062500     -0.15950000       340.75800       1.9654481     0.012496436
       120.99999       286.92271       98797.657       15569.848       1.5602500    -0.042000000      0.28975000       341.30800       1.9889499    0.0085715130
       126.00000       286.87624       98803.370       15551.052       2.7992500      0.18600000     0.042000000       341.05100       1.9372493    0.0090410616
       130.99997       286.86240       98808.111       15465.664       3.1765000       1.1345000     -0.51900010       340.88600       1.9640954     0.011137621
       135.99999       286.84277       98812.756       15406.154       3.7420000      0.50225000    -0.089750010       340.66900       1.9412176     0.011585153
       141.00000       286.83174       98814.169       15313.799       3.0947500       1.1822500    -0.049500000       340.80900       1.9737367     0.010541025
       145.99997       286.78774       98816.270       15235.627       2.9792500      0.66150000     0.031250000       340.98800       1.9595059     0.012610298
       150.99999       286.72367       98821.084       15177.512       2.1075000      0.75825010      0.88450000       341.15900       1.9355956     0.011184304
       156.00000       286.68343       98821.361       15107.503       2.9725000    0.0090000010     0.068250000       341.00400       1.9261132     0.011268269
       161.99997       286.61194       98818.209       15014.732       1.6575000       1.5210000      0.33375000       341.11600       1.9542929     0.011261599
       166.99998       286.56815       98812.975       14926.805       1.8505000       1.2285000     -0.10700000       341.34000       1.9403952    0.0099869027
       171.99999       286.53583       98802.932       14795.442       2.9305000       2.3815000     -0.22350000       340.87500       1.9506587    0.0099548181
       176.99997       286.54853       98795.940       14758.776       2.3285000       2.2417500      0.30600000       341.07400       1.9458526     0.011102213
       181.99998       286.58491       98786.131       14746.082       3.9852500       1.8005000     -0.16950000       340.69500       1.9678249     0.010111377
       186.99999       286.61094       98781.346       14761.018       2.7725000       2.3270000     -0.29050000       340.68400       1.9715566     0.010022732
       191.99996       286.69824       98780.335       14855.968       4.5267500       2.2062500    -0.060500000       340.62900       1.9774932    0.0094743781
       196.99998       286.72549       98778.979       14929.413       2.7085000       1.4615000     -0.92300000       340.64000       1.9672633     0.012293302
       201.99999       286.69960       98779.298       15014.985       1.7062500       1.2080000      0.27775000       341.17400       1.9540665     0.010040437
       206.99996       286.69953       98781.004       15070.800       3.0887500      0.64850000      0.37000000       340.82300       1.9721966     0.010582492
       211.99998       286.67775       98782.307       15118.020       3.2365000       1.4462500      0.14000000       340.86500       1.9764689     0.010617561
       216.99999       286.71000       98787.522       15189.950       4.0272500       2.1297500     -0.18600000       340.63900       1.9861125    0.0099646784
       222.00000       286.79528       98798.683       15275.341       2.6787500      0.93225000      0.12875000       340.85800       1.9640867     0.013971299
       226.99998       286.81880       98804.007       15302.321       3.0575000       1.3240000     -0.25775000       340.78500       1.9619407     0.010360099
       231.99999       286.84595       98812.689       15332.571       2.8400000      0.90550010     -0.49750000       340.84300       1.9463892     0.012913630
       237.00000       286.86946       98812.187       15345.163       2.7520000     -0.25025000     -0.20300000       340.66900       1.9671317    0.0095024449
       241.99997       286.84371       98799.759       15297.651       2.4637500      0.21750000      0.22075000       340.82200       1.9738298     0.012023521
       246.99999       286.85021       98799.087       15258.131       2.3807500     -0.23225000    -0.079000000       341.15800       1.9643831     0.010317209
       253.00000       286.90335       98799.158       15215.704       2.5075000     0.072500010     -0.41150000       340.82400       1.9912973     0.011144302
       257.99997       286.91472       98800.963       15200.499       2.4030000       1.2512500      0.21000000       341.20000       1.9654396     0.011674318
       262.99998       286.91802       98812.770       15167.735       1.6877500      0.44350000     -0.31400000       341.22400       1.9810038     0.011044045
       267.99999       286.88079       98811.310       15139.230       1.3620000       1.1380000      0.59400000       341.30200       1.9718611     0.010182513
       272.99997       286.80831       98801.985       15146.053       2.0847500      0.79150000     -0.27625000       340.83100       1.9458119     0.013714923
       277.99998       286.76861       98796.155       15132.377       2.0532500       1.2392500     -0.10500000       341.16300       1.9382751     0.017541902
       282.99999       286.69455       98787.214       15076.730       2.4032500      0.48900000     -0.18625000       341.24600       1.9288168     0.010298332
       287.99997       286.67227       98779.207       15069.320       4.0017500       1.7192500     -0.18550000       340.40800       1.9604528     0.010454878
       292.99998       286.71706       98770.866       15119.498       3.8562500       1.2892500      0.12025000       340.86800       1.9464835     0.010720292
       297.99999       286.67922       98765.713       15084.558       4.1085000      0.86800000      0.42750000       340.73700       1.9620760     0.010395548
       302.99997       286.59798       98757.725       15014.356       3.7945000       1.7002500     -0.12975000       340.56800       1.9586737     0.010809355
       307.99998       286.57673       98759.139       14967.758       3.5300000      0.37125000     0.070250000       340.51100       1.9606073     0.011529344
       312.99999       286.53121       98768.675       14875.103       2.8377500      0.53375000    -0.049500000       340.96500       1.9354758     0.012452359
       317.99996       286.54736       98774.549       14845.028       3.1000000      0.71375000     -0.15975000       340.64700       1.9438900     0.011013098
       322.99998       286.63912       98785.447       14855.100       3.9795000       1.4862500     -0.45000000       340.48200       1.9610190     0.012370399
       327.99999       286.68942       98789.747       14866.961       3.2815000      0.69750010     -0.38025000       340.63300       1.9784420     0.010033028
       332.99996       286.74907       98789.121       14897.697       3.1385000    -0.061750000    -0.051000000       340.52900       1.9257918     0.011632794
       337.99998       286.78051       98794.171       14922.834       2.4265000    -0.024500000    0.0092500000       340.77200       1.9971677     0.011667031
       343.99998       286.80604       98800.515       14960.916       1.9657500      0.24525000      0.15000000       340.95200       1.9910429     0.012794423
       349.00000       286.81489       98807.332       15061.527       2.3222500      0.33025000      0.15825000       340.82000       1.9515518    0.0092609729
       353.99997       286.80596       98811.502       15105.738       2.5502500     -0.57525000    -0.011500000       340.88100       1.9911481     0.015222813
       358.99998       286.76986       98810.394       15156.109       2.3487500     -0.16075000     -0.39500000       340.69400       1.9662967     0.010490667
       364.00000       286.74996       98810.453       15178.415       3.2017500      -1.0110000     -0.66075000       340.76400       1.9432461     0.010043776
       368.99997       286.73005       98810.512       15166.704       2.9892500     -0.55275010     -0.12050000       340.61200       1.9785572    0.0099865501
       373.99998       286.69431       98811.731       15089.270       2.3892500      0.72800000     0.079000000       340.82200       1.9415313     0.011048481
       379.00000       286.68575       98807.455       15048.836       2.0870000      0.54150000      0.35700000       340.95700       1.9595239    0.0090376082
       383.99997       286.70022       98800.427       15010.923       2.3300000     -0.15850000    -0.098250000       340.84200       1.9758348     0.013358221
       388.99998       286.71514       98794.623       14974.190       1.8847500     -0.29100000     0.018250000       340.94300       1.9513011    0.0093682342
       394.00000       286.70683       98789.397       14911.780       2.9300000     -0.69975000     -0.18250000       340.88800       1.9554261     0.010883938
       398.99997       286.65481       98790.337       14783.253       2.4947500     0.055000000     -0.12050000       340.96100       1.9509303     0.012549445
       403.99998       286.64372       98786.645       14722.256       2.2112500     -0.22075000      0.26775000       341.11300       1.9306472     0.012039448
       408.99999       286.64499       98780.481       14685.592       2.3932500     -0.55750000     -0.13025000       340.67100       1.9463903     0.012508196
       413.99997       286.63645       98769.661       14640.110       1.9325000      0.27500000      0.40075000       340.92700       1.9289947    0.0096923366
       418.99998       286.66967       98764.675       14669.215       1.6087500      0.61575000    -0.073500000       340.95800       1.9646317    0.0099172831
       423.99999       286.76175       98757.674       14776.870       2.4752500      0.11050000      0.29950000       340.76700       1.9741805     0.010065665
       430.00000       286.76977       98767.201       14882.670       2.4530000      0.13675000     -0.12075000       340.96400       1.9645713     0.010008033
       434.99997       286.75736       98771.236       14935.898       1.2437500       1.4202500      0.54900000       340.91800       1.9693921    0.0094896170
       439.99999       286.67491       98778.492       14970.429       3.0735000      0.96800010      0.60575000       340.97700       1.9740177    0.0089163327
       445.00000       286.63635       98782.206       14988.982       4.1962500      0.96350000     -0.60525000       340.71300       1.9206478     0.010339164
       449.99997       286.60989       98776.037       14982.302       3.2652500      0.87725000     0.026250000       340.72900       1.9704716     0.014000188
       454.99999       286.59119       98779.374       14962.421       2.7185000      0.49400000     0.035000000       340.89100       1.9492700     0.012165709
       460.00000       286.59984       98790.153       14941.313       2.7782500      0.96700010     -0.30575000       340.92300       1.9416224     0.010544287
       464.99997       286.59969       98796.090       14886.245       3.3495000      0.38325000     -0.75525000       340.86500       1.9776654    0.0091050922
       469.99999       286.58579       98805.790       14764.773       2.6855000      0.95500000      0.22400000       340.93800       1.9285451     0.015479784
       475.00000       286.59703       98812.628       14695.558       3.8840000       1.3960000      0.37875000       340.87800       1.8754113     0.017135364
       479.99997       286.63494       98815.085       14617.755       4.0510000      0.75125000      0.13950000       340.74800       1.9347131     0.010242607
       484.99998       286.65535       98815.963       14571.586       2.5642500      0.63975000      0.21075000       340.94400       1.9447843     0.010901158
       490.00000       286.69078       98814.445       14575.343       3.7037500      0.14925000     -0.64275000       340.76300       1.9824292     0.012784464
       494.99997       286.70932       98815.394       14581.088       2.5165000      0.38400000      0.88450000       340.87900       1.9501602     0.010795598
       499.99998       286.69974       98816.016       14589.916       3.0917500    0.0062500000     -0.19575000       340.94000       1.9592546    0.0097085329
       505.00000       286.69948       98814.987       14622.612       3.2977500     -0.41225000      0.79975000       340.77800       1.9605893     0.010152294
       509.99997       286.70001       98818.586       14695.150       2.9422500      0.31075000      0.23725000       340.87700       1.9689708     0.011076018
       514.99998       286.69998       98816.155       14749.152       3.9635000      0.13975000     -0.40100000       340.70800       1.9731228     0.010455017
       520.99999       286.69962       98803.005       14837.248       3.1140000      0.63475000     -0.68825000       340.85000       1.9625189    0.0093542153
       525.99996       286.69954       98797.343       14878.217       3.2575000     -0.74725000      0.31325000       340.97500       1.9486546    0.0083373337
       530.99998       286.70031       98792.427       14896.270       3.1557500     -0.24850000   -0.0092500000       340.88600       1.9338064     0.010440196
       535.99999       286.70027       98787.791       14905.445       3.2170000     -0.40675000    -0.076250000       340.84000       1.9802885     0.010389323
       541.00000       286.70001       98789.184       14888.051       2.6792500      0.41825000     -0.15425000       340.87100       1.9128660     0.013536046
       545.99998       286.70001       98784.523       14877.962       2.7500000     -0.94225010      0.22650000       340.89700       1.9581927     0.010796129
       550.99999       286.69970       98773.270       14868.546       2.8672500       1.0570000      0.38200000       340.86800       1.9329775    0.0098270315
       556.00000       286.69942       98767.566       14843.948       3.7542500       1.2810000     -0.12650000       340.67100       1.9627188     0.010062837
       560.99997       286.70001       98758.640       14807.176       4.1062500      0.73725000     -0.16200000       340.71200       1.9590356     0.010905976
       565.99999       286.69997       98758.028       14775.706       3.9005000    0.0047500000     -0.38075000       340.58400       1.9482968    0.0091818955
       571.00000       286.68708       98767.979       14702.472       3.9037500     -0.42775000     -0.53650000       340.69700       1.9521149    0.0096975260
       575.99997       286.70066       98772.006       14698.043       2.5467500     -0.25575000      0.71150000       340.92600       1.9273073    0.0094204522
       580.99999       286.73832       98777.852       14745.431       3.3707500      0.13450000    -0.034500000       340.48400       1.9528782     0.015417261
       586.00000       286.75818       98782.333       14775.807       3.5090000     0.039750000     -0.28700000       340.66300       1.9498507     0.010690975
       590.99997       286.79478       98781.296       14850.590       1.5385000      0.10150000      0.23450000       340.94000       1.8892391     0.012468810
       595.99999       286.81062       98786.064       14894.811       1.2042500       1.0055000      0.35650000       340.94900       1.9471529    0.0096334136
       601.00000       286.78739       98797.492       14899.382       2.9765000       1.4777500      0.10625000       340.74200       1.9131066     0.011931715
       605.99997       286.80143       98803.221       14940.207       3.4347500      0.92700000      0.17525000       340.68300       1.9846374    0.0095536216
       611.99998       286.84320       98809.026       15015.432       2.2385000     -0.40125000      0.33125000       340.90700       1.9567819     0.011163884
       616.99999       286.86331       98813.364       15064.227       3.6730000     -0.64275000     -0.29050000       340.60800       1.9845952     0.012669511
       621.99997       286.89968       98815.504       15131.796       2.3562500      0.62800000     -0.18375000       340.76500       1.9528237     0.012493048
       626.99998       286.91321       98815.840       15167.630       2.4345000   -0.0082500000      0.30250000       340.86500       1.9471192    0.0088230186
       631.99999       286.88859       98816.226       15172.478       3.0085000      0.60525000     -0.10125000       340.91700       1.9817014    0.0090581133
       636.99996       286.90455       98815.693       15192.958       2.5740000      0.20950000      0.50275000       340.87000       1.9381532     0.012247965
       641.99998       286.95292       98809.205       15218.411       2.1870000     -0.56950000     -0.13725000       340.76800       1.9943080     0.011766517
       646.99999       286.95650       98809.474       15219.674       1.9892500      0.26550000    -0.062750000       340.88500       2.0102282     0.010227222
       651.99996       286.96790       98814.559       15225.514       2.6517500     -0.12300000     -0.49200000       340.75000       1.9586776     0.014109080
       656.99998       286.94549       98816.617       15197.036       3.1677500     -0.96350000     -0.25225000       340.69500       1.9957314     0.010012743
       661.99999       286.88058       98821.308       15148.663       2.3165000     -0.30675000    -0.015750000       340.68600       2.1409269     0.019317016
       666.99996       286.81445       98821.007       15064.973       3.4560000      0.31425000    -0.038750000       340.65600       2.7627218     0.010398236
       671.99998       286.70565       98815.877       14916.390       4.1135000     -0.77625010     0.019750000       340.57100       4.1542822     0.012614934
       676.99999       286.66861       98813.818       14840.976       2.3700000     0.056750000      0.67825000       340.77600       6.5154451     0.020188956
       682.00000       286.65412       98812.679       14763.453       4.2782500      0.37925000      -1.4542500       340.61900       4.7618590     0.016179800
       686.99998       286.63066       98808.011       14703.411       4.0302500      -1.2032500     -0.29050000       340.59000       3.5584051     0.015892031
       691.99999       286.65733       98801.908       14694.403       5.1067500     -0.39950000     0.028250000       340.46700       4.5001826     0.016134742
       697.00000       286.65134       98797.922       14669.340       3.9117500      0.40800000     -0.13725000       340.53800       4.8874060     0.013032208
       702.99997       286.57902       98790.300       14598.081       3.0712500      0.86225000      0.32225000       340.67800       4.0144648     0.014133994
       707.99998       286.60513       98786.119       14623.311       1.9482500      0.36225000      0.49100000       340.85000       2.9989501     0.010626491
       713.00000       286.68382       98785.799       14700.292       2.8875000      0.37500000      0.31275000       340.81200       2.2407185    0.0099603447
       717.99997       286.74231       98783.843       14781.972       3.2965000      0.57950000      0.77325000       340.70700       6.7375056     0.018477794
       722.99998       286.86042       98779.935       14924.853       2.5525000      0.10350000     -0.16475000       340.56400       3.6862772     0.012185990
       727.99999       286.88433       98778.772       15015.602       3.0012500       1.2512500     -0.23925000       340.71000       2.2090349     0.013038678
       732.99997       286.84822       98780.329       15101.507       3.2210000     -0.33375000     0.042500000       340.44800       1.9793766     0.011178215
       737.99998       286.85810       98780.376       15170.365       4.7197500     -0.87900010     -0.28000000       340.60200       1.9835418     0.010237579
       742.99999       286.83490       98779.538       15223.707       3.2125000     -0.70325010   0.00025000000       340.52700       5.5936062     0.012211642
       747.99997       286.86250       98781.497       15261.960       2.9792500     -0.31925000    -0.012500000       340.53000       5.0199497     0.013933338
       752.99998       286.97715       98785.814       15311.688       2.2210000     -0.30175000     -0.24150000       340.62200       4.7912957     0.015557692
       757.99999       286.95277       98785.930       15276.702       1.7037500     0.081750010     -0.23275000       340.70600       3.5830236     0.012121686
       762.99997       286.86485       98783.035       15191.553       2.0432500      0.17575000      0.17000000       340.94500       2.1812272     0.012062110
       767.99998       286.81641       98787.651       15097.220       2.8885000      0.24825000    -0.033750000       340.70800       2.7225970     0.011520741
       772.99999       286.68122       98793.595       14913.970       2.0702500      0.17850000      0.14625000       340.79100       2.6890364     0.013834666
       777.99996       286.66701       98798.543       14838.673       2.3582500      0.10775000      0.60150000       341.00900       1.9431801     0.011023095
       782.99998       286.74624       98810.307       14791.456       1.9437500      0.66575000     0.072250000       341.10000       1.9722403     0.010587177
       787.99999       286.76645       98815.633       14762.026       3.1667500      0.29025000     -0.26325000       340.57200       1.9744510     0.011923988
       794.00000       286.81256       98815.842       14789.741       3.0167500      0.26700000      0.15400000       340.77400       1.9453213     0.011106584
       798.99997       286.75460       98815.966       14737.305       2.6545000      0.40050000      0.90125010       340.88100       1.9618326    0.0091148183
       803.99998       286.74347       98816.154       14741.309       3.6240000       1.6585000      0.52700000       340.87300       1.9459665     0.012828406
       809.00000       286.76007       98810.185       14794.519       3.3280000       1.3950000     -0.11275000       340.72700       1.9588441     0.010800088
       813.99997       286.75024       98808.904       14824.514       2.4667500      0.32675000      0.28050000       340.88900       1.9696303     0.010988507
       818.99998       286.74040       98810.080       14862.073       3.4647500      0.67500000    -0.090500000       340.71100       1.9239811     0.015428718
       824.00000       286.75030       98817.280       14939.300       3.9492500       1.8550000      0.16525000       340.48700       1.9437021     0.010319502
       828.99997       286.76014       98812.845       14977.668       2.5822500     0.054000000     0.069500010       340.76200       2.3995164     0.011933021
       833.99998       286.74423       98804.665       14986.534       3.3437500     -0.21925000     -0.26925000       340.57600       3.8638245     0.013924118
       839.00000       286.79962       98799.423       15022.823       3.1057500      -1.3327500     0.044000000       340.76900       5.3754773     0.014547364
       843.99997       286.81256       98797.873       15023.009       4.2532500      -1.2325000     -0.20075000       340.47800       5.3378420     0.015301159
       848.99998       286.74017       98814.856       14936.492       2.7022500     -0.88025000     0.073500000       340.59500       7.7530112     0.017156100
       853.99999       286.73789       98818.408       14914.768       2.8240000     -0.57550000      0.17100000       340.62600       7.3846709     0.020750797
       858.99997       286.76024       98815.809       14914.266       2.4460000      -1.0050000     -0.30025000       340.63100       5.0810241     0.015306892
       863.99998       286.79243       98806.885       14921.161       1.8747500      0.17800000      0.52550000       340.79100       5.0436263     0.020005101
       868.99999       286.82455       98799.508       14927.415       3.3330000     -0.21150000     -0.14875000       340.76300       3.9064474     0.014241093
       873.99997       286.90623       98784.633       14973.109       2.6717500     -0.29525000     -0.14950000       340.85300       2.6821703     0.011335463
       878.99998       286.94534       98772.716       15001.407       2.4970000      0.60575000      0.43850000       340.79900       7.6047887     0.015284147
       884.99999       286.95773       98767.831       15010.364       4.2330000      0.60425000     -0.53575000       340.70400       6.5372761     0.015536754
       890.00000       286.94220       98767.630       15013.128       2.6090000      0.46650000      0.62875000       340.79100       4.4481372     0.015817938
       894.99997       286.95215       98769.050       15036.070       3.7415000      0.57750000     -0.17675000       340.62700       5.8491042     0.016542335
       899.99999       286.92960       98781.878       15017.802       3.9067500      0.41650000      0.15125000       340.73700       9.7222300     0.021022900
       905.00000       286.94185       98787.646       15054.504       3.6292500      0.93775000     -0.21725000       340.74900       10.479798     0.030011990
       909.99997       287.05339       98790.744       15213.979       3.5132500       1.8282500     -0.18525000       340.36900       6.0391822     0.014935750
       914.99999       287.06973       98791.443       15261.595       2.2575000       1.6662500      0.36525000       340.69700       3.0976999     0.015765626
       920.00000       287.00819       98782.631       15248.954       2.6225000       1.0690000      0.82425000       340.72400       2.0112407    0.0096720827
       924.99997       286.99853       98784.002       15262.364       2.3082500      0.81400000     -0.16400000       340.86700       2.0181948     0.013814660
       929.99998       286.93927       98790.162       15201.051       2.7332500      0.89275000      0.31475000       340.72900       1.9966677    0.0086855617
       935.00000       286.93221       98795.401       15185.695       2.5360000       1.6842500      0.79200010       340.66600       1.9932073     0.011850992
       939.99997       287.02466       98812.398       15246.235       2.2282500     0.092500000      0.50375000       341.04400       1.9687504     0.010640057
       944.99998       287.06305       98818.917       15265.779       2.9922500      0.16325000     -0.31425000       340.60600       2.0572199     0.010364555
       950.00000       287.10555       98814.692       15285.402       2.6092500       1.1892500     0.045250000       340.82900       2.0232808    0.0089681948
       954.99997       287.11289       98815.742       15273.154       2.7557500     -0.84100000      0.19900000       340.76900       1.9612565     0.011575958
       959.99998       287.03837       98814.730       15188.266       2.6590000     -0.54875000   -0.0095000010       341.15000       1.9603744     0.010039208
       965.00000       287.04132       98814.890       15179.549       2.8157500      -1.1035000      0.98325000       340.83600       1.9415102     0.011055374
       969.99997       287.07876       98819.320       15194.896       3.4255000       1.3762500    -0.072250000       340.54600       1.9821454    0.0095760879
       975.99998       287.10596       98821.438       15215.725       3.0920000      0.60000000      0.13075000       340.59400       1.9566994     0.011852835
       980.99999       287.17789       98820.378       15296.363       2.7432500      0.42825000     -0.18350000       340.67600       1.9857390     0.012174556
       986.00000       287.22380       98820.419       15348.959       3.4950000       1.4150000     -0.21500000       340.50400       1.9965240     0.011936723
       990.99998       287.22451       98821.608       15359.057       2.9292500      0.23650000      0.17050000       340.62700       2.0111931     0.010852552
       995.99999       287.25764       98820.278       15412.995       1.1687500       1.1027500     -0.10150000       340.86700       1.9480979     0.014870373
       1001.0000       287.31837       98816.816       15485.869       2.2725000       1.4862500    -0.016250000       340.52000       1.9568642     0.011929479
       1006.0000       287.36825       98814.897       15580.263       2.3925000       1.1142500      0.36450000       340.92000       1.9861750     0.011222387
       1011.0000       287.44547       98810.958       15738.715       1.8047500      0.23275000      0.31225000       340.89500       1.9705690    0.0085315207
       1016.0000       287.46838       98809.371       15827.382       1.9865000      0.51425000     -0.20250000       340.91900       1.9821711    0.0093399098
       1021.0000       287.44344       98812.820       15908.400       2.0507500      0.70600000     -0.20275000       340.75300       1.9671208     0.011957800
       1026.0000       287.45337       98810.093       15962.099       1.5510000     -0.37750000      0.32500000       340.99900       1.9836262     0.010513486
       1031.0000       287.46905       98803.977       15964.357       1.5210000      0.86525010      0.28200000       340.70600       1.9842016     0.011878367
       1036.0000       287.44565       98798.644       15960.335       2.7827500     -0.17625000     0.083000000       340.86400       2.4681216     0.015130035
       1041.0000       287.44752       98786.188       15978.905       3.8620000      0.82650010     -0.23525000       340.76100       2.7736343     0.010556985
       1046.0000       287.39544       98782.380       15917.808       4.1325000       1.0435000     -0.12450000       340.55900       2.9536971     0.013552629
       1051.0000       287.23460       98788.396       15780.067       3.3547500     0.076000010     -0.11500000       340.78100       3.7746046     0.013752882
       1056.0000       287.16182       98784.562       15665.507       3.1660000      0.60950010    0.0012500000       340.83300       2.4647823    0.0099680757
       1062.0000       287.10073       98775.024       15464.451       3.0277500    -0.086750000      0.54075000       340.91900       1.9702583     0.010826030
       1067.0000       287.07297       98773.601       15349.484       3.0375000      0.27075000    -0.095750000       340.86500       1.9203415     0.010344681
       1072.0000       287.13264       98768.750       15277.992       2.2787500       1.1430000      0.12575000       340.92200       1.9553407    0.0099692311
       1077.0000       287.08359       98768.587       15178.302       3.4462500      0.46925000     -0.41325000       340.66900       2.1272981    0.0099545283
       1082.0000       286.97438       98780.130       15068.759       3.7547500      0.49925000      0.81600000       340.91100       1.9815678     0.010505805
       1087.0000       286.91489       98782.856       14999.388       2.3687500     -0.23775000      0.36125000       341.13400       2.2685386     0.010282257
       1092.0000       286.79091       98780.353       14914.851       2.5912500      0.65775000      0.31175000       340.96100       2.0177883     0.011893427
       1097.0000       286.76644       98780.396       14896.372       3.4230000   -0.0055000000     -0.40925000       340.99400       2.0585450     0.011870945
       1102.0000       286.84226       98780.290       14954.835       4.3245000      0.14275000    -0.029250000       340.72800       2.5216244     0.016899932
       1107.0000       286.86257       98780.333       14975.293       4.1067500       1.3485000    -0.078750010       340.78100       3.3977750     0.012778100
       1112.0000       286.89958       98779.160       15018.466       2.6877500      0.68850000      0.26850000       340.98400       6.0640290     0.016066049
       1117.0000       286.91359       98780.787       15038.038       3.3697500     -0.31425000     -0.31175000       340.81400       7.8580781     0.018492030
       1122.0000       286.88910       98782.269       15016.475       4.1352500      0.37600000     -0.61975000       340.74100       3.1143123     0.015436262
       1127.0000       286.90544       98787.459       15050.621       2.4587500      0.82625000     -0.18650000       340.87300       2.0657295    0.0093390101
       1132.0000       286.92971       98798.466       15108.792       3.3647500      0.40525000     -0.12675000       340.66200       1.9820583     0.010024179
       1137.0000       286.96631       98803.838       15160.593       2.2622500      0.25125000    -0.024250000       340.99000       1.9447921     0.012391181
       1142.0000       287.04091       98810.000       15253.594       2.3832500     -0.25250000    -0.072000000       341.09600       1.9457248     0.010339997
       1147.0000       287.07474       98812.758       15300.830       2.1497500      0.81775000      0.45375000       340.98800       1.9555793    0.0094878452
       1153.0000       287.12099       98810.164       15341.312       3.0710000      0.59475000     0.021500000       340.95400       1.9732547    0.0094548384
       1158.0000       287.09488       98810.151       15325.916       3.0312500       1.0495000     -0.16725000       340.68000       1.9895785    0.0092280400
       1163.0000       286.99049       98810.386       15261.766       3.0140000       1.4325000      0.44875000       340.94800       1.9289865     0.012779170
       1168.0000       286.98837       98810.398       15239.031       2.2832500      0.41275000     -0.23575000       340.81000       1.9803871    0.0081587659
       1173.0000       286.98609       98810.354       15195.174       2.7410000      0.31750000    -0.024000000       340.81400       1.9683841    0.0090598872
       1178.0000       287.00331       98810.367       15162.065       2.9597500     -0.36000000      0.47775000       340.78700       1.9745730     0.011626052
       1183.0000       287.10611       98809.338       15160.366       1.4912500      0.18100000      0.78875010       341.00000       1.9527143     0.010251047
       1188.0000       287.12844       98811.212       15134.009       2.1417500      0.40350000      0.28275000       341.11900       1.9649796     0.010743404
       1193.0000       287.09129       98815.753       15055.463       3.7870000       1.0752500      0.33200000       340.81300       1.9384606     0.011417541
       1198.0000       287.11015       98815.868       15072.993       2.7590000      0.94600000      0.43300000       341.07200       2.6430976     0.012312479
       1203.0000       287.14691       98815.021       15147.234       3.3870000      0.36075000     -0.48175000       340.81900       1.9166704     0.016324397
       1208.0000       287.16701       98816.048       15189.579       2.4745000      0.75950000      0.56000000       341.16000       1.9126126     0.011025458
       1213.0000       287.20277       98814.729       15267.140       3.4717500      0.48825000     -0.21500000       340.72600       1.9301133     0.012260614
       1218.0000       287.21382       98815.638       15320.866       2.3830000       1.0535000      0.48600000       341.04300       2.0458901     0.011182317
       1223.0000       287.19037       98820.489       15334.502       4.1582500       1.3692500     0.099500010       340.51200       2.0666811     0.015479297
       1228.0000       287.20927       98821.568       15400.119       3.3175000       1.4050000     -0.10250000       340.62900       1.9237846     0.012828187
       1233.0000       287.24597       98820.463       15514.880       2.9237500      0.24675000      0.11975000       340.91500       1.9240341     0.011737954
       1238.0000       287.26599       98820.569       15564.247       3.1312500      0.60500000      0.77800010       340.74000       1.9469610     0.012508303
       1244.0000       287.31894       98820.898       15626.953       3.7607500       1.7165000     -0.19175000       340.75300       1.9138712     0.012495414
       1249.0000       287.23928       98817.089       15546.932       3.3525000       1.4737500     -0.62450000       340.69700       2.0019807     0.013208221
       1254.0000       287.19960       98815.038       15495.780       2.5355000      0.43900000      0.23850000       340.83000       1.9608693     0.011335729
       1259.0000       287.12970       98814.772       15430.575       3.1892500      0.60300000     -0.25250000       340.72100       1.9374688    0.0095953740
       1264.0000       287.08726       98810.891       15351.531       3.0865000      0.23625000     -0.25750000       340.66300       1.9488002    0.0095745119
       1269.0000       287.06941       98805.775       15269.197       2.9515000     0.064750000      0.32775000       340.86000       1.9530592     0.011947208
       1274.0000       287.10038       98800.371       15196.152       3.3977500     -0.32300000      0.67175000       340.77000       4.4280400     0.012016268
       1279.0000       287.10050       98796.274       15124.750       2.9782500      0.31450000      0.28875000       340.83500       3.5716304     0.011403288
       1284.0000       287.10581       98789.044       15026.252       3.1497500     -0.78425000     -0.61525010       340.49200       3.5902598     0.013197956
       1289.0000       287.08426       98790.216       14980.390       2.9227500     -0.68300000     -0.19775000       340.72300       7.5889439     0.015981633
       1294.0000       287.05543       98790.191       14959.684       3.5217500     -0.71400000      0.44825000       340.88100       10.902096     0.021664278
       1299.0000       286.99943       98790.337       14990.719       4.0152500      0.94725010      0.33250000       340.64800       5.1733262     0.016737448
       1304.0000       286.94964       98790.325       14989.289       2.0330000     -0.57350000     -0.11000000       340.81300       5.1696266     0.017497598
       1309.0000       286.89979       98790.285       14983.604       3.8252500      -1.1300000     -0.24675000       340.65100       3.0146471    0.0091400159
       1314.0000       286.83788       98790.974       14989.376       3.6580000      -1.8292500     -0.12200000       340.75400       5.3474427     0.013646846
       1319.0000       286.83067       98788.801       14990.639       2.3727500     -0.22375000     -0.55075000       340.93800       5.6458289     0.015094087
       1324.0000       286.84415       98785.372       14970.484       3.4717500     -0.82625000      0.15625000       340.35500       2.6677425     0.010587712
       1329.0000       286.87077       98781.821       14977.034       4.2872500      -1.7937500    -0.042250000       340.49400       3.9389669     0.017145839
       1335.0000       286.90704       98779.400       14967.918       3.5707500     -0.77100000     -0.24125000       340.51100       4.4344276     0.013628301
       1340.0000       286.92027       98778.761       14911.933       2.5697500     -0.38725000      0.30775000       340.74300       2.1076868     0.013827817
       1345.0000       286.95138       98779.848       14897.158       4.6235000     -0.53825000    -0.035250000       340.50700       3.4591269    0.0093697160
       1350.0000       287.02445       98785.094       14889.591       3.3665000     -0.40525000      0.27700000       340.56300       4.7133195     0.017382601
       1355.0000       287.06317       98785.944       14907.810       2.9185000      -1.6075000     -0.39175000       340.71600       7.6619796     0.021868829
       1360.0000       287.10495       98786.015       14976.297       2.7377500     -0.77850000      0.32850000       340.77200       4.8334042     0.019741823
       1365.0000       287.11235       98785.904       15020.951       3.0850000      0.12550000     -0.18025000       340.53300       5.9848463     0.015920172
       1370.0000       287.05214       98781.398       15080.792       3.2827500      -1.1512500     -0.11200000       340.66200       4.2448095     0.014378125
       1375.0000       287.04350       98779.555       15118.105       1.9787500     -0.27500000      0.30350000       340.86700       8.2407007     0.026206479
       1380.0000       287.03053       98780.272       15128.626       2.1040000    -0.082750010      0.16950000       340.93800       3.9610290     0.013850181
       1385.0000       287.04285       98780.235       15143.453       3.1115000     -0.60225000      0.62150000       340.73800       3.9575055     0.010366181
       1390.0000       287.12471       98778.757       15146.210       3.0465000     -0.99875000     0.025250000       340.76400       4.8732824     0.012517015
       1395.0000       287.16322       98779.834       15156.197       3.4830000      0.36750000      0.15800000       340.68600       6.9700448     0.014641209
       1400.0000       287.19082       98783.592       15172.400       3.5560000     -0.62900000      0.43825000       340.68900       9.8164124     0.027479301
       1405.0000       287.20954       98785.565       15181.949       3.9897500     -0.17025000     -0.29175000       340.93000       4.4122876     0.011557538
       1410.0000       287.20001       98789.170       15189.300       4.0190000     -0.90500000     -0.14500000       340.69700       6.0862444     0.014628930
       1415.0000       287.20004       98791.020       15197.260       3.4807500     -0.22925000     -0.13650000       340.47100       13.586911     0.039113659
       1420.0000       287.18597       98790.274       15181.894       2.9870000      0.14925000    -0.034000000       340.60100       5.0229486     0.015213051
       1426.0000       287.20092       98790.297       15205.883       2.5160000     -0.60725000    -0.024250000       340.78600       4.0172943     0.012270476
       1431.0000       287.25129       98787.622       15275.535       2.7485000     -0.92300000    -0.052500000       340.63300       2.7631523     0.015559232
       1436.0000       287.25739       98790.326       15290.600       1.7167500      0.47800000      0.49450000       341.06600       3.4306056     0.010501670
       1441.0000       287.25733       98800.256       15290.667       2.2342500     -0.34750000      0.28475000       340.96600       3.3321992     0.014942699
       1446.0000       287.25390       98801.443       15301.566       2.9865000     -0.26975000     -0.45800000       340.68400       3.0914251     0.010544806
       1451.0000       287.17805       98799.179       15264.394       2.8222500     -0.21900000     -0.10250000       340.63000       4.7036445     0.017979607
       1456.0000       287.18959       98801.190       15270.573       3.3222500      -1.1650000     -0.32175000       340.77100       4.6155525     0.013670255
       1461.0000       287.25090       98799.083       15324.583       2.7207500     -0.96250000     0.014500000       340.85700       2.6940500     0.010220752
       1466.0000       287.31910       98799.875       15358.790       2.8862500      0.79400000     -0.51275000       340.79200       5.0243793     0.017414443
       1471.0000       287.50655       98807.930       15400.928       3.4940000       1.5537500     -0.39050000       340.82800       7.5693351     0.015539361
       1476.0000       287.53916       98812.560       15422.529       3.8567500      0.60275000     -0.12275000       340.90800       4.9936874     0.012527604
       1481.0000       287.46289       98814.118       15422.139       1.7887500      0.97200010      0.56075000       341.16300       2.3570333     0.011230731
       1486.0000       287.44917       98816.115       15441.045       4.6427500       1.0950000      0.23050000       340.66100       1.9360370     0.011422905
       1491.0000       287.36547       98821.201       15466.875       4.1390000       1.2622500     -0.41700000       340.60200       1.9615366     0.012284079
       1496.0000       287.32349       98821.415       15471.599       2.6615000       1.2070000    -0.057750000       341.02600       1.9483235    0.0094560622
       1501.0000       287.35667       98816.416       15499.708       2.8872500      0.96425000     -0.21200000       340.96100       2.1200142     0.011559975
       1506.0000       287.35294       98814.382       15479.070       5.3437500       1.6660000      0.80300000       341.07000       2.1277288     0.011499199
       1511.0000       287.29203       98809.357       15405.635       4.9532500       2.9205000    -0.062500000       340.50000       1.9652619    0.0088731556
       1517.0000       287.29201       98809.285       15333.015       3.2527500       1.8712500      0.58425000       341.24100       1.9508092     0.012788330
       1522.0000       287.33098       98815.723       15219.770       3.9322500     -0.52950000      0.12850000       340.89000       1.8939442     0.013779746
       1527.0000       287.36692       98816.118       15193.648       3.5697500     -0.32175000     -0.17475000       340.72100       1.9603347    0.0091890667
       1532.0000       287.46315       98815.805       15224.606       3.4912500     -0.66750000     -0.20575000       340.44700       2.0987787     0.011582455
       1537.0000       287.46452       98815.110       15213.699       3.4432500     -0.71825000      0.32200000       341.03700       3.4858324     0.012237165
       1542.0000       287.39310       98809.130       15237.276       2.2270000      0.54525000      0.23750000       340.73700       2.8328212     0.010058789
       1547.0000       287.39898       98809.383       15237.014       2.5982500      0.36525000      0.17375000       341.08200       2.8688166     0.011917726
       1552.0000       287.36443       98814.559       15155.007       1.6070000     -0.49875000    0.0047500000       341.28700       2.5800992     0.014574210
       1557.0000       287.40949       98816.617       15194.097       2.9312500     -0.50275000    0.0060000000       340.93700       2.2922646     0.012939941
       1562.0000       287.58419       98820.212       15301.423       4.2725000       1.0587500     0.031250000       341.04800       2.3280557     0.013475471
       1567.0000       287.65232       98821.608       15410.806       3.0732500      -1.3297500     -0.24100000       340.65200       2.0039907    0.0093294032
       1572.0000       287.73205       98821.431       15634.690       2.5367500     -0.79200010      0.26050000       341.13500       3.8645146     0.016917407
       1577.0000       287.71079       98819.850       15712.927       1.9867500      -1.4637500    -0.092250000       341.33500       3.0702063     0.012469744
       1582.0000       287.57660       98816.419       15747.600       2.9555000      -1.0957500      0.49475000       341.52500       5.7217093     0.012595327
       1587.0000       287.51629       98814.495       15740.816       3.4790000      -1.3205000     -0.47675000       340.32300       2.8021951    0.0096339831
       1592.0000       287.40346       98809.201       15640.236       2.5175000     -0.88650010     -0.31275000       340.93200       2.2144203     0.012056454
       1597.0000       287.36209       98809.433       15563.517       4.0105000     -0.85675000     -0.35575000       340.38300       5.1040497     0.012719770
       1603.0000       287.40037       98814.813       15460.513       4.0845000     -0.85125010      0.44425000       341.05500       2.3326098     0.010755810
       1608.0000       287.40067       98816.782       15355.470       3.9395000     -0.95425000     -0.19525000       340.47700       4.3015577     0.012114739
       1613.0000       287.40002       98820.761       15212.733       2.2010000     -0.72450010     -0.32175000       340.94400       5.9535993     0.021001725
       1618.0000       287.40002       98821.951       15109.211       3.0445000     -0.34425000     -0.36450000       340.69700       5.6852329     0.019316522
       1623.0000       287.39098       98820.337       14986.420       2.1590000      0.11850000     -0.10075000       341.35500       4.0850615     0.013372440
       1628.0000       287.40940       98820.337       14939.366       2.1730000     -0.27125000     -0.16725000       340.93000       4.3032719     0.011628534
       1633.0000       287.42634       98820.454       14932.772       2.3272500      0.28125000      0.29325000       341.10300       4.0359389     0.010354090
       1638.0000       287.48447       98820.501       14946.625       2.5200000      0.70600000     -0.17275000       341.27100       2.6742813     0.012093219
       1643.0000       287.59438       98820.281       15009.865      0.65775000     -0.41425000      0.86475000       341.78600       2.1537795     0.012257868
       1648.0000       287.64595       98820.314       15071.791       2.8920000      0.11425000     -0.16750000       341.60600       2.2084136     0.013289573
       1653.0000       287.70630       98820.110       15130.083       3.9777500       1.1317500      -1.2025000       341.18400       1.9570851     0.012436057
       1658.0000       287.72906       98820.051       15256.157       3.6782500      0.22425000     0.086500000       341.91100       4.2426658     0.016146643
       1663.0000       287.70035       98820.393       15458.093       3.6947500      0.72450010     -0.16850000       340.92900       3.4548452     0.016023847
       1668.0000       287.70054       98820.439       15571.501       3.7875000      0.30525000     0.044750000       341.19700       3.5374773     0.012578668
       1673.0000       287.71824       98820.250       15742.116       3.7692500      0.20525000      0.39350000       342.06600       5.0093841     0.017472890
       1678.0000       287.68004       98820.284       15745.781       3.6835000     -0.98225000     0.033000000       340.63300       7.8810357     0.022682637
       1683.0000       287.60776       98820.457       15619.062       2.4737500      0.70175000     -0.38650000       341.75100       4.7529072     0.017897102
       1688.0000       287.56754       98820.529       15543.938       3.3370000       1.1342500     0.093250010       341.00200       3.2581418     0.014954920
       1694.0000       287.48023       98820.274       15378.476       2.3370000     -0.35850000     -0.20025000       341.24800       2.7899660     0.010418216
       1699.0000       287.51555       98820.366       15313.618       4.3647500     -0.38325000     -0.12625000       341.76100       2.2201787     0.010525985
       1704.0000       287.54424       98820.401       15256.145       3.8122500      0.26775000      0.97800000       342.19100       2.2942865     0.010853653
       1709.0000       287.63021       98820.337       15194.253       2.5690000      0.56450000      0.16225000       341.13700       2.0412745    0.0097485258
       1714.0000       287.66258       98820.337       15161.847       2.5845000     -0.72175000      0.14900000       341.95800       3.3779686     0.013121098
       1719.0000       287.67036       98820.337       15151.515       4.0180000      -1.2555000     -0.97350010       341.13200       5.9373240     0.015728017
       1724.0000       287.65750       98820.462       15166.861       2.5512500     -0.15025000      0.95750000       341.62200       5.2364547     0.016387987
       1729.0000       287.64601       98820.512       15180.836       3.8540000     -0.50700000     -0.28075000       340.59100       3.9786920     0.012259412
       1734.0000       287.58277       98820.285       15211.204       4.0827500     -0.58325000     -0.69150000       340.58600       3.8343129     0.017413397
       1739.0000       287.70575       98820.158       15299.302       4.0502500      0.47775000     -0.49000000       340.75800       6.4336049     0.018879419
       1744.0000       287.72083       98820.098       15329.688       3.2085000     -0.12150000      0.39650000       341.61700       4.5046707     0.019119977
       1749.0000       287.66500       98820.366       15317.100       2.4005000      -2.1982500     -0.48650000       341.79300       2.6078096     0.016454198
       1754.0000       287.65629       98820.401       15338.301       2.7887500      -1.4207500     0.027500000       341.12400       3.9751738     0.013577730
       1759.0000       287.63524       98820.450       15355.497       4.1892500      -1.1270000   -0.0012500000       341.23000       3.5458610     0.013505069
       1764.0000       287.53029       98820.127       15333.729       4.0480000      -1.9490000     -0.18025000       341.13800       2.4471537     0.010699774
       1769.0000       287.52491       98820.068       15335.070       2.2080000     -0.58825000      0.16750000       341.53600       3.4870952     0.015542462
       1774.0000       287.61718       98820.833       15385.081       4.1295000     -0.60125010      0.10075000       341.43100       3.5546454     0.015101314
       1779.0000       287.53881       98815.753       15338.547       2.9277500      -1.0745000      0.39450000       341.84400       4.1717528     0.015295968
       1785.0000       287.49043       98814.529       15282.151       4.3272500      -1.2782500      0.31125000       341.13300       5.0550157     0.019947207
       1790.0000       287.39068       98814.773       15212.852       4.1862500      -1.4965000     -0.38575000       340.54000       6.1345368     0.015916014
       1795.0000       287.37641       98814.950       15159.895       3.7115000      -1.7000000     0.023500000       340.85200       2.0430123     0.010284993
       1800.0000       287.48222       98819.427       15118.283       3.9132500      -1.1930000     -0.51900010       340.75400       2.2536998     0.014665253
       1805.0000       287.51073       98821.361       15057.218       3.6247500     -0.48325000     -0.19100000       340.96800       2.7983685     0.015901622
       1810.0000       287.54758       98820.175       14972.899       2.8160000      0.36750000     -0.43925000       340.92000       2.9439703     0.015627890
       1815.0000       287.56504       98820.116       14923.704       1.8617500     -0.63025000      0.68975000       341.35100       3.2428721     0.017373126
       1820.0000       287.51004       98820.241       14857.342       3.3972500    -0.029500000     -0.23950000       340.71700       6.5585772     0.014483801
       1825.0000       287.49092       98820.203       14835.625       4.1295000      0.69775000    -0.053000000       340.80700       5.1390007     0.016495530
       1830.0000       287.47159       98820.177       14833.259       3.6217500    -0.042500000     -0.27550000       340.88600       4.4214126     0.016245877
       1835.0000       287.49376       98820.118       14897.929       2.9597500     -0.39500000      0.23950000       341.16000       3.1857250     0.013299770
       1840.0000       287.58216       98820.302       15075.476       4.6735000     0.055000000      0.29975000       340.93800       10.185865     0.029197946
       1845.0000       287.61048       98820.264       15171.920       5.9125000      0.46200000     -0.37450000       340.72300       8.0512170     0.021487366
       1850.0000       287.63291       98820.175       15319.420       4.3107500      0.88700000     -0.11100000       341.02600       5.6495476     0.029989389
       1855.0000       287.66148       98820.115       15391.587       4.8095000      0.59025000     -0.16250000       340.80200       3.3492557     0.023321535
       1860.0000       287.61609       98820.241       15330.556       3.5255000      -1.3710000     -0.13975000       341.40600       2.5097020     0.014882705
       1865.0000       287.64016       98820.203       15332.876       4.4692500     -0.42475000      0.16625000       340.87000       3.8918362     0.024388846
       1870.0000       287.73170       98820.177       15337.581       5.7670000      0.59100000      0.20975000       340.91900       7.1932043     0.022588223
       1876.0000       287.83100       98820.105       15360.553       4.1302500      0.89525000      0.13200000       340.79100       3.9943837     0.012849343
       1881.0000       287.99281       98820.295       15433.839       3.3640000     -0.65575000      0.79675000       341.37300       2.8853720     0.017004778
       1886.0000       288.03693       98820.254       15451.157       5.2020000      0.66925000      0.18725000       340.83000       5.1465436     0.016554948
       1891.0000       287.96179       98820.378       15421.573       3.4672500     -0.33700000      0.50775000       341.02200       5.1988466     0.014511306
       1896.0000       288.00870       98820.419       15440.044       1.4107500      0.11450000       1.5822500       341.44800       5.8977921     0.016012850
       1901.0000       288.11223       98825.776       15439.213       3.2907500      -1.1270000      0.47600000       341.29000       4.2746418     0.012982528
       1906.0000       288.10457       98820.233       15478.835       4.3395000     0.085000000     -0.37425000       340.45000       3.1467276     0.012338510
       1911.0000       288.15170       98801.059       15629.669       3.1550000     -0.58025000       1.1587500       340.94800       3.6159409     0.010959563
       1916.0000       288.10944       98797.079       15656.700       4.0030000     -0.28075000    -0.094000000       341.33900       4.7786413     0.015582593
       1921.0000       287.84263       98793.690       15627.459       3.6910000     -0.75625000      0.24750000       340.56600       4.8109665     0.023185383
       1926.0000       287.73670       98793.139       15593.904       5.2897500      0.12775000     -0.51650000       340.50100       3.1751151     0.010615653
       1931.0000       287.69686       98812.682       15482.509       5.0950000      -2.4095000      0.13200000       340.56500       2.9122199     0.013424310
       1936.0000       287.67828       98813.400       15407.635       4.1355000      0.40250000      0.14575000       341.49100       4.7164406     0.017100919
       1941.0000       287.73762       98797.931       15348.143       6.3810010      -1.0405000     -0.34850000       341.09400       2.2937307     0.015350611
       1946.0000       287.75791       98793.362       15288.233       6.3500000      0.50200000     0.018500000       340.47000       4.0788751     0.022274444
       1951.0000       287.79501       98787.022       15210.312       4.8952500       1.4727500     -0.22900000       341.20100       4.5842204     0.021652407
       1956.0000       287.81149       98782.756       15164.896       5.6397500       1.2777500     -0.14200000       340.93600       2.6478368     0.015953146
       1961.0000       287.78757       98784.629       15121.725       4.1592500       1.3142500     -0.16475000       340.74300       3.2020656     0.014776909
       1967.0000       287.80564       98785.817       15131.935       5.1312500       2.8357500     -0.19625000       340.68300       3.1034984     0.013906799
       1972.0000       287.84213       98785.623       15193.681       3.3337500    -0.058750000      0.19550000       341.34900       2.2037510     0.011522839
       1977.0000       287.86192       98784.615       15233.551       4.0755000       1.5977500     -0.55200000       340.68400       1.9615237     0.010673491
       1982.0000       287.89895       98786.085       15298.139       3.5920000       1.5292500     0.086500000       341.11800       1.9389864     0.017250917
       1987.0000       287.91261       98785.449       15360.085       5.3572500       2.2285000     -0.83950010       340.66800       1.8998000     0.016050134
       1992.0000       287.90020       98780.394       15416.513       3.0280000     -0.13000000      0.12475000       340.81400       1.9174306     0.010332710
       1997.0000       287.90015       98779.011       15467.720       3.5637500       1.6720000      0.65075000       341.06500       1.9109243     0.015286171
       2002.0000       287.91141       98780.384       15561.508       2.0047500     -0.15675000      0.43950000       341.16800       1.9258130     0.013119488
       2007.0000       287.89539       98780.427       15574.387       2.8207500      0.29175000     -0.29275000       341.14500       1.9543405     0.010829329
       2012.0000       287.88001       98780.259       15541.169       2.3305000     -0.57625000     0.063000000       341.19900       1.9617519     0.013417743
       2017.0000       287.82777       98780.216       15491.173       2.4550000     -0.44325000     0.031250000       341.26100       6.0259653     0.019727221
       2022.0000       287.73880       98780.274       15403.321       2.0752500     -0.80450000      0.16550000       341.29700       5.8046441     0.016710325
       2027.0000       287.65312       98780.274       15293.461       3.1912500      -1.3302500      0.34925000       341.21600       6.3939583     0.016084682
       2032.0000       287.49525       98778.939       15126.923       4.1562500     -0.89450000    -0.063750010       340.92900       4.8785350     0.012613415
       2037.0000       287.46063       98780.542       15025.088       3.6975000     -0.12125000     0.095750000       340.76100       5.6677969     0.016504914
       2042.0000       287.48650       98779.197       14909.859       3.2015000      -2.2300000     0.048500000       341.16000       7.2339523     0.018582221
       2047.0000       287.49915       98789.528       14839.335       3.3722500      -2.4745000      -1.5515000       341.04400       4.8005747     0.014934019
       2052.0000       287.61025       98814.928       14833.663       3.0057500     -0.87050000      0.42025000       341.33500       3.8919092     0.015022284
       2058.0000       287.61943       98822.196       14796.844       3.8900000      -2.7967500     0.069000010       340.77100       4.5656093     0.014626751
       2063.0000       287.55351       98829.954       14757.326       4.2845000      -1.6965000     0.026000000       340.75900       2.8310044     0.012317258
       2068.0000       287.53342       98825.856       14753.833       2.9902500      -1.8665000      0.42600000       341.26300       3.6484318     0.016309215
       2073.0000       287.48792       98800.013       14755.972       3.7595000      -2.9300000     -0.48075000       340.96700       6.4966691     0.021190551
       2078.0000       287.49494       98792.555       14805.235       4.4240000      -2.3702500     -0.58125000       340.84500       2.5678315     0.011179138
       2083.0000       287.54500       98787.737       14904.333       4.5187500      -1.1587500     0.012000000       340.84200       2.0836084     0.017279488
       2088.0000       287.56518       98789.301       14978.404       3.2392500      -1.0620000     -0.21050000       340.79600       1.9397326     0.011321757
       2093.0000       287.62051       98798.623       15110.495       3.7700000      -1.1420000      0.40100000       341.00200       1.9558637    0.0097437267
       2098.0000       287.59442       98804.552       15121.530       3.9307500     -0.42425000     -0.15525000       341.18200       6.6315863     0.021756239
       2103.0000       287.50667       98815.756       15065.334       3.0390000     -0.68500010      0.63650000       341.14300       2.0459465     0.010360414
       2108.0000       287.46657       98820.096       15029.130       1.9122500     -0.53600000     -0.13975000       341.39500       3.8249110     0.013834086
       2113.0000       287.39371       98820.628       14928.904       2.2632500     -0.57900010      0.10400000       341.31500       3.8128836     0.015269169
       2118.0000       287.37132       98821.781       14881.004       3.4520000     -0.22850000    -0.050750000       340.76900       5.4627508     0.019896851
       2123.0000       287.39071       98820.416       14870.153       3.2050000      -1.0320000     -0.58550000       340.69500       6.3782904     0.018475039
       2128.0000       287.40972       98820.509       14827.295       3.9170000      -1.1487500     -0.34375000       341.25100       6.1781009     0.016245702
       2133.0000       287.45494       98820.463       14771.329       3.1970000      0.26000000    -0.073500000       341.35300       3.8764986     0.013448587
       2138.0000       287.45605       98820.569       14725.110       4.4710000     -0.19200000      0.23350000       341.22200       3.1582071     0.014610455
       2144.0000       287.44945       98820.098       14650.760       3.6032500     -0.82925000     -0.66050000       341.05000       5.2318762     0.018434131
       2149.0000       287.46006       98817.227       14693.015       4.6457500      -1.4367500   -0.0017500000       340.61600       2.9749745     0.015397239
       2154.0000       287.45011       98818.983       14707.688       4.0052500      -1.6880000     -0.12550000       340.92400       5.0468336     0.017554371
       2159.0000       287.44022       98826.188       14740.041       3.1307500     -0.73475000      0.25025000       340.89700       2.2655024     0.013897941
       2164.0000       287.45029       98830.134       14786.262       2.7272500      -1.3062500      0.43075000       341.19900       2.8476616     0.011747583
       2169.0000       287.46036       98834.095       14832.535       2.9995000     -0.56000000      0.55525000       340.91500       2.8896806     0.018661461
       2174.0000       287.43673       98841.426       14846.977       3.4680000     -0.14825000     0.010000000       340.69200       3.4350127     0.014322534
       2179.0000       287.46997       98843.115       14918.569       4.7377500      0.43650000     0.089250010       340.24700       3.1338640     0.020389872
       2184.0000       287.56225       98841.384       15050.932       3.5310000     -0.78800000      0.20875000       340.72300       6.7280973     0.018856504
       2189.0000       287.56939       98834.107       15098.978       3.7857500     -0.79025010     -0.40350000       340.54400       3.8865352     0.014759364
       2194.0000       287.56219       98830.014       15110.042       3.8032500      -1.9787500    -0.055000000       340.70700       5.4801244     0.017275445
       2199.0000       287.46977       98823.262       15021.698       3.9135000     -0.71475010      0.17625000       340.87700       6.8344082     0.018014538
       2204.0000       287.43760       98819.037       14972.240       2.7662500     -0.13675000      0.47375000       341.06300       4.0315089     0.012469121
       2209.0000       287.43001       98817.270       14927.889       3.4525000     -0.56375000     -0.20325000       340.69600       6.6516135     0.022022279
       2214.0000       287.43019       98820.463       14868.565       3.8780000      -1.2995000      0.22225000       340.88700       3.7178240     0.012003771
       2219.0000       287.48522       98820.512       14861.072       3.7940000     -0.60900000     -0.11675000       340.64600       3.2571843     0.011553656
       2224.0000       287.61209       98820.895       14889.696       4.0982500      -1.7150000     -0.46550000       340.81300       4.3751642     0.010920672
       2229.0000       287.66945       98817.086       14907.130       3.3242500     -0.30975000    -0.016500000       341.01300       5.9526490     0.022183669
       2235.0000       287.67009       98814.586       14920.167       1.9580000      -1.0487500      0.11050000       341.17200       4.5643027     0.013168625
       2240.0000       287.52682       98814.077       14909.852       3.6262500      -1.9382500      0.22250000       340.66000       8.2019977     0.018086002
       2245.0000       287.48012       98810.006       14913.376       4.1205000     -0.97025010     -0.49825000       340.65600       2.9985857     0.012147593
       2250.0000       287.45352       98803.573       14924.292       3.0735000     -0.59450000      0.72725000       341.08500       4.9637031     0.017660128
       2255.0000       287.43591       98799.623       14935.961       2.0772500     -0.72525000      0.63450000       341.15400       3.1675601     0.011269828
       2260.0000       287.49087       98793.741       14962.819       3.4952500     -0.69475000      0.16125000       340.63700       15.411114     0.031820637
       2265.0000       287.50983       98788.879       14974.368       3.0410000      -1.9912500      0.81050000       340.89300       7.7362284     0.018917236
       2270.0000       287.48586       98786.905       14963.279       4.6910000      -2.2972500     -0.14075000       340.46400       5.3959348     0.016957557
       2275.0000       287.49702       98784.906       14977.602       2.3475000     -0.41725000       1.1670000       340.88300       5.2071719     0.018330130
       2280.0000       287.53452       98779.869       15010.983       2.7762500     -0.80250000    -0.018500000       340.86200       6.5154891     0.016083047
       2285.0000       287.55474       98779.089       15024.022       3.2035000     -0.87100010      0.33500000       340.92000       6.9986783     0.020312493
       2290.0000       287.60439       98785.269       15060.926       2.2872500      -1.0547500      0.13125000       341.24000       4.3870676     0.011983109
       2295.0000       287.61158       98786.168       15061.084       2.5787500     -0.61575000     0.052250000       341.27500       6.6477645     0.017209983
       2300.0000       287.56702       98784.757       15004.834       3.9735000      -1.3075000      0.36825000       341.00300       8.1530288     0.026209737
       2305.0000       287.54703       98785.862       14978.633       3.9010000      0.80925010     -0.58650000       340.81700       5.9568481     0.017403605
       2310.0000       287.50996       98784.631       14950.219       4.4995000      0.42575000     -0.35000000       340.54100       8.6505161     0.023027338
       2315.0000       287.49100       98784.716       14927.718       3.7157500     -0.59550010     -0.19775000       340.71400       5.8383880     0.014245777
       2320.0000       287.50006       98789.287       14939.955       4.9887500      -1.3595000     -0.34775000       340.62100       6.7077811     0.016014730
       2326.0000       287.50011       98791.380       14913.659       3.0212500     -0.67350010      0.24975000       340.95700       7.5391880     0.029257639
       2331.0000       287.50016       98790.345       14856.799       3.5737500     -0.18475000    -0.071250010       340.78600       3.2174960     0.014408117
       2336.0000       287.50032       98790.364       14827.819       3.2062500     -0.47050000     -0.25825000       340.71200       4.7416619     0.015734121
       2341.0000       287.48681       98787.599       14777.228       3.1377500      -1.5767500     -0.13350000       340.60700       8.1201052     0.021514506
       2346.0000       287.50015       98790.263       14768.134       2.5352500     -0.48725000      0.74575000       340.99300       8.1781691     0.025531073
       2351.0000       287.51084       98797.957       14789.025       2.5300000       1.0455000     0.049000000       341.11400       6.0210708     0.016698737
       2356.0000       287.55889       98802.072       14826.977       1.9977500      0.91625010    -0.065500010       341.09800       3.4762856     0.011994087
       2361.0000       287.67039       98807.829       14900.177       2.1252500     0.041250000      0.19700000       341.34900       2.2782515     0.013018659
       2366.0000       287.72706       98812.482       14961.923       1.8880000     -0.41025000      0.20875000       341.22600       1.9383712     0.011446612
       2371.0000       287.77691       98814.006       15011.687       3.0595000      0.46900000     -0.15250000       341.32000       1.9219519    0.0098014575
       2376.0000       287.82334       98815.980       15111.349       1.7915000      0.44950000      0.33350000       341.25300       1.8996017     0.013711034
       2381.0000       287.83842       98819.928       15260.694       3.3797500       1.0877500     -0.72175000       341.04700       1.9274349     0.011419003
       2386.0000       287.85832       98821.611       15363.922       4.0570000    -0.047500000    -0.015750000       340.88500       1.9025025     0.011592074
       2391.0000       287.89525       98817.719       15527.063       2.2720000      0.35600000      0.82550000       341.29400       1.8815855     0.012905536
       2396.0000       287.91137       98820.527       15593.086       2.6365000      0.66250000     -0.19250000       341.27200       1.9115622     0.013535904
       2401.0000       287.91263       98827.803       15576.861       3.3110000      0.21375000     0.035750000       341.03800       2.0027764    0.0091621852
       2406.0000       287.89863       98831.773       15554.876       2.5032500     -0.42250000     0.018500000       341.21500       2.2433161     0.013069699
       2411.0000       287.84828       98841.826       15466.948       2.9342500    -0.030750000     -0.19500000       340.59600       2.4640518     0.011930537
       2417.0000       287.84217       98841.830       15407.355       2.1802500     -0.32825000      0.28000000       340.85500       5.2124226     0.013580580
       2422.0000       287.85417       98831.807       15368.534       1.7447500     -0.35900000     0.025500000       341.16700       5.6055956     0.015043416
       2427.0000       287.84433       98827.792       15298.402       1.7555000     -0.52550000     0.042750000       341.36500       3.5694521     0.011201928
       2432.0000       287.86849       98820.560       15214.919       2.7330000     -0.40575000     0.030000000       341.18700       4.8525872     0.014590184
       2437.0000       287.84641       98817.878       15152.459       1.8047500     -0.45525000     0.029750000       341.35600       4.5046136     0.014124497
       2442.0000       287.75951       98821.510       15046.822       3.5355000     -0.46075000      0.25975000       341.50700       7.5673472     0.018048261
       2447.0000       287.72574       98819.902       15013.835       3.3795000     -0.51825000      0.21250000       341.18300       4.8735211     0.020594128
       2452.0000       287.69026       98816.265       15032.193       4.0000000      0.81550000     -0.37000000       340.54900       5.2452386     0.013846890
       2457.0000       287.69265       98814.325       15058.109       2.4170000      0.36500000      0.27050000       341.31200       4.7287298     0.017397454
       2462.0000       287.75381       98812.537       15146.658       2.5552500     0.019750000     -0.11600000       341.19700       3.8595953     0.011710805
       2467.0000       287.75783       98807.915       15162.790       2.6497500     -0.63225000      0.53800000       341.31500       4.9019176     0.017321470
       2472.0000       287.74634       98802.011       15143.809       3.4340000     0.030000000     -0.49825000       341.06400       6.0665404     0.016891564
       2477.0000       287.75646       98798.100       15166.958       2.6807500      0.48875000     -0.16300000       341.06400       4.2926543     0.013612550
       2482.0000       287.74256       98791.606       15160.252       1.6615000      -1.5697500      0.60775010       341.48800       5.1182231     0.014709913
       2487.0000       287.74942       98787.254       15190.799       4.1460000     -0.50725000     -0.39475000       341.02200       4.7583098     0.019717799
       2492.0000       287.83150       98786.020       15325.462       2.6777500      -2.6182500      0.48625000       341.09700       2.6582111     0.010173091
       2497.0000       287.79588       98784.006       15316.466       3.0380000      0.31225000      0.34425000       341.17500       3.8521015     0.012406062
       2502.0000       287.67148       98779.183       15231.609       4.1830000     -0.13300000      0.12125000       341.35600       4.4027909     0.013340332
       2508.0000       287.59941       98779.788       15145.398       3.1517500     -0.29825000      0.23225000       341.43100       5.6814089     0.018865236
       2513.0000       287.49079       98784.867       14998.590       4.7870000      -1.2100000    -0.040000000       340.67600       7.0218738     0.023309936
       2518.0000       287.45751       98786.789       14908.689       3.4107500      -1.4827500      0.12600000       341.07500       5.8161183     0.017058571
       2523.0000       287.50022       98788.963       14849.951       3.7942500      -1.1525000      0.14125000       340.78600       3.4479421     0.014706590
       2528.0000       287.50040       98793.879       14771.830       2.7070000     -0.91125010      0.11425000       340.83700       4.1314888     0.016108903
       2533.0000       287.48112       98799.311       14655.211       2.4372500      -1.2237500      0.39625000       341.31300       3.5781006     0.013824197
       2538.0000       287.51901       98803.348       14637.863       3.0805000      0.59000000       1.2645000       341.02800       3.7870505     0.013776829
       2543.0000       287.57413       98809.853       14641.357       3.0185000      -2.4507500     -0.51300000       340.90400       3.0248432     0.013514597
       2548.0000       287.65172       98814.031       14713.769       3.5660000     -0.97825000     -0.34275000       340.79700       2.7493470    0.0099713131
       2553.0000       287.81774       98812.989       14897.318       3.2810000      -1.3140000     -0.21475000       340.84000       2.0216465     0.010264274
       2558.0000       287.84338       98818.638       15005.235       3.3842500     -0.45650000     -0.71975000       340.75600       2.0641600     0.010173940
       2563.0000       287.82232       98829.679       15140.797       4.0992500     -0.79650000     -0.24450000       340.88300       2.0439393     0.010131398
       2568.0000       287.78608       98834.697       15204.033       2.6377500      -1.4217500     -0.31650000       341.15400       1.9129290     0.010228099
       2573.0000       287.64883       98842.850       15223.104       1.3760000     -0.85325000      0.43150000       341.33700       2.0002147    0.0097946779
       2578.0000       287.60663       98841.246       15226.898       3.1210000     -0.53750000     -0.20850000       340.96300       2.0174026    0.0089949188
       2583.0000       287.59725       98831.164       15187.050       2.8690000      -2.5945000     -0.31300000       340.57700       2.0431245     0.011835453
       2588.0000       287.58596       98827.227       15167.813       3.6305000      -1.0290000     0.042000000       340.88400       2.0652786     0.011643303
       2593.0000       287.60915       98819.641       15159.339       3.9010000     -0.77000000     -0.12675000       340.71800       2.0040335     0.011121574
       2599.0000       287.55499       98821.827       15032.661       3.1600000       1.0057500      0.65800010       340.92200       2.1096810    0.0099591551
       2604.0000       287.54410       98820.985       14955.692       4.5500000     -0.53250000     -0.44425000       340.49600       1.9718681     0.012508190
       2609.0000       287.52980       98817.423       14807.895       3.8080000     -0.25075000     0.090750000       340.71900       2.0329398    0.0093690076
       2614.0000       287.53688       98815.491       14732.784       2.6485000      0.11225000     -0.66325000       340.85500       2.0190526    0.0090592950
       2619.0000       287.56848       98813.545       14706.497       2.9342500     -0.76150010     -0.10500000       341.10400       1.9678527    0.0088358375
       2624.0000       287.65496       98811.150       14751.877       3.8617500     -0.87625000     0.046250000       340.78700       1.9077508     0.012856707
       2629.0000       287.68371       98806.034       14773.237       3.1872500     0.095250000     -0.19775000       340.99800       1.9368436     0.013866740
       2634.0000       287.70553       98798.486       14823.662       2.9197500     -0.59400000     0.082250010       341.24100       1.9567986     0.012149024
       2639.0000       287.71462       98803.817       14853.839       2.7580000      0.33425000      0.68750010       341.08800       1.9668226     0.011618289
       2644.0000       287.70606       98804.690       14919.010       2.9065000     -0.41750000     -0.64600000       340.67000       1.9705499     0.012770035
       2649.0000       287.69986       98812.885       15104.381       4.8030000     0.012000000     -0.16125000       340.74400       2.0087053    0.0092134147
       2654.0000       287.66243       98817.214       15165.051       2.4115000      -1.6772500     -0.47075000       341.11100       1.9345543    0.0088989880
       2659.0000       287.60030       98817.835       15173.787       2.9192500      0.46850000      0.34475000       340.71800       1.9266238     0.011420520
       2664.0000       287.50122       98809.451       15171.895       4.1635000      0.48550000       1.1707500       341.11300       1.9085920    0.0095616711
       2669.0000       287.43028       98808.552       15081.476       3.1315000      -1.3345000      0.62550000       341.20000       1.9207809     0.012270293
       2674.0000       287.33819       98810.191       14862.809       4.0977500      -3.1142500       1.9192500       341.05300       1.8406607     0.020017434
       2679.0000       287.30006       98808.855       14747.818       5.9250000      -1.7837500    -0.033000000       340.46100       1.9867286    0.0097650066
       2685.0000       287.28750       98810.045       14632.066       4.1615000     -0.63700000      0.11475000       340.55200       1.9660932    0.0093116302
       2690.0000       287.32031       98813.507       14562.616       3.0552500      -1.6725000    -0.030500000       340.83100       1.9143166    0.0089375428
       2695.0000       287.35157       98815.403       14505.508       2.9960000      0.15000000    -0.011250000       340.85400       1.9555688     0.012531075
       2700.0000       287.41014       98819.358       14440.524       2.5627500      0.14275000     -0.14275000       341.03400       1.9181597    0.0091699907
       2705.0000       287.45976       98821.215       14422.984       2.4650000     -0.14825000      0.53200000       341.18100       1.9001096     0.013864946
       2710.0000       287.52359       98821.731       14445.801       1.5567500      0.71800010      0.14525000       341.22400       1.8861191     0.011133007
       2715.0000       287.56243       98820.553       14479.600       3.0630000       1.7690000     -0.14550000       340.50800       1.9299824    0.0093655290
       2720.0000       287.60388       98815.375       14574.064       2.4950000     -0.35325000    -0.081000000       340.98200       1.8905036     0.013041954
       2725.0000       287.61164       98814.480       14633.146       3.2515000      0.14425000     -0.44275000       340.78700       1.9051498     0.010128612
       2730.0000       287.56571       98816.186       14664.103       5.0577500       1.1900000     -0.12250000       340.77800       1.9430401    0.0095828609
       2735.0000       287.54561       98815.184       14724.660       5.1755000     -0.20400000     -0.54400000       340.60400       1.9084157     0.011461273
       2740.0000       287.49532       98818.705       14788.647       4.2202500      -1.3780000     -0.30775000       340.57600       1.9314029     0.010570918
       2745.0000       287.48782       98816.307       14854.551       2.5000000     -0.44050000      0.49175000       340.78800       1.9184414     0.014348654
       2750.0000       287.54765       98805.990       14998.023       3.6775000    -0.084250000      0.30000000       340.82700       1.9399776     0.012291329
       2755.0000       287.55605       98798.947       15044.593       1.7267500     -0.10025000      0.15775000       341.01700       1.9611597     0.010324907
       2760.0000       287.55588       98787.570       15026.699       3.0855000      -1.1400000      0.96075000       341.20900       2.0008920     0.010237798
       2765.0000       287.55476       98782.970       15009.248       2.2957500      -1.0492500      0.60000000       340.92600       1.9092870     0.015182825
       2770.0000       287.49548       98784.739       14900.633       2.9947500     0.054500000     -0.44925000       340.67600       1.9138544     0.010151857
       2776.0000       287.48937       98785.064       14849.409       3.4515000      0.84175000     -0.54575000       340.63900       1.9376465     0.012272602
       2781.0000       287.53825       98786.003       14852.765       2.0650000     -0.79875000      0.34900000       341.20700       1.9542968     0.010790516
       2786.0000       287.55804       98791.729       14839.228       3.4595000      -1.0005000     -0.38950000       340.74600       1.9298014     0.010043494
       2791.0000       287.60784       98801.560       14855.729       2.7705000     -0.55325000      0.46100000       341.03900       1.9338593    0.0089441065
       2796.0000       287.61042       98807.486       14841.723       2.3255000     -0.87175010     -0.48925000       340.91000       1.9271092     0.010248538
       2801.0000       287.54937       98818.804       14779.488       3.7687500     -0.65225010    -0.031000000       340.85000       1.9068204     0.011033070
       2806.0000       287.54305       98823.691       14772.870       2.5362500     -0.80875000    -0.095500010       340.79500       1.8961896     0.011443398
       2811.0000       287.55623       98817.722       14790.093       1.9797500     -0.83550010      0.29625000       341.06000       1.9214359     0.014032534
       2816.0000       287.54608       98820.511       14800.247       1.4760000     -0.64000000      0.71700000       341.09800       1.9217941     0.012042648
       2821.0000       287.55629       98830.633       14847.249       2.5232500     -0.54175000      0.57850000       340.87900       1.9399628    0.0091598138
       2826.0000       287.55260       98831.971       14871.557       3.2892500     -0.53075000      0.32625000       341.08200       1.9570970     0.012830337
       2831.0000       287.50485       98831.731       14859.732       2.8057500      -1.3440000      0.26400000       341.02000       1.9269070     0.011367044
       2836.0000       287.48855       98830.961       14881.107       3.1545000      -2.7857500     -0.35925000       340.91300       1.9122691     0.016117782
       2841.0000       287.50068       98825.394       14936.979       3.9260000      0.31975000      0.33175000       341.04700       1.9050892    0.0088207619
