MIRICO/SHELL project - Processed LDS file generated on
Thu Jul 20 13:50:36 2017
Time stamp for record start
05/12/2017  09:48: 2.0001
Nb of points in the record
         563
Beam position index
       7.0000000
Beam angle (degrees)
       19.274000
Open Path length (m)
       33.730000
****************** Temporal data record ************************
Elapsedtime_sec Temp_K Press_Pa Humidity_ppmv WindX_m/s WindY_m/s WindZ_m/s Speedofsound_m/s CH4vmr_ppmv CH4vmrerror_ppmv  
      0.00000000       286.76202       98770.474       15143.529       3.5782500       1.4885000      0.12175000       340.45700       1.9470804     0.020219341
       4.9999729       286.74207       98767.516       15132.521       2.6812500      0.46200000    -0.064000000       340.66200       1.9657195     0.015761934
       9.9999860       286.69175       98767.466       15095.580       2.4682500       1.3207500     -0.33350000       340.92100       1.9404457     0.019549698
       14.999999       286.68953       98769.617       15084.425       2.6532500      0.90250000     -0.19825000       340.81000       2.0156750     0.015669590
       19.999972       286.71235       98780.292       15067.136       2.8670000      0.62450000      0.15525000       341.07900       1.9930686     0.020065115
       24.999985       286.76017       98788.333       15104.037       3.7960000      0.45700000     0.047750000       341.06100       1.9320144     0.028508464
       29.999998       286.89859       98796.298       15221.070       3.6035000       1.0557500     -0.56825000       341.01600       1.8364584     0.031099636
       34.999971       286.92828       98803.345       15255.113       3.6285000      0.26025000     -0.12275000       340.72900       1.9875568     0.013271254
       39.999984       286.90082       98812.930       15267.309       2.5142500       1.8430000    -0.064000000       341.16700       1.7463549     0.037554418
       44.999997       286.90689       98818.069       15304.779       4.0440000      0.82250010     -0.96100000       340.52500       1.8875807     0.023612654
       49.999970       286.84727       98821.218       15284.115       3.9292500      0.67175000      0.82275000       340.94300       2.0064204     0.027837278
       54.999983       286.83531       98821.492       15308.025       5.1202500      0.85075000      -1.0910000       340.70800       2.0572511     0.011980748
       59.999996       286.90759       98819.006       15435.860       3.7667500       1.2567500      0.34700000       340.67400       1.8873384     0.030541181
       64.999969       286.91016       98814.267       15458.957       2.6172500      0.81425010     -0.31550000       341.06600       1.8716153     0.030748343
       69.999982       286.83565       98804.225       15408.863       3.0577500       1.2845000      0.34150000       341.06600       1.9066130     0.023828892
       74.999996       286.84290       98797.178       15389.170       4.0747500      0.63750000    -0.052500000       340.92000       1.9780799     0.016144271
       81.000003       286.86286       98788.530       15300.591       3.0115000      0.35950000     -0.36600000       340.86000       1.8342738     0.026808177
       85.999976       286.92145       98780.649       15304.087       3.6537500     -0.39175000      0.70575000       340.79100       1.9958201     0.015983619
       90.999989       287.09310       98769.601       15376.813       3.0810000      0.80425010     -0.30000000       340.77000       1.8087263     0.038279746
       96.000002       287.14413       98767.395       15405.246       2.8865000      0.78775010     -0.27150000       340.92500       2.0135320     0.028508555
       100.99998       287.18095       98767.533       15453.165       2.6702500       1.7330000      0.75025000       341.03700       1.9983895     0.017277447
       105.99999       287.15545       98770.472       15489.347       1.8677500      0.22250000      0.22925000       341.08900       1.8844170     0.035548958
       111.00000       287.01772       98781.899       15503.857       3.2357500       1.0622500    0.0025000000       340.80800       1.9051062     0.028929205
       115.99997       286.96393       98789.943       15518.257       3.0665000       1.3387500    -0.016750000       341.02000       1.8499689     0.033342502
       120.99999       286.91239       98798.906       15569.174       1.0582500     -0.13450000      0.86875000       341.20500       1.8246682     0.039787555
       126.00000       286.86850       98804.353       15542.682       2.5940000      0.56900000    -0.022250000       341.00300       2.4316400     0.040087629
       130.99997       286.85847       98809.136       15454.537       2.1975000      0.28325000      0.16675000       341.19800       1.9833816     0.016671328
       135.99999       286.83885       98813.540       15393.092       3.4290000      0.53000000      0.34650000       340.73600       1.9212357     0.041251358
       141.00000       286.82397       98814.584       15297.717       2.5745000       1.0315000     -0.18350000       340.57000       1.9300272     0.039673663
       145.99997       286.77740       98816.698       15220.664       2.7300000       1.2182500     -0.11075000       340.65300       2.0705874     0.014983157
       150.99999       286.71561       98821.338       15163.941       2.0072500      0.58450000      0.42950000       341.25400       1.8983631     0.039338631
       156.00000       286.67539       98821.118       15092.857       3.2425000    -0.043750000      0.31775000       340.86100       1.7924349     0.046153132
       160.99997       286.61194       98818.209       15014.732       2.6552500      0.75250010     -0.33100000       341.12200       1.8714731     0.038223586
       165.99998       286.56815       98812.975       14926.805       2.5617500      0.71525000      0.12675000       341.25200       2.0360069     0.013371968
       171.99999       286.53640       98801.534       14785.083       2.3032500       1.5552500      0.29425000       341.01000       2.1043542     0.016211802
       177.00001       286.55402       98794.541       14755.976       3.0155000       2.1347500     -0.53500000       341.08600       1.8673163     0.034535971
       181.99998       286.58914       98784.977       14746.084       2.6332500       2.7200000     -0.38500000       340.59500       2.0608702     0.017803161
       186.99999       286.61762       98780.684       14768.490       2.1652500       2.0430000     -0.23125000       340.70100       1.9643123     0.018360970
       192.00000       286.70570       98779.962       14870.150       3.3827500       1.7057500    -0.091250000       340.67600       1.8470987     0.040721708
       196.99998       286.72792       98778.860       14944.856       2.4560000       1.4472500    -0.010000000       340.76900       1.9697196     0.031729756
       201.99999       286.69958       98779.538       15026.808       1.8260000       2.3755000    -0.080250000       340.62500       2.0764021     0.017589850
       207.00000       286.69953       98781.497       15080.973       2.5867500       1.6562500    -0.077750000       341.01900       1.8767631     0.029055919
       211.99998       286.68219       98783.153       15132.055       3.0990000       1.1645000     -0.10475000       340.85500       1.9754768     0.026363417
       216.99999       286.71947       98788.861       15204.870       3.6150000       1.3635000     -0.27725000       340.71000       2.0851360     0.017681514
       222.00000       286.80097       98799.847       15282.353       2.7695000       1.3647500     -0.44200000       340.74200       2.2054435     0.024895815
       226.99998       286.82203       98804.923       15305.290       2.6967500      0.71400000     -0.31650000       340.71700       2.0616376     0.014700943
       231.99999       286.85167       98812.992       15337.062       3.1375000       1.2722500     -0.54975000       340.95700       1.8544332     0.021064647
       237.00000       286.87264       98811.481       15344.719       2.7150000     -0.66700010     -0.12350000       340.93700       1.9585994     0.016852347
       241.99997       286.84400       98799.421       15290.073       1.8400000      0.19225000    0.0092500000       340.89000       1.9824806     0.019432944
       246.99999       286.85303       98799.258       15249.735       1.9827500      0.48000000     -0.14500000       341.04800       1.9969719     0.019226892
       252.00000       286.90335       98799.158       15215.704       2.0132500      0.13750000      0.38625000       340.95300       1.9838339     0.023797638
       256.99997       286.91472       98800.963       15200.499       2.1987500      0.68225000      0.53075000       341.33100       1.9503219     0.022782763
       262.99998       286.91254       98812.870       15161.515       2.4465000      0.51575010    -0.047250000       340.92000       1.9827478     0.023833559
       267.99999       286.84007       98805.769       15151.312       2.2185000       1.2650000    0.0077500000       341.07500       1.8870704     0.035619123
       273.00001       286.80037       98800.917       15143.947       1.7375000       1.1897500    0.0042500000       341.01700       1.9454791     0.016890449
       277.99998       286.76067       98794.842       15128.699       2.2477500       1.0197500     -0.50175010       340.72600       2.0167150     0.022920737
       282.99999       286.68809       98785.617       15073.726       3.0427500      0.65350000      0.13375000       341.23000       1.9405831     0.022694378
       288.00001       286.67083       98777.598       15070.121       3.2952500       1.5717500      0.20100000       340.79500       2.0403554     0.014989505
       292.99998       286.71149       98769.734       15114.845       2.9747500       1.4820000     -0.28125000       340.80000       1.9586233     0.023909546
       297.99999       286.62450       98760.234       15047.520       4.2390000       2.4120000      0.80425010       340.75200       1.7777357     0.035399046
       303.00001       286.59267       98757.603       15005.493       3.9920000       1.7067500    -0.012750000       340.59200       1.8773573     0.025241153
       307.99998       286.54488       98764.876       14918.121       3.2872500      0.75575010  -0.00075000000       340.57900       2.0400680     0.015490287
       312.99999       286.53149       98769.749       14866.990       3.1125000       1.1327500     -0.19000000       340.85400       1.9505019     0.024059432
       318.00001       286.55502       98775.874       14842.150       3.2705000      0.83400010     0.052250000       340.83700       2.0037583     0.014921642
       322.99998       286.64915       98786.503       14856.307       3.5410000       1.1190000     -0.20950000       340.56900       1.9204104     0.036313829
       327.99999       286.69953       98790.314       14871.087       3.3330000      0.14725000    -0.049000000       340.75300       1.9674179     0.019744192
       333.00000       286.75637       98790.030       14902.262       3.2932500      0.40500000     -0.26600000       340.52000       1.9401024     0.023257065
       337.99998       286.78476       98796.447       14915.865       2.0992500      0.70125000      0.16125000       340.93400       2.0674433     0.013104318
       342.99999       286.80604       98800.515       14960.916       2.0280000    -0.014250000     0.036000000       341.02300       2.0754710     0.016739197
       348.00000       286.81489       98807.332       15061.527       2.0542500     -0.25975000     -0.18525000       340.75000       2.0421887     0.015829718
       353.99997       286.80270       98812.039       15112.659       2.4100000     -0.64850000      0.52600000       340.87200       2.0121885     0.025957398
       358.99998       286.76588       98810.406       15163.298       3.0357500      0.35200000     -0.30375000       340.53300       1.9278597     0.030089764
       364.00000       286.74598       98810.465       15178.790       2.4280000      0.33175000      0.64250000       340.82800       1.9568603     0.020146898
       368.99997       286.71022       98813.322       15120.474       2.5677500    -0.057500000     -0.15275000       340.70700       1.8940238     0.030776687
       373.99998       286.69160       98811.079       15081.312       2.2980000      0.44500000      0.31875000       340.90200       2.0217432     0.017907602
       379.00000       286.70020       98803.603       15045.588       2.1377500      0.51700000      0.26725000       341.10600       1.9493557     0.024847513
       383.99997       286.70023       98799.633       15001.655       2.3407500      0.29075000      0.18175000       340.87700       2.0572158     0.016127837
       388.99998       286.71448       98793.474       14962.995       2.6962500      0.54900000      0.17825000       340.87700       2.0626417     0.016918390
       394.00000       286.70367       98788.507       14897.374       2.6697500     -0.30250000      0.10400000       340.77400       1.8605713     0.043350954
       398.99997       286.65161       98789.796       14769.100       2.8265000     -0.58650000    -0.085000000       340.88600       2.0037813     0.018097835
       403.99998       286.64299       98785.610       14712.981       2.0445000      0.35125000     -0.20675000       341.15600       2.0786209     0.017198921
       408.99999       286.62829       98774.500       14650.584       2.5730000      0.37825000     -0.55825000       340.74400       1.9118878     0.027662429
       414.00001       286.64105       98768.570       14642.176       2.2707500       1.3795000     -0.19700000       340.85400       1.9106793     0.025554267
       418.99998       286.73782       98759.328       14729.591       2.2875000      0.42025000      0.30225000       340.92700       2.0557666     0.012372725
       423.99999       286.76523       98757.759       14789.237       2.6315000     -0.45775000     -0.18400000       340.76800       2.0059089     0.013867807
       429.00001       286.76977       98767.201       14882.670       2.5735000      0.61900000      0.30675000       340.96500       1.9738737     0.020329922
       433.99998       286.75736       98771.236       14935.898       2.0215000    -0.010750000      0.46225000       341.09500       1.3747881     0.063771560
       438.99999       286.67491       98778.492       14970.429       2.8990000      0.69400000      0.44400000       340.91600       2.0482080     0.015436074
       445.00000       286.63010       98782.654       14990.362       3.2450000      0.64125000     -0.49525000       340.62000       1.8557482     0.021556513
       449.99997       286.60517       98776.409       14979.454       2.9472500      0.91675000     -0.21425000       340.75500       1.9350290     0.020296566
       454.99999       286.58892       98780.485       14956.755       3.0327500       1.0910000      0.39425000       340.86600       1.8693259     0.031013683
       460.00000       286.59982       98791.335       14932.298       3.3422500     -0.50275000     -0.33325000       340.69300       1.9243140     0.025098490
       464.99997       286.59966       98797.286       14872.235       3.0237500      0.20550000     -0.54000000       341.02000       1.8313583     0.035351775
       469.99999       286.58703       98807.357       14749.930       4.0557500       1.1150000     0.074500000       340.84000       1.8748923     0.030743263
       475.00000       286.60078       98813.698       14683.207       4.5447500       1.0655000     -0.25050000       340.64600       1.8705714     0.028331101
       479.99997       286.63905       98815.364       14606.222       3.8530000      0.35000000     -0.52900000       340.62300       1.8712019     0.029974575
       484.99998       286.65940       98815.983       14565.806       3.9605000       1.3027500     -0.33025000       340.66100       1.8630131     0.033354783
       490.00000       286.69548       98814.635       14575.540       4.1212500      0.82250010     -0.22675000       340.56300       1.9256634     0.028862509
       494.99997       286.71154       98815.583       14583.668       2.6542500      0.14200000     -0.19400000       341.01300       1.9031012     0.019836168
       499.99998       286.69970       98815.809       14594.959       2.2200000      0.74750010       1.1232500       341.06500       1.8616655     0.038231084
       505.00000       286.69942       98814.783       14631.395       3.9270000      0.97550000     -0.31775000       340.85800       2.0824302     0.016857564
       509.99997       286.70001       98818.401       14705.908       3.2280000      0.54625000     0.048500000       340.72800       1.9694087     0.014475933
       514.99998       286.69997       98815.217       14760.016       3.6470000      0.18475000     -0.65175000       340.72000       1.9674212     0.015997289
       520.00000       286.69962       98803.005       14837.248       3.3375000     -0.12375000      0.46925000       340.79300       1.8903764     0.030452474
       524.99997       286.69954       98797.343       14878.217       2.7870000      -1.2167500     -0.33025000       341.13600       1.9054852     0.029034604
       529.99998       286.70031       98792.427       14896.270       2.4905000     -0.78450010      0.37325000       340.86100       1.8872756     0.034439056
       535.99999       286.70025       98787.009       14905.578       2.6570000     -0.85800000     -0.12025000       340.77100       1.9801476     0.018466326
       541.00000       286.70001       98788.450       14886.322       2.1090000      0.24725000      0.16600000       340.96800       2.0075995     0.015636420
       545.99998       286.70001       98783.294       14875.511       3.1907500   -0.0077500000      0.48875000       341.00700       1.8201535     0.027598117
       550.99999       286.69965       98772.035       14864.315       4.3007500      0.98775010     -0.10300000       340.72800       1.7937039     0.047080057
       556.00000       286.69936       98766.567       14837.995       3.7530000      0.77850000     0.089750010       340.59000       1.8756884     0.025156907
       560.99997       286.70001       98758.118       14801.109       3.9127500      0.72000000      0.15525000       340.74000       2.0037345     0.018029254
       565.99999       286.69995       98758.504       14769.071       3.3560000     -0.79025010      0.33150000       340.82500       1.9355809     0.032970026
       571.00000       286.68879       98768.788       14698.962       3.9672500      0.14875000     -0.20050000       340.68000       1.7811417     0.042890620
       575.99997       286.70488       98772.806       14701.096       2.7457500      0.51700000     -0.46175000       340.86300       2.0059389     0.016122783
       580.99999       286.74229       98778.849       14750.533       3.2902500     -0.14750000      0.30425000       340.58100       1.7279975     0.037829582
       586.00000       286.76214       98783.078       14783.345       3.3515000      0.30100000     -0.33375000       340.68900       1.8839022     0.032222504
       590.99997       286.79896       98782.045       14860.431       1.8792500     -0.22175000     0.059250000       340.88800       2.0552807     0.014593829
       595.99999       286.81228       98787.324       14902.156       3.2142500       1.0930000      0.17650000       340.75500       2.0444835     0.014890555
       601.00000       286.78919       98798.737       14906.532       4.0520000      0.48750000    -0.067500000       340.76500       2.0501050     0.016945288
       605.99997       286.80575       98804.219       14949.898       3.8950000       1.2737500     -0.59450000       340.68600       2.0201242     0.019805076
       610.99999       286.84320       98809.026       15015.432       1.8175000     -0.46875000     -0.26950000       340.90400       2.0621008     0.013138772
       616.00000       286.86331       98813.364       15064.227       3.5112500    -0.014250000      0.10550000       340.80500       2.0626515     0.014749960
       622.00001       286.90337       98815.670       15140.253       2.8210000      0.34625000      0.39125000       340.76800       1.9361363     0.038242894
       626.99998       286.91444       98815.759       15172.858       3.6972500       1.1945000     0.085750010       340.71600       1.9190407     0.027162767
       631.99999       286.89080       98816.218       15176.701       3.5397500      0.10700000     -0.62550000       340.82500       1.7334713     0.052021898
       637.00000       286.90922       98815.438       15196.863       2.3162500    -0.099500010      0.68975000       340.88900       2.5197453     0.036059809
       641.99998       286.95464       98809.058       15219.544       2.4030000     -0.31200000     -0.31050000       340.69200       1.9616060     0.023305757
       646.99999       286.95572       98809.829       15218.606       1.6530000     -0.25975000     0.013000000       340.92500       1.9457155     0.031310718
       652.00000       286.96542       98814.969       15221.660       1.9320000     -0.33750000     -0.29625000       340.79600       1.9668321     0.028222035
       656.99998       286.93800       98817.030       15188.583       2.7657500     -0.96750000      0.30825000       340.77500       2.0044018     0.025070729
       661.99999       286.86833       98821.454       15134.141       2.4232500      0.48775000    -0.034250000       340.74400       2.0608746     0.019780282
       667.00000       286.79976       98820.638       15044.926       3.8307500    -0.025250000     -0.66325000       340.61800       2.0400117     0.013965651
       671.99998       286.69627       98815.466       14899.981       4.2175000     -0.38325000     -0.49300000       340.56100       2.3564951     0.015869120
       676.99999       286.66416       98813.404       14827.872       3.9055000      -1.4242500     -0.41575000       340.82700       3.5076002     0.046860352
       682.00000       286.64840       98811.849       14749.799       4.2482500     -0.68225000      0.46850000       340.78500       4.4604210     0.043456704
       686.99998       286.62750       98806.922       14693.864       4.5217500      0.44425000      -1.0302500       340.63600       8.9803346     0.027635787
       691.99999       286.65713       98801.109       14689.387       5.2545000     -0.75350000     0.027000000       340.59500       3.9170891     0.029383863
       697.00000       286.64865       98797.126       14664.334       3.5650000      0.93275000     0.047250000       340.56800       4.0209917     0.036185542
       701.99997       286.57902       98790.300       14598.081       3.7585000      0.80200000     -0.32975000       340.57800       2.8198541     0.018090182
       706.99999       286.60513       98786.119       14623.311       3.0007500    -0.020500000      0.35100000       340.70200       2.5607701     0.024475566
       713.00000       286.69453       98785.407       14714.521       2.8087500      0.50550000   -0.0070000000       340.87600       2.7146008     0.017195294
       718.00001       286.81474       98781.744       14845.066       3.7362500     0.072000000     -0.22600000       340.68900       2.0304336     0.015764417
       722.99998       286.86815       98779.604       14943.814       2.5507500      0.69450000      0.18975000       340.71400       3.2802008     0.018639501
       727.99999       286.88469       98778.686       15032.514       2.8312500      0.13650000      0.74475000       340.65400       2.1345135     0.025890697
       733.00001       286.85021       98780.337       15116.378       2.5525000     -0.23125000     0.023000000       340.54000       1.8836427     0.048608285
       737.99998       286.86005       98780.387       15182.486       3.6527500     -0.97725000     -0.49575000       340.53900       1.8787175     0.038196905
       742.99999       286.83842       98779.829       15232.460       3.0820000     0.089750010    -0.031250000       340.46700       1.8323100     0.033483903
       748.00001       286.96007       98784.781       15306.057       2.7142500     -0.53500000     -0.32725000       340.56200       4.6248380     0.015140453
       752.99998       286.97634       98785.942       15308.422       2.0667500     -0.76075010      0.51950000       340.75400       4.1692132     0.024692850
       757.99999       286.89472       98781.113       15245.024       2.2280000     0.031250000     -0.36800000       340.75400       2.9070437     0.017782531
       763.00001       286.85615       98783.762       15175.120       2.9442500    -0.034000000     -0.10325000       340.69700       1.8991840     0.034757410
       767.99998       286.80524       98788.869       15074.720       2.7652500      -1.3755000      0.73700000       340.80000       1.9980368     0.015296260
       772.99999       286.67434       98794.478       14896.310       2.3655000      0.66500000      0.22275000       340.82300       2.0622249     0.033842043
       778.00000       286.67022       98799.692       14827.486       2.0892500       1.0347500     -0.21150000       340.93100       1.9104410     0.016604052
       782.99998       286.75028       98811.571       14783.429       3.4625000      0.26750000     0.076250000       340.43100       2.0375925     0.015593830
       787.99999       286.79982       98814.706       14797.541       3.5772500     0.012500000      0.12025000       340.53900       2.0655159     0.010121621
       793.00000       286.81256       98815.842       14789.741       2.5527500       1.0957500     -0.49825000       340.84700       1.8983481     0.039088472
       797.99998       286.75460       98815.966       14737.305       2.4077500       1.0057500     0.090750000       340.79000       1.9716321     0.015307591
       803.99998       286.74272       98816.044       14745.244       3.5367500       1.2517500     -0.77850000       340.74200       1.6677773     0.055474048
       809.00000       286.75811       98809.732       14799.912       2.3167500      0.30450000      0.10675000       340.72600       1.6952578     0.062174263
       813.99997       286.74827       98808.942       14831.421       4.0272500      0.21850000    -0.043500000       340.62400       2.1069262     0.017942355
       818.99998       286.74231       98818.086       14898.910       3.2770000      0.98850010      0.16125000       340.75200       2.0886736     0.017358886
       824.00000       286.75228       98816.697       14948.051       4.2802500       2.1437500     0.031250000       340.53400       2.0024782     0.017606004
       828.99997       286.74428       98806.271       14973.185       3.3452500     -0.80500010     -0.43650000       340.49400       2.0036738     0.012288275
       833.99998       286.74548       98804.390       14989.266       2.9277500     -0.12825000      0.39650000       340.75900       2.0691886     0.014182679
       839.00000       286.80422       98798.712       15025.081       3.1240000      -1.4165000    -0.099000010       340.57000       2.7966090     0.018812787
       843.99997       286.81212       98798.165       15019.716       3.6655000      -1.4342500     -0.63525000       340.46200       3.8155702     0.018738080
       848.99998       286.73774       98816.058       14930.445       2.6690000     -0.90525010     -0.20350000       340.55300       7.1908514     0.022534023
       853.99999       286.74038       98818.381       14912.972       2.7220000     -0.61100000     -0.31525000       340.57800       6.2300315     0.021228753
       859.00001       286.77630       98810.896       14924.169       2.6907500     -0.52475010     -0.10300000       340.70300       5.4463531     0.023196274
       863.99998       286.79779       98805.620       14921.522       2.0615000     -0.73075000      0.35700000       340.81500       3.1265474     0.031655416
       868.99999       286.86594       98792.707       14949.171       2.5795000      0.36650000     0.067750010       340.92600       2.4684002     0.022594446
       874.00001       286.91505       98782.739       14978.873       2.5547500     -0.63350000     0.074500000       340.88000       2.5331055     0.021475637
       878.99998       286.94869       98771.517       15003.194       3.9560000      0.54400000    -0.049750000       340.65000       3.4693183     0.019814182
       883.99999       286.95773       98767.831       15010.364       4.1015000      0.85075000    -0.015750000       340.79300       6.1099779     0.013264946
       889.00001       286.94220       98767.630       15013.128       3.4027500      0.14475000      0.13075000       340.71500       3.9507183     0.032643874
       894.99997       286.95414       98769.779       15040.835       2.7137500     -0.36100000      0.16225000       340.84200       2.6464697     0.014847691
       899.99999       286.93009       98783.228       15022.349       3.3402500     -0.27850000    -0.076750000       340.74700       5.0426275     0.042162283
       905.00000       286.94725       98788.505       15066.043       2.6312500      0.62050000      0.23725000       340.90200       3.9421355     0.041832425
       909.99997       287.05966       98791.086       15226.617       2.8690000       1.4482500     -0.30525000       340.41300       4.1175653     0.018722263
       914.99999       287.06849       98791.279       15266.432       2.9762500       1.2172500     -0.17425000       340.71300       3.8863860     0.011837662
       920.00000       287.00625       98782.603       15253.001       2.6227500      0.40125000      0.60075000       340.84900       2.4368430     0.025283969
       924.99997       286.99661       98784.730       15262.999       1.8207500      0.26675000      0.17975000       340.96400       2.0142514     0.032462198
       929.99998       286.93484       98791.016       15195.808       2.2522500       1.0380000     -0.48175000       340.66000       2.1426303     0.015308418
       935.00000       286.93532       98796.741       15185.877       3.4600000       1.0390000      0.82425000       340.69100       1.9009270     0.027989102
       939.99997       287.03332       98814.095       15251.072       2.3107500      0.20600000      0.24975000       340.90600       2.0481819     0.028144808
       944.99998       287.06926       98819.631       15268.294       3.5447500     -0.20600000     -0.12175000       340.82400       1.9495074     0.030056211
       950.00000       287.10903       98814.904       15284.661       2.9907500      0.20575000     -0.12050000       340.58800       1.8150835     0.026164942
       954.99997       287.11133       98815.948       15268.145       1.7140000      0.88750000      0.20525000       340.87500       2.1183147     0.026187081
       959.99998       287.03695       98814.658       15184.525       3.0347500     -0.66225000      0.34075000       340.50800       2.0101945     0.021770226
       965.00000       287.04492       98815.077       15180.801       3.3237500      0.44200000      0.58325000       340.86100       1.9579095     0.024149879
       969.99997       287.08208       98819.800       15196.287       3.1407500      0.95350000    -0.094500010       340.49000       1.9132782     0.030471033
       974.99998       287.10596       98821.438       15215.725       2.7410000      0.76300000     -0.53825000       340.49700       2.0645740     0.012887490
       980.00000       287.17789       98820.378       15296.363       2.0272500      0.30000000      0.37350000       340.63100       2.0537871     0.017312109
       986.00000       287.23151       98820.429       15358.501       3.0195000      0.82075010      0.30900000       340.79500       1.8783771     0.037553329
       990.99998       287.23015       98821.439       15368.330       3.0712500      0.47325000    -0.090000000       340.47700       2.0428519     0.019047577
       995.99999       287.26573       98819.868       15426.060       2.1227500      0.60225000      0.54975000       340.86500       1.8898995     0.037561232
       1001.0000       287.32831       98816.434       15503.109       3.6397500       2.1612500     -0.35850000       340.48600       1.8617106     0.037194859
       1006.0000       287.37828       98814.510       15601.609       2.4817500      0.81300000     -0.24850000       340.80200       2.0620015     0.016502856
       1011.0000       287.45205       98810.538       15758.174       1.8880000      0.64925000      0.28875000       340.97800       1.9509323     0.030158195
       1016.0000       287.46997       98809.206       15842.510       2.0775000      0.58550000     -0.26375000       340.84500       1.9896485     0.021028847
       1021.0000       287.44541       98812.475       15921.524       1.8827500      0.65800010    -0.042500000       340.74600       2.0067563     0.016508313
       1026.0000       287.45539       98809.248       15969.261       2.0500000      0.31050000      0.31325000       340.94100       1.8726692     0.034425812
       1031.0000       287.46535       98803.009       15964.734       1.7360000      0.54925000     0.064250000       340.83600       2.1737892     0.021333894
       1036.0000       287.43951       98797.429       15957.759       2.2815000     0.061500000      0.29275000       340.94400       1.9921897     0.017570102
       1041.0000       287.44020       98785.125       15970.470       3.0580000      0.96500000     -0.32950000       340.87500       2.0284694     0.022547113
       1046.0000       287.38039       98782.070       15899.934       3.7442500      0.77250000      0.25525000       341.05600       3.4801580     0.026788134
       1051.0000       287.21804       98787.830       15758.349       3.1112500       1.4740000      0.41075000       340.81600       3.5157943     0.022560480
       1056.0000       287.15027       98783.493       15640.807       2.7990000      0.95450000    -0.073250000       340.87100       2.6365949     0.010966645
       1061.0000       287.10073       98775.024       15464.451       1.7292500      0.17825000     -0.33175000       341.02700       1.8113595     0.048578146
       1066.0000       287.07297       98773.601       15349.484       2.2840000     -0.11525000      0.24725000       340.88400       1.9830942     0.017466913
       1071.0000       287.13264       98768.750       15277.992       1.7107500     -0.24925000      0.11225000       341.11300       1.9836191     0.017888234
       1077.0000       287.06934       98768.998       15158.326       3.5382500       1.0222500     -0.22575000       340.82300       1.7992958     0.075045781
       1082.0000       286.96248       98780.873       15053.533       3.8772500      0.95675000    -0.043250000       340.72600       2.0712867     0.016012562
       1087.0000       286.90299       98783.105       14987.532       2.8325000      0.99175010     -0.11150000       340.80900       1.9034376     0.037869245
       1092.0000       286.78198       98780.360       14907.840       3.0997500      0.74625000     0.011000000       340.99600       2.0484199     0.018387209
       1097.0000       286.76759       98780.407       14897.646       4.1157500      0.35450000     -0.14650000       340.66400       1.9257819     0.022011147
       1102.0000       286.84632       98780.297       14958.593       4.0710000     -0.90325000     0.089500000       340.83500       1.9401396     0.025624160
       1107.0000       286.86664       98780.343       14979.886       3.5472500      0.50975000     -0.26075000       340.76900       1.9870555     0.014981775
       1112.0000       286.90339       98779.384       15023.239       4.8152500      0.15175000     -0.27500000       340.64200       4.1942236     0.018524618
       1117.0000       286.91487       98781.264       15040.663       3.1177500      0.18975000     -0.29900000       340.66400       3.5645223     0.020205736
       1122.0000       286.89138       98783.110       15021.706       3.1797500    -0.053750000     0.094000000       340.81500       1.9971901     0.040829253
       1127.0000       286.91019       98788.792       15059.853       2.9920000       1.1225000     0.014000000       340.76200       1.7503390     0.051085085
       1132.0000       286.93599       98799.637       15118.399       2.9862500       2.3662500     -0.31225000       340.79000       2.1111056     0.016350337
       1137.0000       286.97519       98804.767       15172.087       2.3615000      0.23475000    -0.020000000       341.03700       2.0182639     0.016753445
       1142.0000       287.04868       98810.751       15264.509       1.8592500     0.075500000     -0.35600000       341.03000       2.1576873     0.014339466
       1147.0000       287.08000       98813.009       15308.068       3.1135000    -0.073000010     0.074250010       340.93800       2.1076762     0.015827155
       1152.0000       287.12099       98810.164       15341.312       2.4820000      0.94600000     -0.22875000       341.10900       1.9477089     0.020157846
       1157.0000       287.09488       98810.151       15325.916       2.7742500      0.77550010      0.15225000       340.65500       1.9766309     0.026107098
       1162.0000       286.99049       98810.386       15261.766       3.4177500      0.62950000     -0.23550000       340.92800       2.0271706     0.017657050
       1168.0000       286.99004       98810.334       15226.266       2.9252500      0.98425010     -0.45200000       340.67900       2.2215782     0.016896811
       1173.0000       286.98756       98810.358       15188.046       2.9582500     0.076750000     -0.30850000       340.71500       2.0352789     0.023781218
       1178.0000       287.00972       98810.368       15156.193       2.5357500     -0.88375000      0.62775000       340.80300       2.0024836     0.029381025
       1183.0000       287.11259       98809.613       15155.827       2.1022500      0.36825000     -0.66150000       340.82100       1.9976006     0.015451485
       1188.0000       287.12988       98811.737       15127.647       1.9232500      0.81300000     -0.13400000       341.06900       2.0186134     0.014840800
       1193.0000       287.09406       98815.878       15055.795       3.4262500       1.5872500     -0.25125000       340.55400       1.9781209     0.019552190
       1198.0000       287.13058       98814.230       15119.009       3.5815000      0.95975010     0.015500000       340.97200       1.9191939     0.025190272
       1203.0000       287.15095       98815.223       15155.075       3.9345000       1.7112500     -0.16000000       340.58300       1.8965397     0.019728975
       1208.0000       287.18505       98814.892       15218.118       3.2887500       1.7195000     -0.45725000       340.81600       1.8573744     0.032654892
       1213.0000       287.20597       98814.812       15278.560       3.0022500      0.53450000     -0.37100000       340.55000       1.8525753     0.020392286
       1218.0000       287.21455       98815.968       15330.594       2.8042500       1.3122500     -0.54450010       340.79400       1.8638233     0.033043530
       1223.0000       287.19314       98820.805       15346.025       4.4505000       1.6642500     -0.44025000       340.58800       2.0796492     0.023066260
       1228.0000       287.21457       98821.634       15415.650       3.3945000      0.67975000     0.068250000       340.88500       2.0493673     0.014865785
       1233.0000       287.24997       98820.483       15526.259       2.5985000      0.21325000     -0.15150000       340.93500       2.1201788     0.017229098
       1238.0000       287.31476       98821.787       15607.814       2.2162500     0.045250000      0.19150000       340.92300       1.9192779     0.030252965
       1243.0000       287.31894       98820.898       15626.953       3.7742500       1.4900000     0.088250000       340.50600       1.9772386     0.021093356
       1248.0000       287.23928       98817.089       15546.932       4.3122500      0.67450000     -0.63625000       340.49900       1.8538146     0.027938543
       1254.0000       287.19167       98814.626       15484.587       3.7462500      0.58925000   -0.0055000000       340.62400       1.8937841     0.034771295
       1259.0000       287.11924       98814.095       15415.021       3.5490000      0.56625000     -0.11975000       340.66400       1.9349345     0.023661636
       1264.0000       287.08173       98809.967       15335.335       2.5050000      0.45950000      0.21575000       340.81200       1.7942261     0.051523030
       1269.0000       287.10029       98803.599       15252.666       2.6042500    -0.053000000     0.032750000       340.72600       2.1114168     0.011604273
       1274.0000       287.10041       98799.557       15181.939       3.9005000      0.45050000     -0.15200000       340.61800       1.9298800     0.024443396
       1279.0000       287.11391       98792.296       15080.723       2.8037500      0.45775000      0.38975000       340.85900       1.9321156     0.041673676
       1284.0000       287.10252       98788.480       15014.900       3.5035000     -0.54300000    0.0065000000       340.75300       2.4891711     0.017439707
       1289.0000       287.07948       98790.210       14974.552       3.2380000     -0.34475000    -0.053500000       340.65600       3.4973161     0.027053212
       1294.0000       287.04819       98790.188       14958.082       2.5780000     0.037500000      0.36950000       340.96200       5.6735696     0.030173580
       1299.0000       286.98947       98790.336       14990.775       3.2170000      0.79050000       1.0237500       341.04900       3.2798035     0.041581606
       1304.0000       286.93967       98790.319       14988.491       3.5245000     -0.86800000     -0.13300000       340.64300       6.0372800     0.029960149
       1309.0000       286.86163       98791.792       14985.564       3.6852500      -1.0317500    -0.072750000       340.86800       4.8475966     0.017015899
       1314.0000       286.83444       98790.642       14989.937       3.8380000      -1.4720000     -0.31425000       340.74700       4.0589712     0.013549911
       1319.0000       286.84409       98786.925       14980.735       1.9510000      0.22975000      0.25500000       341.05400       5.6832688     0.041894494
       1324.0000       286.84542       98784.986       14968.145       4.0812500      -1.5482500     -0.32725000       340.66200       4.7314802     0.018568569
       1329.0000       286.87684       98781.291       14976.774       3.1487500      -1.3517500      0.56300000       340.58400       4.3707062     0.073399586
       1334.0000       286.90704       98779.400       14967.918       3.0620000     -0.39250000     0.068750000       340.65200       9.1206626     0.024341730
       1339.0000       286.92027       98778.761       14911.933       2.6510000     -0.53700000     -0.27800000       340.76800       8.9259964     0.055564855
       1345.0000       286.95908       98780.212       14896.094       3.7202500     -0.60550000     -0.41175000       340.44900       2.9587572     0.016632015
       1350.0000       287.03317       98785.363       14891.419       2.9087500     -0.47350000     -0.36200000       340.49900       5.2131222     0.035079078
       1355.0000       287.06944       98785.966       14914.186       3.4942500     -0.45575000      0.13750000       340.68300       4.9794876     0.031653328
       1360.0000       287.10845       98786.097       14985.318       3.0602500     -0.95525000     0.038750000       340.79000       4.7812673     0.019631390
       1365.0000       287.11079       98785.727       15029.739       3.3770000      0.14000000    -0.040750000       340.56500       7.6265898     0.033682206
       1370.0000       287.04940       98780.927       15089.432       2.5360000      -1.2947500    0.0082500000       340.73600       5.5059598     0.030453899
       1375.0000       287.04328       98779.339       15123.807       1.6825000     -0.81075010      0.47600000       341.03700       4.3225906     0.034340964
       1380.0000       287.03099       98780.266       15131.922       2.3665000     -0.34050000    -0.023750000       340.69700       5.4568559     0.027989726
       1385.0000       287.04831       98780.226       15145.922       3.0285000     -0.72250000      0.46775000       340.80100       2.7217697     0.017780504
       1390.0000       287.13339       98778.875       15148.061       3.2215000      -1.1652500     -0.12600000       340.40400       4.4672042     0.035560335
       1395.0000       287.16944       98780.196       15158.418       2.1175000      -1.2935000      0.49750000       340.89000       4.0762469     0.020389593
       1400.0000       287.19558       98783.984       15174.470       3.5945000     -0.21850000     0.082500000       340.78100       5.8147299     0.027055426
       1405.0000       287.21177       98785.962       15183.620       3.1745000     -0.78475000     -0.55775000       340.76500       6.2165640     0.023406787
       1410.0000       287.20001       98789.640       15191.039       4.4880000     -0.67725000     0.046250000       340.48400       3.2063197     0.020186188
       1415.0000       287.20006       98791.240       15198.631       2.5457500     -0.13875000     0.023000000       340.44800       2.9396996     0.025046865
       1420.0000       287.18720       98790.275       15184.213       2.5452500      0.17000000      0.33350000       340.62500       13.000638     0.043451914
       1425.0000       287.20092       98790.297       15205.883       2.1885000      0.10050000     -0.42275000       340.73100       7.1098424     0.042561970
       1430.0000       287.25129       98787.622       15275.535       2.1872500   -0.0090000010     -0.14175000       341.01100       5.3386232     0.022239141
       1436.0000       287.25713       98791.161       15291.834       1.9922500     0.046000000      0.24475000       340.56200       4.3167132     0.035025408
       1441.0000       287.25763       98800.690       15293.476       2.3030000    -0.073750000      0.25575000       340.81300       2.8008109     0.038184530
       1446.0000       287.25174       98801.386       15302.801       2.7380000      0.10650000      0.11125000       340.79200       2.9008884     0.019410748
       1451.0000       287.17731       98799.585       15263.911       2.6547500     -0.52400000     -0.27800000       340.65200       3.3579554     0.025774367
       1456.0000       287.19646       98801.587       15274.387       2.7985000      -1.7900000      0.57575010       341.00700       2.8025283     0.017083698
       1461.0000       287.26253       98799.040       15331.450       2.8817500      0.10050000    0.0057500000       340.85300       1.9558263     0.028759552
       1466.0000       287.33575       98800.335       15365.584       2.9425000      0.82175000     0.016750000       340.85000       2.1623202     0.019118290
       1471.0000       287.51818       98808.958       15406.055       3.4250000       1.7220000     -0.17300000       340.92400       2.1422646     0.018083963
       1476.0000       287.53802       98813.333       15425.642       2.6687500       1.3020000     -0.53800000       341.05900       2.7562666     0.015760739
       1481.0000       287.46113       98814.516       15425.749       2.8155000       1.6910000      0.28150000       341.30300       1.9389246     0.033569817
       1486.0000       287.44495       98816.516       15445.080       2.7770000       1.0590000    -0.066750000       340.87300       1.9588473     0.023017831
       1491.0000       287.35504       98821.445       15468.282       3.6767500       1.7860000     -0.15975000       340.54900       2.0096594     0.020719365
       1496.0000       287.31815       98821.156       15471.861       2.2685000       1.1585000      0.60950010       341.36300       1.7738681     0.042051449
       1501.0000       287.35692       98816.008       15497.951       3.4892500      0.95950010     -0.35700000       340.97200       1.8799131     0.027177239
       1506.0000       287.35070       98813.977       15471.390       4.1210000       1.1695000     -0.92225000       340.82300       2.0064435     0.029003309
       1511.0000       287.28950       98809.092       15394.343       3.7875000       2.6092500      0.39475000       340.64900       2.1041998     0.019345355
       1516.0000       287.29201       98809.285       15333.015       3.1762500       1.3430000      0.31325000       340.96600       2.0763654     0.019126231
       1521.0000       287.33098       98815.723       15219.770       4.2055000     -0.43425000    -0.035250000       340.36900       1.8862687     0.040425549
       1527.0000       287.37559       98816.048       15192.642       3.5337500     -0.36575000      0.31025000       341.14500       1.9375431     0.023503249
       1532.0000       287.46638       98815.766       15222.183       2.5155000     -0.21725000      0.20525000       340.74900       2.0888620     0.019722205
       1537.0000       287.46036       98814.821       15211.882       2.9725000     -0.59625010     -0.20375000       340.83100       2.3792141     0.041669503
       1542.0000       287.39331       98808.978       15238.324       2.9125000     -0.61225000     0.088000010       340.76400       1.9993805     0.029815957
       1547.0000       287.40161       98809.737       15235.308       2.8447500      0.49725000     0.043750000       341.20400       3.0507011     0.020161058
       1552.0000       287.36943       98814.969       15158.648       3.2565000     -0.67400000     0.084000010       340.99900       2.1098747     0.031134224
       1557.0000       287.42452       98817.030       15208.197       2.7845000     -0.53925000      0.52150010       341.03200       1.8511611     0.035695944
       1562.0000       287.59990       98820.592       15320.844       3.7880000     0.025250000      0.38800000       341.32800       1.9743914     0.016227571
       1567.0000       287.66282       98821.735       15436.374       3.3192500     -0.65650000     -0.22300000       340.71900       1.9050553     0.029186241
       1572.0000       287.73272       98821.212       15654.547       1.7067500      -1.0505000      0.21400000       341.20900       1.7493717     0.029137854
       1577.0000       287.69915       98819.389       15722.221       2.7162500     -0.81475000     -0.42225000       341.07900       4.4986223     0.022384075
       1582.0000       287.56461       98816.036       15750.268       3.3105000     -0.30750000      0.58225000       340.67400       4.7818397     0.020209486
       1587.0000       287.50412       98814.106       15733.445       3.0000000      -1.6930000     -0.36225000       340.90300       8.7520707     0.024939303
       1592.0000       287.39217       98809.045       15625.882       3.0650000      -1.2822500    -0.038750000       340.97800       2.8248246     0.019630227
       1597.0000       287.35833       98809.783       15546.682       3.4142500     -0.50350000    -0.018500000       340.38800       6.4447583     0.022625123
       1602.0000       287.40037       98814.813       15460.513       3.9072500     -0.99600010     0.047000000       341.06800       7.8505909     0.018312976
       1607.0000       287.40067       98816.782       15355.470       3.6030000     -0.87225000     -0.21775000       340.69600       8.0199786     0.030281030
       1612.0000       287.40002       98820.761       15212.733       2.6135000      -1.4532500      0.12425000       341.11900       5.4160158     0.045357966
       1618.0000       287.38509       98820.337       15052.199       2.6875000     -0.30350000     -0.24800000       340.90300       8.9088167     0.049590014
       1623.0000       287.39368       98820.337       14973.885       2.3735000      0.31850000      0.30825000       341.65000       5.5311290     0.025072654
       1628.0000       287.41456       98820.337       14934.640       2.3702500     0.053250000     0.045000000       341.28000       4.7613561     0.032858058
       1633.0000       287.43590       98820.462       14933.035       2.2200000      0.47200000      0.12350000       341.20900       4.6317312     0.018285821
       1638.0000       287.49920       98820.512       14953.161       2.5075000      0.87750010     0.064500000       341.01000       2.4043227     0.034734103
       1643.0000       287.60569       98820.285       15020.979       2.6232500      0.21650000      0.54250000       341.04700       1.8239777     0.040388649
       1648.0000       287.66980       98820.158       15057.934       2.2702500      0.19225000     -0.10550000       341.67700       1.9676237     0.037267069
       1653.0000       287.71288       98820.098       15152.111       2.6492500     -0.89150010     -0.54875000       341.57600       1.9424153     0.025636981
       1658.0000       287.70025       98820.366       15355.176       3.0205000     0.049250000      0.11025000       341.47300       2.1409278     0.015238973
       1663.0000       287.70039       98820.401       15482.129       3.9975000      0.93950000     0.086000000       341.54800       3.5189219     0.016205933
       1668.0000       287.70058       98820.450       15592.151       3.2170000     -0.68725000     -0.11425000       341.55200       2.2671203     0.011552949
       1673.0000       287.71263       98820.254       15749.829       1.9635000      -1.0947500       1.1740000       341.54800       2.6057672     0.038100638
       1678.0000       287.66935       98820.294       15736.065       2.7055000      -1.5362500      0.79125010       341.15800       4.8033979     0.020061203
       1683.0000       287.59972       98820.472       15605.912       1.7607500       1.0017500    -0.062500000       341.21900       3.4018769     0.025539068
       1688.0000       287.51466       98820.274       15474.843       2.8310000      0.12125000      0.36000000       341.09400       2.4161482     0.029736867
       1693.0000       287.48023       98820.274       15378.476       2.7417500      0.30050000      0.25525000       341.15200       3.2047251     0.029591242
       1698.0000       287.51555       98820.366       15313.618       3.7050000    -0.014000000     -0.99425010       341.69000       1.9584052     0.018428645
       1703.0000       287.54424       98820.401       15256.145       4.2627500      0.33325000      0.13275000       341.38200       2.0044670     0.016033164
       1709.0000       287.63865       98820.337       15186.023       2.8140000      0.23175000     0.047750000       341.29000       1.7890453     0.026873110
       1714.0000       287.66610       98820.337       15158.006       2.3465000     -0.87675010      0.11300000       341.93900       1.8754215     0.028332709
       1719.0000       287.65745       98820.433       15164.011       2.8612500     0.095500010      0.49600000       341.34400       2.0818319     0.019945616
       1724.0000       287.65623       98820.471       15168.732       4.4060000      -1.4602500     -0.13825000       340.78400       4.8419010     0.027029333
       1729.0000       287.58265       98820.274       15183.412       4.4452500     0.068000000    -0.082250010       340.72200       3.2358815     0.041303482
       1734.0000       287.58657       98820.290       15219.551       3.3080000    -0.022000000      0.19500000       341.19500       3.9838587     0.019377693
       1739.0000       287.71183       98820.146       15307.056       3.3612500     -0.50525000     -0.31700000       341.35400       5.2282040     0.034906855
       1744.0000       287.71925       98820.087       15333.243       3.0657500     -0.59750000     -0.11850000       341.03400       7.0005909     0.045639618
       1749.0000       287.66424       98820.371       15321.657       1.7917500      -1.9602500      0.38275000       341.86500       2.4692769     0.027882393
       1754.0000       287.65307       98820.410       15342.063       4.6465000     -0.78450010      0.28400000       340.78000       2.0819768     0.045135946
       1759.0000       287.56197       98820.175       15338.564       3.3372500      -1.9892500     -0.37275000       341.65300       5.7598637     0.042222744
       1764.0000       287.52617       98820.115       15333.337       3.9377500      -1.8777500     -0.38300000       341.07300       5.8697592     0.021194943
       1769.0000       287.61755       98821.642       15382.436       2.7205000     0.078500000      0.25050000       341.58300       4.4312531     0.025563901
       1774.0000       287.61332       98820.507       15382.820       4.4195000     -0.93075010     -0.70175000       341.46000       5.9016567     0.016612319
       1779.0000       287.53068       98815.419       15329.972       2.6860000     -0.89100000      0.56150000       342.02400       3.2606830     0.033232726
       1784.0000       287.49043       98814.529       15282.151       4.1395000      -2.0362500     -0.13750000       341.17800       4.3029697     0.019043983
       1789.0000       287.39068       98814.773       15212.852       3.9122500      -1.5487500     -0.49775000       340.75900       6.9020210     0.023406105
       1795.0000       287.37947       98815.134       15149.682       3.9740000      -1.2005000      0.14575000       340.91200       9.5232527     0.019665372
       1800.0000       287.48891       98819.910       15106.554       4.7102500      -2.1597500     -0.28225000       340.64700       5.7681853     0.043091561
       1805.0000       287.51495       98821.602       15044.286       2.9062500     -0.89850000      0.82200000       341.01300       6.5409547     0.019616824
       1810.0000       287.55311       98820.163       14962.172       3.0755000      0.27175000     0.061000000       341.05000       3.9051223     0.037194358
       1815.0000       287.56546       98820.104       14915.212       2.9332500      0.33150000     -0.38900000       340.69000       3.7514012     0.022692123
       1820.0000       287.50522       98820.234       14850.316       4.0192500      0.21875000     -0.48450000       340.67900       3.7206486     0.024346395
       1825.0000       287.48859       98820.194       14835.301       4.2057500     -0.53925000     -0.62750010       340.95300       6.2370039     0.018649280
       1830.0000       287.47401       98820.165       14842.356       3.2172500     -0.56700000     -0.74750010       341.08700       6.4386825     0.044327939
       1835.0000       287.50121       98820.106       14916.636       2.8382500      0.29775000      0.40500000       341.51900       3.8064000     0.014564343
       1840.0000       287.58881       98820.295       15095.545       5.3507500      0.30250000     0.099250000       340.73200       3.3094360     0.017403413
       1845.0000       287.61467       98820.254       15190.030       4.5185000      0.96500000      0.67250000       341.01300       5.5278094     0.018870516
       1850.0000       287.63964       98820.163       15338.316       4.2895000     0.083500010      0.19100000       341.01200       5.4274639     0.036152551
       1855.0000       287.66566       98820.104       15399.309       4.4187500     -0.19275000     -0.42350000       341.03400       2.3916448     0.024694135
       1860.0000       287.61790       98820.234       15330.240       3.5212500     0.036000000     -0.63600000       341.25100       2.0131716     0.060304416
       1865.0000       287.64948       98820.193       15334.504       5.5835000     -0.61500000    -0.053750000       340.67200       2.0025886     0.012260751
       1870.0000       287.74707       98820.165       15339.977       6.2922500     -0.56000000      0.29900000       340.80700       4.5357920     0.028191171
       1875.0000       287.83100       98820.105       15360.553       4.8620000      0.40300000     -0.15725000       340.86400       5.0893937     0.019400978
       1880.0000       287.99281       98820.295       15433.839       4.6880000      0.17275000      0.24100000       340.70200       2.4951248     0.016917063
       1886.0000       288.03985       98820.244       15452.294       4.0165000      0.44825000    0.0060000000       340.32800       2.6899507     0.016752843
       1891.0000       287.96921       98820.385       15424.496       2.6612500      0.53725000      0.23625000       340.84000       7.0875786     0.046693298
       1896.0000       288.02104       98820.429       15444.891       3.6062500     -0.96225010     -0.72800000       340.56300       3.5162306     0.014030429
       1901.0000       288.11265       98825.075       15444.775       1.6417500      -1.0027500      0.57525000       341.60100       3.0874490     0.057116419
       1906.0000       288.10010       98818.513       15490.291       4.3210000      0.69200000     -0.97175000       340.70800       3.1412147     0.015388773
       1911.0000       288.14926       98799.964       15638.798       3.0682500      0.25425000      -1.0755000       340.94000       1.8947474     0.038964213
       1916.0000       288.09197       98796.731       15656.492       4.4915000     -0.47675000      0.14275000       340.49400       2.4656508     0.027779304
       1921.0000       287.81733       98793.179       15623.163       3.1762500      0.29125000      0.22925000       341.64700       3.8466748     0.018921659
       1926.0000       287.72169       98793.631       15583.625       4.7132500      0.39900000     -0.47100000       341.12800       5.9770215     0.024137917
       1931.0000       287.69019       98813.415       15466.984       5.0135000      -2.0505000      0.45500000       341.03000       6.6629367     0.034315692
       1936.0000       287.67899       98812.659       15393.469       4.0190000      0.41300000      0.15025000       341.15700       5.4052942     0.027848135
       1941.0000       287.74165       98796.923       15336.066       5.8002500     -0.52225000     -0.24425000       340.61200       2.1167095     0.016233786
       1946.0000       287.76201       98792.590       15276.394       5.1482500      0.11425000    -0.096250010       340.63900       3.0845550     0.037732292
       1951.0000       287.79931       98785.969       15199.827       5.5905000      0.66625010      0.22625000       340.78300       4.3377660     0.018347086
       1956.0000       287.81329       98782.203       15157.925       5.0217500     -0.43850000     -0.34400000       341.19500       2.6754760     0.011367764
       1961.0000       287.78932       98784.826       15120.198       5.0940000       1.3182500     -0.19825000       340.50200       2.2832460     0.020140805
       1966.0000       287.80564       98785.817       15131.935       3.4182500      0.94275000      0.53475000       341.36100       2.2093732     0.024133722
       1971.0000       287.84213       98785.623       15193.681       3.3207500      0.12150000      0.34075000       341.39800       2.0469232     0.016046894
       1977.0000       287.86588       98784.414       15242.566       3.8770000       2.6065000     -0.85225000       340.84900       1.8785692     0.025421304
       1982.0000       287.90266       98786.058       15310.456       2.9067500       1.2207500     -0.40175000       341.22600       2.0365591     0.016960377
       1987.0000       287.91387       98785.172       15372.578       3.7712500       2.1810000     -0.14225000       341.35100       1.8946385     0.022539432
       1992.0000       287.90019       98780.018       15426.724       2.1642500      0.37300000      0.75550000       341.41800       1.8855827     0.019529751
       1997.0000       287.90013       98778.883       15478.007       4.0530000      0.56900000     -0.38925000       340.98300       2.1411080     0.017384393
       2002.0000       287.90920       98780.391       15567.208       2.7440000      0.78725000      0.26200000       341.23500       1.7463764     0.018925687
       2007.0000       287.89070       98780.437       15572.280       2.8242500     0.091000010    -0.055750000       341.10700       1.9961910     0.021340865
       2012.0000       287.87155       98780.252       15533.535       2.2555000     -0.73400000     -0.20075000       341.03100       2.0141163     0.013751023
       2017.0000       287.81433       98780.206       15477.635       1.9557500     -0.19025000      0.37425000       341.25800       1.7908516     0.029351804
       2022.0000       287.72265       98780.274       15383.312       2.0787500      -1.2937500    -0.035000000       341.22700       4.1803264     0.020633776
       2027.0000       287.63451       98780.274       15268.564       3.9667500      -1.3442500     -0.32550000       341.06300       3.8333871     0.016935513
       2032.0000       287.48434       98779.158       15105.389       3.8390000     -0.53050010     -0.10375000       340.77900       7.3741599     0.024370357
       2037.0000       287.45968       98781.016       15006.442       3.6425000     -0.22800000      0.27000000       340.78300       4.7090624     0.019047301
       2042.0000       287.48702       98780.759       14893.189       4.1712500      -1.7022500     -0.35850000       340.99100       3.7474608     0.020458494
       2047.0000       287.50470       98792.350       14829.065       2.6712500      -3.0172500      0.13850000       340.71900       4.3744949     0.035242942
       2052.0000       287.61558       98816.658       14827.204       3.3780000      -2.4480000     -0.77225010       341.16800       5.3074626     0.070409529
       2057.0000       287.61943       98822.196       14796.844       3.5217500      -2.3472500      0.37225000       341.26800       5.4014159     0.028469460
       2062.0000       287.55351       98829.954       14757.326       3.9622500      -1.4972500    0.0080000000       341.22100       6.4385616     0.024597805
       2068.0000       287.49996       98808.618       14739.318       2.0872500      -1.3405000      0.86300000       341.21000       6.0542636     0.018660620
       2073.0000       287.48736       98798.228       14763.291       4.5450000      -3.2232500     -0.46325000       340.89700       4.3261969     0.018203173
       2078.0000       287.49929       98791.503       14818.898       4.2120000      -1.5750000     -0.10675000       341.03700       4.7160606     0.020828483
       2083.0000       287.54901       98787.644       14918.611       4.3917500      -1.1865000     -0.14150000       340.48600       7.0159121     0.022514151
       2088.0000       287.56926       98790.222       14994.025       3.0100000      -1.5532500      0.44550000       340.78100       6.8090031     0.050658140
       2093.0000       287.61830       98799.707       15116.914       2.9307500      -1.6330000     -0.29550000       340.88200       3.4579657     0.016443550
       2098.0000       287.53915       98810.433       15079.440       2.0297500      0.15325000      0.63800000       341.15100       5.9361898     0.040293982
       2103.0000       287.49861       98816.829       15059.740       2.5562500      -1.0915000     -0.12500000       341.18500       4.2059527     0.015834146
       2108.0000       287.42936       98818.826       14977.386       1.6660000     -0.45875000      0.94100000       341.50400       2.5732785     0.015818825
       2113.0000       287.38726       98820.956       14918.200       2.2110000   -0.0087500000      0.17150000       341.37300       3.5353308     0.016793658
       2118.0000       287.36980       98821.865       14873.104       4.0140000     -0.36050000      0.18650000       340.88400       2.9765239     0.013110367
       2123.0000       287.39350       98820.433       14862.177       4.9577500     -0.42150000     0.053000000       340.91400       3.2247395     0.017331464
       2128.0000       287.41505       98820.531       14817.822       2.9797500     -0.75625000      0.54000000       341.27500       6.0344618     0.014932662
       2133.0000       287.45616       98820.483       14762.039       3.3665000      0.23700000      0.29375000       341.21500       4.1657265     0.025803386
       2138.0000       287.43962       98820.157       14675.744       3.1367500      0.23025000      0.72225000       341.23800       4.1303033     0.016435818
       2143.0000       287.44945       98820.098       14650.760       3.5512500      -1.0527500      0.59950000       341.37800       3.2588241     0.013304366
       2148.0000       287.46006       98817.227       14693.015       3.4332500      -1.3102500     -0.21250000       340.78500       2.4625277     0.017735599
       2153.0000       287.45011       98818.983       14707.688       4.1612500      -3.3925000      -1.2727500       340.74500       3.3885251     0.024258608
       2159.0000       287.44224       98826.976       14749.281       3.1350000      -1.0520000    -0.010750000       341.00900       3.2628831     0.014420743
       2164.0000       287.45231       98830.925       14795.512       3.8050000      -2.2055000     0.069250000       340.77500       5.1477464     0.022272811
       2169.0000       287.42855       98838.265       14808.295       2.8377500     -0.62475000      0.18675000       341.05200       3.6952356     0.018359372
       2174.0000       287.44133       98841.965       14859.221       3.0592500      -1.2995000      0.38425000       340.98600       5.3255041     0.040557739
       2179.0000       287.53793       98843.016       15000.536       4.3695000     -0.29550000      0.22225000       340.44500       5.0289759     0.016089280
       2184.0000       287.56583       98840.728       15060.476       3.7027500     -0.45675000      0.24850000       340.67800       3.7846500     0.028097818
       2189.0000       287.56994       98833.283       15104.560       4.5937500     -0.36425000    -0.054000000       340.68600       3.5081409     0.024638081
       2194.0000       287.55776       98829.204       15107.200       3.3570000      -1.4347500      0.40525000       340.56300       2.9122841     0.019256746
       2199.0000       287.46137       98822.221       15011.392       3.1857500     -0.90175000      0.28750000       340.84400       6.1412024     0.021545323
       2204.0000       287.43412       98818.487       14962.966       2.3285000   -0.0042500000     -0.11375000       340.94400       3.9774735     0.022756390
       2209.0000       287.41378       98820.433       14893.281       4.0070000     -0.88800010     -0.40225000       340.30800       4.8212614     0.020413636
       2214.0000       287.43812       98820.472       14864.993       3.0057500      -1.0777500      0.76100000       340.51100       8.1710993     0.021256707
       2219.0000       287.57201       98821.705       14887.472       4.0440000      -2.1625000     -0.22825000       340.81700       3.0064327     0.033904921
       2224.0000       287.61961       98820.570       14890.613       3.7357500      -1.5347500     -0.96250000       340.93400       7.2557993     0.024584635
       2229.0000       287.67458       98816.665       14909.890       2.5020000     -0.77350000     -0.16300000       340.82100       4.4018060     0.031535668
       2234.0000       287.67009       98814.586       14920.167       3.5025000     -0.75175010     -0.53425000       340.92000       2.3132411     0.037824794
       2239.0000       287.52682       98814.077       14909.852       3.2572500      -1.2122500     0.013500000       340.68000       4.1364515     0.027475561
       2244.0000       287.48012       98810.006       14913.376       4.1982500     -0.67675000     0.026500000       340.70400       8.2433929     0.028001888
       2250.0000       287.44803       98802.784       14926.373       2.1007500     -0.95875010       1.0027500       341.24000       2.3326761     0.018337294
       2255.0000       287.43534       98798.832       14938.680       2.6180000      -2.5287500     -0.13275000       340.83800       5.9897734     0.034050682
       2260.0000       287.49566       98792.668       14965.610       3.6980000     -0.10825000      0.21750000       340.88500       4.0709131     0.020650356
       2265.0000       287.51212       98788.057       14975.954       3.3127500      -3.0027500      0.75775000       340.62800       5.8513193     0.025823720
       2270.0000       287.48709       98786.503       14965.496       4.4050000      -1.4857500     -0.36650000       340.59400       5.8030055     0.016350919
       2275.0000       287.50076       98784.510       14981.440       3.5825000     -0.47775000     -0.12025000       340.87200       2.7400964     0.014057592
       2280.0000       287.53858       98779.510       15013.813       3.4812500     -0.77125000     0.057000000       340.77700       2.7065615     0.028044478
       2285.0000       287.55875       98779.236       15026.295       3.7347500    -0.036000000     -0.21475000       340.78100       2.5384366     0.015986895
       2290.0000       287.60780       98785.548       15062.892       3.1300000     -0.50425000    -0.034500000       341.02300       6.0556358     0.018012004
       2295.0000       287.61007       98786.200       15058.215       1.9795000     -0.44400000      0.27950000       341.32300       6.5351473     0.022965268
       2300.0000       287.56304       98784.977       14999.272       3.8347500      -2.5645000      0.11450000       340.67000       5.8976836     0.032779944
       2305.0000       287.54299       98786.085       14973.875       4.4002500     -0.43150000     -0.36100000       340.48500       6.0571845     0.018692673
       2310.0000       287.50516       98784.547       14945.086       4.2360000     -0.62425010     -0.55950000       340.45500       4.4122293     0.023935165
       2315.0000       287.48872       98784.884       14924.165       3.3150000     -0.38175000      0.21250000       340.73200       7.0978426     0.019297228
       2320.0000       287.50006       98789.761       14937.038       4.8275000      -1.1165000      0.14675000       340.51900       5.7879234     0.028341855
       2325.0000       287.50011       98791.380       14913.659       3.4820000     -0.80925010      0.84875010       340.91500       6.4853336     0.035762572
       2330.0000       287.50016       98790.345       14856.799       3.8585000      0.24700000     -0.24475000       340.58900       6.4461346     0.023210609
       2336.0000       287.50036       98790.365       14822.533       2.6447500     -0.33075000     0.066250000       340.76900       3.9455612     0.029641919
       2341.0000       287.48850       98787.935       14773.485       2.8257500     -0.96350000      0.40600000       340.77800       4.6656072     0.017115298
       2346.0000       287.50429       98791.091       14769.202       2.8905000     -0.18625000     -0.37150000       341.26500       6.5967144     0.021121707
       2351.0000       287.51838       98798.774       14794.956       2.7055000    -0.052000000      0.32950000       340.92000       8.3000159     0.037465153
       2356.0000       287.57159       98802.903       14837.061       2.8725000      0.21900000      0.74275000       341.11800       2.9796878     0.024272884
       2361.0000       287.68272       98808.857       14912.085       2.1300000      0.12900000      0.19450000       341.11800       2.3280422     0.017635851
       2366.0000       287.73690       98813.266       14974.937       2.0232500      0.43300000      0.53375000       341.18800       1.8340102     0.020186171
       2371.0000       287.78722       98814.402       15029.648       2.3375000      0.88250010     -0.23000000       341.08400       1.9578919     0.015523697
       2376.0000       287.83110       98816.374       15134.243       2.3265000       1.2307500     -0.20975000       341.25100       1.9412386     0.017851469
       2381.0000       287.84240       98820.362       15281.647       2.7000000      0.25875000      0.60150000       341.07700       1.9120571     0.015742916
       2386.0000       287.86231       98821.803       15384.105       3.6400000     -0.12050000     -0.48350000       340.84900       1.8813175     0.027207064
       2391.0000       287.89948       98818.079       15544.645       1.7032500      0.86450000     -0.17050000       341.24600       1.9428501     0.016891863
       2396.0000       287.91309       98821.390       15599.712       2.9487500    0.0087500000     -0.36650000       341.04100       1.9718767     0.015792151
       2401.0000       287.91083       98828.597       15574.893       2.9092500      0.31400000     -0.35725000       340.77100       1.9458400     0.018071751
       2406.0000       287.89432       98832.567       15546.841       1.6997500     -0.72600000      0.95500000       341.65100       2.0207655     0.015658001
       2411.0000       287.84597       98842.333       15456.690       3.1442500    -0.075750000     -0.35525000       340.59200       1.7129431     0.038899802
       2416.0000       287.84217       98841.830       15407.355       2.2572500      0.16900000    -0.042250000       341.09600       2.0648710     0.015868246
       2421.0000       287.85417       98831.807       15368.534       1.6242500      0.60425000      0.43325000       341.55500       3.0400392     0.014703382
       2427.0000       287.84237       98826.988       15283.099       2.8565000     -0.72175000     0.044250000       341.07000       5.2768157     0.020043235
       2432.0000       287.86604       98819.825       15202.343       2.7230000     -0.88975010      0.21975000       341.11900       2.9074871     0.015771972
       2437.0000       287.83905       98817.640       15140.100       1.7810000     -0.50200000      0.32075000       341.36000       2.9550993     0.037781727
       2442.0000       287.75178       98821.290       15037.298       3.2777500      0.29275000     -0.50300000       341.14800       4.1300347     0.024730833
       2447.0000       287.72046       98819.429       15011.619       2.3307500     -0.46300000      0.10225000       340.67300       5.1446554     0.028440548
       2452.0000       287.68873       98815.878       15035.574       3.7365000     -0.30400000     0.051000000       341.21100       5.3771596     0.019866243
       2457.0000       287.69613       98813.936       15066.001       2.0067500      -1.0897500     -0.42900000       341.47500       5.5739948     0.019687598
       2462.0000       287.75564       98811.711       15151.601       1.9222500     -0.51425000    -0.064250000       341.50100       5.4169014     0.032935097
       2467.0000       287.75709       98806.842       15163.441       2.2697500     -0.19250000      0.53900000       341.52000       5.0154611     0.016271069
       2472.0000       287.74836       98801.229       15148.091       4.5027500       1.5137500     -0.37500000       340.54900       2.9978165     0.019768313
       2477.0000       287.75850       98797.318       15172.110       2.7490000     -0.84400000      0.49175000       341.43300       3.7446596     0.032246620
       2482.0000       287.74290       98790.636       15164.452       2.7802500     -0.65950000      0.17150000       341.06900       5.8862067     0.053294037
       2487.0000       287.75234       98786.534       15199.776       4.4997500     -0.57775000     -0.27700000       340.73900       3.3631585     0.014286919
       2492.0000       287.82839       98785.618       15328.222       3.9017500      -1.1680000      0.20400000       341.19100       3.8691872     0.016068901
       2497.0000       287.78274       98783.603       15307.835       2.6957500      -1.1385000      0.29475000       341.07300       4.1082442     0.015117141
       2502.0000       287.65937       98779.031       15219.766       5.7875000     0.071000000     -0.27425000       340.85600       5.9131598     0.024746664
       2507.0000       287.59941       98779.788       15145.398       4.3120000   -0.0067500000     -0.48650000       340.74000       9.1764298     0.040877575
       2512.0000       287.49079       98784.867       14998.590       4.2825000      -1.1897500    -0.091000010       340.65500       6.4105169     0.016866148
       2518.0000       287.50011       98785.930       14910.853       2.5937500     -0.49950000      0.30425000       341.29700       4.4237811     0.021038117
       2523.0000       287.50025       98789.846       14834.504       2.1147500      -1.8650000     -0.31125000       341.17400       6.7076790     0.026940935
       2528.0000       287.50044       98795.012       14755.940       2.9360000      -1.3332500      0.40000000       340.74300       5.9233392     0.022712470
       2533.0000       287.48667       98800.114       14648.301       3.1207500     -0.75950000    -0.044250000       341.12100       4.4884626     0.016020484
       2538.0000       287.52963       98804.162       14639.557       2.8817500      -1.2760000       1.6700000       341.37200       4.3313062     0.029532270
       2543.0000       287.58765       98810.788       14651.303       3.5195000      -3.3015000     -0.16300000       340.83000       4.1846335     0.022765753
       2548.0000       287.76037       98810.249       14807.932       2.8927500     -0.15300000     -0.21625000       340.91300       3.6185071     0.025901374
       2553.0000       287.82696       98813.921       14919.258       3.9595000     -0.44250000      0.21950000       340.91100       2.8729335     0.020560104
       2558.0000       287.82469       98824.776       15063.755       3.3530000      -1.1537500      0.16600000       340.73700       3.0037818     0.018043769
       2563.0000       287.81803       98830.782       15156.399       3.5047500      -1.0792500     -0.40650000       340.73400       2.3315935     0.018560228
       2568.0000       287.77440       98835.552       15212.229       2.4032500      -1.2325000     0.051500000       341.22600       2.0667499     0.016532107
       2573.0000       287.63840       98842.935       15225.958       2.6637500      -1.1575000     -0.12675000       340.92900       1.8265423     0.020612818
       2578.0000       287.60117       98840.317       15224.531       3.5215000      0.16975000      0.37500000       340.74200       2.3087964     0.034646169
       2583.0000       287.59399       98830.375       15183.574       3.1547500      -1.5280000      0.43950000       340.54600       1.9198923     0.025561063
       2588.0000       287.61498       98823.274       15195.833       3.7347500    -0.017750000      0.83025000       341.14100       2.0349281     0.019168310
       2593.0000       287.60643       98818.986       15147.007       3.5412500     -0.94400010     -0.17375000       340.60400       1.9866027     0.017813007
       2598.0000       287.55499       98821.827       15032.661       4.4095000      0.76000010    -0.022000000       340.81200       1.8606662     0.019045715
       2603.0000       287.54410       98820.985       14955.692       3.6730000     -0.32900000     -0.26675000       340.61700       1.9455110     0.014847332
       2609.0000       287.52925       98817.038       14788.955       3.2415000     -0.38550000     0.055000000       340.77800       1.9478216     0.015698492
       2614.0000       287.54123       98815.103       14723.626       2.3767500     -0.23225000     0.068250000       341.13200       1.8392301     0.025209228
       2619.0000       287.62312       98814.312       14746.614       3.2637500     -0.83600000    -0.020500000       340.88300       1.9161538     0.013546394
       2624.0000       287.66170       98810.230       14754.831       1.9265000     -0.76875000     0.047000000       340.77200       1.9017322     0.017772299
       2629.0000       287.68947       98799.267       14789.908       3.3490000      0.47975000      0.26975000       341.13900       1.9840319     0.017261145
       2634.0000       287.70829       98798.666       14832.993       2.5887500     -0.76050000      0.32100000       341.12300       1.8430004     0.018986203
       2639.0000       287.71391       98803.896       14864.790       2.6110000      0.84250000      0.44200000       341.13500       1.9081563     0.015453746
       2644.0000       287.70284       98805.007       14935.160       2.4975000      -1.1062500      0.47475000       340.77100       1.7718107     0.024878283
       2649.0000       287.69435       98814.047       15120.669       3.7985000       1.0795000     -0.33275000       340.83900       1.9577264     0.013769251
       2654.0000       287.65198       98817.635       15170.950       2.1965000     -0.77325000      0.45050000       341.17400       1.9391191     0.014429690
       2659.0000       287.55738       98811.080       15195.480       2.7100000      -1.0730000      0.10950000       340.86000       1.9109558     0.016583781
       2664.0000       287.48710       98809.170       15159.202       4.7572500     -0.44300000    -0.021000000       340.91700       1.7887753     0.017373828
       2669.0000       287.38627       98810.209       14960.294       3.6175000     -0.75400000      0.30950000       341.07700       1.6854261     0.024253119
       2674.0000       287.32869       98810.188       14839.908       6.7390000      -1.0792500     -0.81750010       340.82900       1.8367028     0.015246947
       2679.0000       287.29545       98808.930       14726.654       5.2612500     -0.81825010    -0.071750000       340.78300       1.8364225     0.014132088
       2684.0000       287.28750       98810.045       14632.066       3.8222500      0.10850000     -0.13050000       340.60900       1.8485633     0.015133971
       2689.0000       287.32031       98813.507       14562.616       3.3925000      -1.2042500     -0.34225000       340.57400       1.7324321     0.016201465
       2694.0000       287.35157       98815.403       14505.508       3.4412500     -0.12800000      0.11275000       340.89800       1.9118473     0.023324554
       2700.0000       287.42007       98819.828       14434.527       2.7180000      0.13300000      0.12025000       340.98600       1.9219439     0.018857393
       2705.0000       287.46968       98821.438       14423.221       2.5480000     -0.49775000      0.20800000       340.82900       1.7714235     0.021465976
       2710.0000       287.53234       98821.599       14450.699       2.2800000      0.85200010      0.46875000       341.06300       1.8907388     0.031950023
       2715.0000       287.56873       98820.163       14489.159       3.1990000       1.2387500     -0.59975000       340.53300       1.9411421     0.015375728
       2720.0000       287.60742       98815.094       14586.599       3.1555000      0.38100000      0.50450000       341.03600       1.6513297     0.031471120
       2725.0000       287.61019       98814.454       14643.873       3.7422500      0.42100000     0.093000000       340.76000       1.7112422     0.023468748
       2730.0000       287.56167       98815.989       14675.573       4.4200000       1.1067500      0.11400000       340.85000       1.8845220     0.016787255
       2735.0000       287.54162       98814.979       14737.732       5.5510000    -0.058250000     -0.78600000       340.55100       1.7753068     0.021994419
       2740.0000       287.49185       98818.522       14801.053       4.3812500      -1.2870000    -0.065500010       340.68500       1.8964153     0.018147948
       2745.0000       287.48927       98815.383       14868.908       2.4877500      -1.0627500     -0.15975000       340.84900       1.7676954     0.014699356
       2750.0000       287.55032       98804.589       15011.065       2.7012500     -0.97300000      0.60325000       340.97000       1.8589325     0.029124591
       2755.0000       287.55623       98797.529       15048.309       2.8655000    -0.017500000     0.066750000       340.97600       1.8221027     0.016362449
       2760.0000       287.55666       98786.350       15025.439       3.1657500    -0.057000000     -0.42950000       341.03000       1.8906842     0.016831364
       2765.0000       287.55304       98782.500       15002.415       2.5417500     -0.49750000      0.25075000       341.03100       1.9639112     0.016920152
       2770.0000       287.49192       98784.668       14889.595       3.9452500     -0.28975000     0.030250000       340.95700       1.8778134     0.020324453
       2775.0000       287.48937       98785.064       14849.409       3.1912500      0.36600000      0.51500000       340.93400       1.7713951     0.027622827
       2780.0000       287.53825       98786.003       14852.765       2.0312500      -1.1267500      0.14850000       341.04900       1.7756940     0.016906101
       2785.0000       287.55804       98791.729       14839.228       3.3840000     -0.90875010     -0.18150000       340.77700       2.0048527     0.015199329
       2791.0000       287.61033       98802.745       14854.005       3.4100000     -0.74325000     -0.28200000       340.87000       1.8134336     0.023987431
       2796.0000       287.60798       98808.671       14837.309       2.2400000     -0.76775000     0.018500000       340.97900       1.9601378     0.016412391
       2801.0000       287.54712       98820.081       14776.638       3.2610000     -0.47225000      0.26425000       340.92000       1.7953081     0.015497082
       2806.0000       287.54326       98824.218       14773.835       2.5537500     -0.34000000     0.063250010       340.92400       1.7355891     0.018153439
       2811.0000       287.55419       98818.078       14791.295       2.3345000      -1.2705000      0.10425000       340.93900       1.8825533     0.020693549
       2816.0000       287.54406       98821.372       14803.520       1.9197500      -1.7162500    -0.085750010       340.99200       1.8583087     0.014125790
       2821.0000       287.55654       98831.106       14852.899       2.3060000     0.021500000      0.67975000       341.30400       1.8516201     0.020704789
       2826.0000       287.55038       98831.931       14875.233       2.5450000      0.32700000     0.028000000       341.02800       1.8153625     0.016135043
       2831.0000       287.50061       98831.775       14863.026       4.1402500     -0.97400000     0.083000000       340.78300       1.7677805     0.023626684
       2836.0000       287.48675       98830.511       14886.856       4.2290000      -1.4107500     -0.31575000       340.75600       1.9009283     0.015380745
       2841.0000       287.50073       98824.027       14942.146       3.8867500      0.78050010      0.86225000       341.02500       1.7952278     0.027430446
