MIRICO/SHELL project - Processed LDS file generated on
Sun Jul 23 03:32:06 2017
Time stamp for record start
05/12/2017  12:01:18.0001
Nb of points in the record
         917
Beam position index
       1.0000000
Beam angle (degrees)
      -18.455000
Open Path length (m)
       34.890000
****************** Temporal data record ************************
Elapsedtime_sec Temp_K Press_Pa Humidity_ppmv WindX_m/s WindY_m/s WindZ_m/s Speedofsound_m/s CH4vmr_ppmv CH4vmrerror_ppmv  
      0.00000000       287.81487       98869.828       14076.976       2.9142500      -2.0635000      0.22450000       341.23400       2.0564667     0.015398035
       4.9999729       287.85399       98856.539       14035.742       4.4362500      -1.5035000     0.034500000       341.15700       1.9825406     0.022072071
       9.9999860       287.84415       98850.846       13969.495       3.1767500     -0.92575000     -0.45375000       341.16200       2.1314433     0.012980930
       14.999999       287.85741       98841.350       13912.435       3.9367500     -0.10875000      0.23475000       341.13800       2.0347137     0.022833364
       19.999972       287.85135       98843.959       13857.284       3.4517500      -1.1222500       1.1640000       341.23300       2.0182032     0.016712983
       24.999985       287.78973       98862.554       13748.184       3.9265000      0.10425000     -0.55050000       341.12300       2.0512962     0.015015459
       29.999998       287.79257       98869.962       13725.514       4.0287500       1.1860000      0.28700000       341.03900       2.0038359     0.019024390
       34.999971       287.84178       98880.974       13766.915       2.8347500      -1.9207500      0.18675000       341.12500       2.0348855     0.015062290
       39.999984       287.86180       98883.480       13786.511       5.5615000      -2.4022500     -0.39725000       340.82600       2.0478457     0.016700004
       44.999997       287.91002       98874.883       13849.731       4.8207500     -0.35125000     -0.28800000       341.11200       2.0458544     0.018333767
       49.999970       287.90765       98874.506       13868.304       3.0547500      0.11700000      0.66325000       341.24100       2.0348628     0.015998348
       54.999983       287.84692       98875.814       13849.352       3.5572500    -0.089000000     -0.64350000       341.04200       2.0781416     0.022260150
       59.999996       287.84313       98874.837       13864.593       4.6267500     -0.92300000    -0.030500000       340.93800       2.0620248     0.017631832
       64.999969       287.84169       98878.610       13888.321       4.2615000    -0.051500000    -0.027750000       341.11400       1.9843763     0.024838484
       69.999982       287.84820       98874.707       13898.485       3.6645000      -1.1920000     0.080000010       341.15100       1.9985011     0.022854125
       75.999990       287.90276       98858.945       13931.578       4.6947500     -0.59300010     -0.86225000       340.99200       2.1134213     0.017348784
       81.000003       287.91412       98857.543       13925.210       5.7832500      -1.2615000     -0.28000000       340.95400       2.0974200     0.014111219
       85.999976       287.89134       98858.054       13875.370       6.6790000      -1.3820000     -0.12175000       340.83800       2.0905815     0.016586249
       90.999989       287.90999       98861.609       13870.843       4.5570000      0.59125000      0.38175000       341.07300       2.0208019     0.019987280
       96.000002       287.93730       98873.675       13864.210       4.9455000       1.1572500      0.40350000       341.04200       2.1659402     0.014901380
       100.99998       287.97582       98881.569       13891.818       6.6285000     -0.39400000     -0.18925000       340.82800       2.1294174     0.018374226
       105.99999       288.05830       98889.770       13969.801       6.2130000     -0.80650000     -0.34300000       340.92400       1.9157971     0.026201875
       111.00000       288.07112       98894.856       13990.306       5.7390000     -0.90150000     -0.30850000       340.74400       2.0783710     0.017565674
       115.99997       288.05813       98902.898       14002.961       5.1265000      -1.7062500    -0.078750010       340.88400       2.0212910     0.016637753
       120.99999       288.04908       98901.381       14015.938       4.6157500      -2.7360000    0.0095000010       340.91600       2.0996083     0.015589049
       126.00000       287.98846       98892.066       13986.133       4.6855000      -2.2047500      0.66075000       340.95700       2.0153458     0.018590331
       130.99997       287.99574       98886.229       14014.831       4.7710000      -1.9622500     -0.34000000       340.93000       2.1351867     0.017997127
       135.99999       288.05637       98876.822       14096.333       4.7370000      -1.3292500     -0.10975000       340.87400       2.0223687     0.019485851
       141.00000       288.05792       98868.828       14118.561       5.1700000     0.096500000     -0.54125010       340.98800       2.0131327     0.015335566
       145.99997       288.04805       98860.590       14128.534       4.5875000     -0.86050000     -0.38550000       341.05800       1.9809461     0.026087805
       150.99999       288.05794       98855.420       14149.358       5.1222500      -2.0530000     -0.50225000       341.02000       1.9980417     0.018098752
       156.00000       288.03278       98847.810       14127.066       4.6492500     -0.50625000     -0.10950000       340.90400       2.0394948     0.013874529
       160.99997       288.06088       98849.426       14173.482       4.7375000      -1.7485000     -0.33900000       340.86500       2.1009666     0.016558348
       166.99998       288.15637       98859.898       14289.463       4.7662500     -0.10100000     -0.65450000       340.99200       2.0746530     0.014829894
       171.99999       288.18512       98867.390       14359.440       4.9905000     -0.89075010      0.19650000       341.02500       2.0233737     0.027255813
       177.00001       288.20665       98875.394       14404.815       3.9967500     -0.84325000      0.44150000       341.09200       2.1085329     0.014708415
       181.99998       288.17005       98884.978       14370.011       4.1395000      0.49125000    -0.065000010       341.16200       2.0261706     0.016371585
       186.99999       288.18762       98891.069       14396.194       4.6595000     -0.10250000     0.023750000       341.02000       1.9595255     0.021592737
       192.00000       288.27520       98900.213       14466.584       4.3857500      -1.9070000     -0.48825000       341.07200       2.0573034     0.020494353
       196.99998       288.30629       98902.647       14515.103       4.4387500      -2.0670000     -0.46825000       340.99300       2.1165780     0.014116606
       201.99999       288.32504       98900.136       14570.432       2.6330000     -0.97500000      0.46375000       341.22800       2.1089219     0.017486891
       207.00000       288.37677       98890.938       14688.741       4.3535000     -0.58600000    -0.071500000       341.23800       1.9958846     0.017502042
       211.99998       288.33100       98884.668       14662.659       3.4845000      -2.2972500      0.11050000       340.98100       2.1190916     0.020058322
       216.99999       288.18857       98875.382       14552.208       4.1710000      0.22350000      0.37150000       341.13900       2.0401280     0.032050878
       222.00000       288.14603       98867.151       14482.648       3.8327500      0.12700000     -0.21400000       341.10800       2.0990121     0.016113328
       226.99998       288.13177       98860.105       14438.630       3.7192500     -0.62175010     -0.57175000       340.99800       1.9628088     0.019409942
       231.99999       288.23049       98848.870       14495.113       4.0460000     -0.83300010     -0.28925000       341.06700       2.0809599     0.015552843
       237.00000       288.26265       98843.581       14492.880       2.8617500      -1.1532500     -0.48625000       341.13600       2.1176246     0.013360117
       241.99997       288.27024       98841.972       14464.589       3.2202500      -1.6297500     -0.15700000       341.11000       1.9830000     0.018182416
       246.99999       288.25737       98843.457       14402.347       2.3815000      -2.0367500     0.063500000       341.29400       2.0301045     0.028750028
       252.00000       288.24578       98849.018       14362.930       1.6192500      -1.1112500      0.32525000       341.38700       2.0554909     0.019147992
       257.99997       288.19373       98861.508       14291.938       3.5025000      -2.6817500    -0.057250000       340.91900       2.0594300     0.017341009
       262.99998       288.17919       98868.997       14286.394       3.6367500      -1.1517500      0.72925000       341.09400       1.9808536     0.017764299
       267.99999       288.14784       98876.987       14261.999       2.8465000      -1.9555000     -0.28250000       341.32400       2.0622444     0.014932280
       272.99997       288.06077       98889.188       14220.598       3.3035000      -1.2792500     -0.92150000       341.15300       2.0720094     0.018676990
       277.99998       288.03360       98892.785       14198.151       3.1675000     -0.69450000      0.35250000       341.31700       2.0711964     0.019185203
       282.99999       288.02926       98891.521       14160.909       2.6517500      -1.2967500      0.17675000       341.59400       2.1446684     0.018528701
       288.00001       288.04143       98891.304       14159.973       4.0022500      0.28600000      0.10075000       341.23600       2.0550245     0.016738141
       292.99998       288.13799       98882.346       14223.523       2.3255000      -2.5792500     -0.11525000       341.36600       2.0499172     0.017626771
       297.99999       288.16538       98878.646       14236.484       2.9270000     -0.46375000     0.010000000       341.37000       1.9930035     0.019845598
       303.00001       288.15613       98881.677       14249.315       3.1105000      -1.5050000     -0.76075010       341.54500       2.0433220     0.018848583
       307.99998       288.15519       98880.536       14245.938       3.2842500     -0.71250000     0.025500000       341.15000       2.0742387     0.016239223
       312.99999       288.09555       98879.570       14176.857       2.6745000      -1.1852500     -0.21300000       341.36300       2.0129998     0.022074215
       318.00001       288.08757       98875.323       14153.522       3.9710000      -1.0580000      0.30025000       341.40400       2.0950499     0.019605621
       322.99998       288.11996       98865.917       14158.788       3.5975000     -0.82925000     -0.26325000       341.17900       1.9720674     0.025176805
       327.99999       288.15105       98858.984       14158.197       3.5577500      -1.2325000     -0.45875000       340.98000       2.0365589     0.015629959
       333.00000       288.22409       98847.461       14177.933       5.3725000      -1.2682500     -0.71700000       340.91900       2.0101526     0.015652917
       337.99998       288.26286       98842.862       14188.735       4.7835000      -1.4580000     -0.34825000       341.19400       2.0311688     0.024178443
       342.99999       288.26198       98844.730       14168.848       3.5572500      -1.0475000     0.036000000       341.45700       2.0607169     0.016271885
       349.00000       288.31352       98845.077       14199.186       3.0515000      -2.4912500     -0.37025000       341.35900       2.0646665     0.018404020
       353.99997       288.36445       98847.196       14246.705       3.8787500      -2.5475000     -0.16025000       340.98100       2.0353944     0.016602180
       358.99998       288.41825       98851.562       14305.320       3.4287500      -1.3007500     -0.46350000       340.98600       2.0341889     0.014999953
       364.00000       288.54214       98856.722       14408.496       3.2070000     -0.14750000      0.46200000       341.41900       2.2734944     0.010717798
       368.99997       288.58044       98862.124       14487.861       3.3097500      -2.4170000      0.37150000       341.16800       2.0317484     0.019210035
       373.99998       288.54385       98873.187       14554.180       2.8465000      0.16625000      0.56750010       341.62100       1.9804398     0.016734376
       379.00000       288.55369       98878.423       14636.358       3.9472500      -1.1975000     -0.45975000       341.13800       2.1008285     0.018967197
       383.99997       288.54293       98879.934       14750.640       2.2730000      -1.7690000     -0.15650000       341.60700       2.0530346     0.016199987
       388.99998       288.54715       98881.601       14809.652       3.5310000     0.051750000      0.69500010       341.51900       2.0233670     0.018347254
       394.00000       288.60755       98880.377       14875.995       3.7497500      -2.2467500      0.15800000       341.38400       2.0036995     0.015166240
       398.99997       288.61031       98880.417       14881.793       4.8662500      -1.1260000     -0.20500000       341.65800       2.0022679     0.016545475
       403.99998       288.56127       98880.243       14797.670       3.9097500      -1.4722500    -0.082250010       341.66500       1.9982304     0.021731988
       408.99999       288.54115       98880.243       14751.394       4.1130000      -1.3475000    -0.059750000       341.10000       1.9677025     0.019392530
       414.00001       288.50511       98880.419       14690.486       4.1307500      -1.6665000    0.0037500000       341.04300       1.8579235     0.039006861
       418.99998       288.48908       98880.502       14634.628       3.4070000      0.25100000     -0.23825000       341.18800       1.9879390     0.018143831
       423.99999       288.49972       98881.572       14589.394       2.9825000      -1.2805000      0.48000000       341.83200       2.1070286     0.016522435
       429.00001       288.49961       98880.189       14539.639       3.4305000      -1.4215000     -0.12300000       341.57600       2.0098030     0.016440391
       433.99998       288.48739       98879.003       14452.655       4.0285000     -0.88925000      0.54575000       341.66500       2.0514192     0.017033787
       439.99999       288.50565       98872.963       14429.201       5.0907500      -1.3287500     -0.96975000       341.42300       2.0481870     0.016414646
       445.00000       288.54280       98859.581       14444.949       4.4055000     -0.88225010      0.18275000       341.37200       2.0167096     0.014946857
       449.99997       288.56291       98857.434       14469.968       5.4792500      -2.6042500     -0.46525000       340.79900       2.0219168     0.018500193
       454.99999       288.61054       98862.273       14552.940       4.7192500      -1.4252500     -0.46100000       341.08500       2.0429799     0.019576318
       460.00000       288.60780       98858.697       14592.251       3.7487500      -2.3420000     -0.27225000       341.62300       1.9736896     0.016521016
       464.99997       288.55791       98857.707       14615.240       5.9267500      -2.1540000     -0.31175000       341.05700       1.9949057     0.017839843
       469.99999       288.53800       98854.551       14646.237       3.2620000     -0.67225000    0.0027500000       341.52400       2.1374506     0.013427846
       475.00000       288.48922       98839.420       14668.589       4.0037500      -1.2392500      0.10400000       341.58400       2.1258550     0.012591958
       479.99997       288.49194       98836.978       14697.602       2.8165000     -0.48225000       1.1457500       341.59200       2.0066848     0.016549679
       484.99998       288.53151       98844.546       14761.859       3.3062500     -0.75675000     -0.15275000       341.70500       1.9619433     0.016106796
       490.00000       288.56829       98846.588       14755.094       4.4537500      -1.8935000      0.90750000       341.35300       2.0130599     0.018936709
       494.99997       288.63136       98847.937       14696.014       4.6447500      0.21425000    -0.089000000       340.94400       2.0508929     0.018530681
       499.99998       288.68169       98852.543       14674.221       2.5540000     -0.74725000     -0.26350000       341.69400       2.0159685     0.021568000
       505.00000       288.71891       98858.959       14590.169       4.4117500      -1.8750000     -0.90725000       341.35300       2.0112794     0.020256967
       509.99997       288.78462       98863.032       14606.142       3.9982500      -2.6242500     -0.39650000       341.17200       2.0797452     0.014653243
       514.99998       288.87765       98869.005       14727.090       3.5750000      -2.4487500      0.29875000       341.32400       2.1187507     0.013583410
       520.00000       288.95084       98873.357       14787.373       2.5380000      -1.3930000      0.90400000       342.27800       1.9576058     0.021691702
       524.99997       288.94573       98874.466       14748.026       3.6472500      -1.2532500     -0.11075000       341.31200       2.0332030     0.020282153
       530.99998       288.98225       98876.883       14758.122       2.9405000      -1.8460000      0.35525000       341.61200       2.0508156     0.016318876
       535.99999       289.01231       98880.363       14766.206       2.4382500     -0.75325010      0.50900000       341.23800       1.9430899     0.023171898
       541.00000       289.04205       98881.423       14774.561       5.0095000     -0.96800010     -0.33900000       340.84400       2.0556211     0.019641568
       545.99998       289.07146       98880.249       14783.160       3.7342500     -0.51625000     -0.37200000       341.07900       1.9791313     0.017407833
       550.99999       289.10054       98880.203       14791.494       3.6015000     -0.41175000      0.23525000       341.61700       1.9697870     0.017579459
       556.00000       289.12930       98880.448       14799.691       1.1510000     -0.53000000      0.67850010       342.51700       1.9885585     0.023928282
       560.99997       289.15772       98880.541       14807.819       3.0780000      -1.2012500     -0.12625000       341.78900       2.0213843     0.015757051
       565.99999       289.18581       98880.299       14815.907       3.2385000      -2.0887500     -0.65150000       340.92100       1.9744516     0.013443108
       571.00000       289.21357       98880.266       14823.874       3.2252500      -1.6797500      0.44225000       341.93300       1.9526841     0.018683566
       575.99997       289.24101       98880.103       14831.771       4.4697500      -2.3657500    -0.024500000       341.38900       1.9680157     0.014694041
       580.99999       289.26812       98880.011       14839.570       2.8062500     -0.51000010      0.26775000       342.42700       1.9410165     0.015379196
       586.00000       289.29489       98882.820       14846.839       3.4422500      -2.4300000     -0.35850000       341.39000       2.0155407     0.015545847
       590.99997       289.32134       98877.181       14855.309       2.7105000      -1.6445000    -0.050500000       342.66400       1.9392225     0.018556183
       595.99999       289.34746       98864.567       14864.760       4.9905000      -1.7320000      0.40600000       342.03000       1.9721806     0.013532742
       601.00000       289.37325       98862.262       14872.554       4.3982500      -2.2340000     -0.68550000       342.00900       1.9747928     0.018169892
       605.99997       289.39870       98858.484       14880.490       4.1462500      -1.7102500     -0.22075000       341.34500       1.9737023     0.017832951
       610.99999       289.42383       98859.212       14887.655       3.9375000      -2.0037500      0.27675000       341.38800       1.9778859     0.015416103
       616.00000       289.44864       98872.471       14892.823       4.0122500      -1.6042500      0.31975000       342.17100       2.0458417     0.011496923
       622.00001       289.47796       98865.583       14902.402       3.4897500     -0.86600010    -0.048000000       341.20000       1.9491731     0.019081220
       626.99998       289.50204       98860.636       14910.176       5.0540000     -0.83075000      0.11775000       341.46600       2.0594666     0.014638906
       631.99999       289.52579       98844.333       14919.612       5.0815000      -2.1940000     -0.43350000       341.25000       2.0651379     0.014312018
       637.00000       289.54920       98841.731       14926.872       4.7085000      -2.8557500     -0.49625000       341.34200       2.0087103     0.014071668
       641.99998       289.57229       98853.813       14931.804       4.1897500      -2.4187500      0.39375000       342.30800       2.0557100     0.011401795
       646.99999       289.59505       98859.637       14937.618       4.9792500      -3.3085000     -0.53600000       341.25600       1.9766350     0.014572854
       652.00000       289.61748       98866.670       14943.169       3.9110000      -2.7732500       1.0890000       341.88300       2.0346746     0.014575790
       656.99998       289.63959       98885.388       14946.853       2.5207500      -2.4345000      0.40850000       341.81100       2.0249411     0.011402333
       661.99999       289.66136       98880.223       14954.125       3.6762500      -2.6277500     -0.87875000       341.24200       1.9853951     0.015766090
       667.00000       289.68280       98859.738       14963.678       3.4552500      -2.3400000     -0.65050010       341.60200       1.9517769     0.016795627
       671.99998       289.70391       98849.265       14971.624       1.6030000      -1.4117500      0.48000000       342.67700       2.0537892     0.015106581
       676.99999       289.72470       98842.663       14978.904       2.1587500      -1.6887500      0.31200000       342.41100       1.9526237     0.015873870
       682.00000       289.74515       98848.886       14984.140       3.9875000      -3.3652500      0.29225000       341.84200       2.0367701     0.011190335
       686.99998       289.76528       98851.040       14989.931       2.8212500      -1.0860000      0.86200000       342.48200       2.0627174     0.013925548
       691.99999       289.78508       98851.958       14995.843       4.9530000     -0.76450000     -0.36875000       341.84300       2.0788016     0.011153048
       697.00000       289.80455       98850.294       15002.083       4.0032500      -2.2922500      0.69175000       341.73100       2.0629442     0.012475690
       701.99997       289.82368       98850.255       15008.005       2.7492500      -1.0127500     -0.19225000       342.03800       2.0742518     0.013724826
       706.99999       289.84249       98850.254       15013.854       3.4747500      -2.6770000    0.0070000000       341.85600       2.0641695     0.012990114
       713.00000       289.86463       98847.554       15021.201       3.9725000      -1.7532500      0.34225000       342.04900       2.0610953     0.015211067
       717.99997       289.88271       98849.800       15026.556       3.9975000     -0.37400000      0.66575000       342.43400       2.0919112     0.014299079
       722.99998       289.90047       98859.867       15030.640       2.9312500      -2.9270000      0.43050000       342.30700       2.0297471     0.015773101
       727.99999       289.91790       98861.528       15035.955       3.2027500      -1.2015000     -0.18650000       341.37500       2.0539503     0.015763339
       733.00001       289.93499       98861.618       15041.448       3.7072500      -1.2140000    -0.059500000       341.53100       2.0342687     0.015546806
       737.99998       289.95176       98861.422       15046.923       3.6347500      -1.4347500     -0.31275000       341.88700       2.1547525     0.015652352
       742.99999       289.96820       98847.740       15054.419       3.5157500      -1.1565000     -0.23775000       342.15100       2.0986489     0.013694377
       748.00001       289.98431       98847.363       15059.796       3.1677500      -1.7052500     -0.94175000       341.80200       2.1577150     0.013723090
       752.99998       290.00009       98861.845       15062.814       2.5575000    -0.074000000     -0.39150000       342.71300       2.0901021     0.019894023
       757.99999       290.01554       98866.727       15067.255       4.0700000    -0.069500010     -0.13625000       342.86400       2.1370366     0.014446165
       763.00001       290.03066       98872.541       15071.490       3.2487500     -0.58725010      0.40725000       342.95700       2.0879056     0.014553142
       767.99998       290.04546       98877.351       15075.820       2.7915000     -0.88075010     -0.40375000       342.17100       2.0205303     0.015413321
       772.99999       290.05992       98874.583       15081.263       3.2072500     0.044750000     -0.18150000       342.87400       2.0389310     0.017765419
       778.00000       290.07405       98874.691       15086.203       3.6705000      -1.0375000      0.32375000       342.99700       2.0104713     0.014510488
       782.99998       290.08786       98879.338       15090.380       1.6200000      0.43750000       1.1782500       343.41700       1.8872448     0.022160946
       787.99999       290.10134       98881.189       15094.932       3.4447500     -0.22400000     -0.44650000       342.44200       2.0897541     0.013813484
       793.00000       290.11448       98880.339       15099.845       3.8232500       1.0610000      0.11650000       342.11300       2.1029749     0.015900612
       798.99997       290.12982       98880.386       15105.501       4.0892500     0.015750000      0.24475000       341.89600       2.0018627     0.026820839
       803.99998       290.14225       98880.243       15110.179       3.6065000      0.44400000      0.23750000       342.24100       2.0665791     0.012727502
       809.00000       290.15434       98880.243       15114.780       3.5390000     -0.82700000     -0.70025000       341.87300       2.0839917     0.013755415
       813.99997       290.16610       98880.306       15119.314       3.2407500      0.26775000     -0.16600000       342.16800       2.1014970     0.017912360
       818.99998       290.17754       98880.306       15123.804       2.4642500      -1.3927500      0.79100000       343.19400       2.0640749     0.021014947
       824.00000       290.18864       98880.131       15128.265       3.0715000      0.45675000      0.75025000       342.52200       2.0671386     0.014023966
       828.99997       290.19942       98880.072       15132.654       4.0225000       1.5180000      0.44550000       342.08500       2.0398907     0.019463536
       833.99998       290.20987       98880.306       15136.943       3.5855000     -0.26975000     0.072500010       342.31900       2.0340847     0.026276367
       839.00000       290.21998       98880.306       15141.214       2.9487500     -0.93475000      0.12625000       342.57400       2.1078151     0.015333293
       843.99997       290.22977       98880.346       15145.426       2.8742500     -0.40600000     -0.54800000       342.04100       2.0334039     0.015675163
       848.99998       290.23923       98880.386       15149.584       3.2667500      -2.8702500     -0.38175000       341.16400       2.0479894     0.022924427
       853.99999       290.24836       98880.305       15153.708       3.6690000     -0.34150000     -0.10075000       341.45200       2.1878526     0.017462996
       858.99997       290.25716       98880.283       15157.770       3.5450000      -1.5387500     -0.46775000       341.22200       2.0725156     0.016763951
       863.99998       290.26564       98877.650       15162.187       3.2362500     0.060750000     -0.14075000       342.84200       2.0431228     0.021833039
       868.99999       290.27378       98880.353       15165.720       2.7965000     -0.35725000     -0.27750000       342.07800       2.0864980     0.017015620
       874.00001       290.28159       98890.401       15168.057       1.4510000      0.50850000      0.57200000       343.61300       2.0592281     0.013675088
       878.99998       290.28908       98891.627       15171.716       4.1775000     0.070250000     -0.20625000       341.68200       1.9896185     0.021893116
       883.99999       290.29623       98888.938       15175.933       3.5677500     -0.19925000      0.25675000       342.29400       2.0128312     0.015969658
       890.00000       290.30438       98891.355       15180.047       4.3692500      0.12550000     -0.88800010       341.92200       2.1107330     0.017550983
       894.99997       290.31081       98891.065       15183.777       3.3742500       1.1627500      0.22675000       341.74600       2.0516590     0.015257154
       899.99999       290.31691       98889.067       15187.723       3.3700000      0.73400000     -0.24525000       341.83600       2.0622403     0.019476850
       905.00000       290.32269       98891.667       15190.901       3.0555000     -0.36300000      0.45750000       342.41600       1.9982795     0.023454449
       909.99997       290.32813       98890.368       15194.636       1.9775000     -0.35825000      0.31550000       342.52600       2.0959558     0.011574999
       914.99999       290.33324       98880.295       15199.690       3.6012500     -0.31975000      0.18475000       342.20200       2.0322823     0.017941053
       920.00000       290.33803       98877.509       15203.556       4.0012500     -0.29200000      0.24875000       342.35600       2.0893673     0.013506937
       924.99997       290.34248       98880.306       15206.501       2.4105000     -0.26650000      0.53050010       342.55600       2.0043052     0.022079427
       929.99998       290.34661       98880.306       15209.831       3.4277500      -2.1642500      0.14800000       341.67800       2.1337161     0.012099427
       935.00000       290.35041       98878.384       15213.411       2.7817500      -2.0285000     -0.29425000       341.91900       2.1286234     0.013370616
       939.99997       290.35387       98881.797       15216.108       4.3127500      -1.5737500     -0.20250000       341.42400       2.0940724     0.015914588
       944.99998       290.35701       98888.679       15218.211       2.5627500    -0.015500000      0.24175000       342.26300       2.0951803     0.016039449
       950.00000       290.35982       98892.655       15220.718       3.6432500      -1.7060000      0.10125000       341.82000       2.0978031     0.015342566
       954.99997       290.36230       98902.393       15222.274       3.0812500      -1.0080000      0.20925000       342.12700       2.0920595     0.014263190
       959.99998       290.36445       98901.864       15225.383       1.6355000     -0.20900000     -0.35250000       342.18300       2.0973944     0.012161300
       965.00000       290.36627       98892.165       15229.876       2.2592500     -0.78350000     -0.15350000       342.21600       2.0605605     0.015584885
       969.99997       290.36777       98888.225       15233.418       2.8290000     -0.83325000     -0.34250000       342.02000       2.0642853     0.014867620
       974.99998       290.36893       98880.659       15237.476       2.0667500      -1.8127500      0.73925010       342.46500       2.0858089     0.013762947
       980.99999       290.36989       98877.703       15241.322       4.5607500      -2.6522500     -0.26400000       341.93800       2.0503608     0.021810825
       986.00000       290.37033       98880.243       15243.687       2.4245000      -1.0032500      0.19075000       342.32200       2.0923162     0.017673284
       990.99998       290.37044       98880.243       15246.399       3.8745000     -0.77225010     -0.25850000       341.68800       2.0945087     0.011955613
       995.99999       290.37022       98880.450       15249.027       3.8965000      -1.0907500      0.16725000       341.89800       2.1462707     0.016440553
       1001.0000       290.36967       98880.543       15251.622       4.3835000      -3.5192500     -0.68725000       341.66800       2.1213406     0.014452453
       1006.0000       290.36879       98880.306       15254.216       4.6387500      -1.9150000     -0.23975000       341.53400       2.1890429     0.015304286
       1011.0000       290.36758       98880.306       15256.721       4.9312500      -2.5992500     -0.14450000       341.48600       2.0903672     0.019817805
       1016.0000       290.36605       98880.440       15259.153       5.9017500      -2.7342500       1.2465000       341.59200       2.0587134     0.020412689
       1021.0000       290.36418       98880.500       15261.544       5.7787500     -0.82650010      0.29850000       341.57300       2.1463045     0.020562613
       1026.0000       290.36199       98878.566       15264.195       3.6075000      -1.0890000      0.46700000       341.76700       2.0710456     0.018749198
       1031.0000       290.35946       98882.365       15265.894       5.2032500      -1.9227500      0.22025000       341.47200       2.0663313     0.013127304
       1036.0000       290.35661       98891.398       15266.720       4.6712500      -2.0230000     0.077000010       341.66400       2.1080732     0.014936356
       1041.0000       290.35343       98891.695       15268.861       4.8955000      -1.0417500     -0.31250000       341.14000       2.1430384     0.014441247
       1046.0000       290.34992       98891.609       15271.008       5.5475000     -0.54625000      0.34500000       341.49300       2.1089384     0.014719196
       1051.0000       290.34607       98889.838       15273.365       3.4995000      -1.6360000      -1.5010000       341.32100       2.1308519     0.013972691
       1056.0000       290.34190       98879.932       15276.944       3.9677500     -0.88475010      0.56325000       341.64700       2.1553777     0.016051702
       1061.0000       290.33741       98877.820       15279.245       2.8737500     -0.75775000      0.24725000       341.62600       2.0921680     0.015713671
       1066.0000       290.33258       98880.392       15280.757       3.8115000      -1.1280000      0.26525000       341.74800       2.1159513     0.019190702
       1072.0000       290.32635       98880.243       15283.004       3.2770000      -1.6605000      0.25925000       341.89200       2.1064778     0.016175111
       1077.0000       290.32079       98880.243       15284.796       3.7802500     -0.27425000     -0.19650000       341.90600       2.0272402     0.018534373
       1082.0000       290.31491       98880.395       15286.507       4.3162500      -1.0612500      0.38375000       341.61200       2.1442471     0.016958111
       1087.0000       290.30870       98880.466       15288.173       5.0697500      -1.4817500     -0.34925000       341.48600       2.1117716     0.020191635
       1092.0000       290.30216       98880.306       15289.818       7.3970000      -1.9910000      0.13275000       341.67100       2.1250468     0.021222138
       1097.0000       290.29529       98880.306       15291.380       3.7052500      -2.5555000      0.49175000       342.20400       2.0875555     0.014133263
       1102.0000       290.28809       98880.306       15292.883       4.6645000      -2.2620000    -0.064250000       341.58700       2.0483182     0.019755709
       1107.0000       290.28056       98880.452       15294.304       4.8257500      -1.2280000      0.73175000       341.74700       2.0672538     0.017647963
       1112.0000       290.27271       98880.511       15295.680       3.8352500     -0.99125000     -0.37700000       342.06200       2.1087717     0.015708049
       1117.0000       290.26452       98880.399       15297.021       4.8015000     -0.36625000     0.047000000       341.68000       2.0967152     0.014872710
       1122.0000       290.25600       98881.727       15298.076       3.4777500      -3.1037500      0.23950000       341.65200       2.0350855     0.019598486
       1127.0000       290.24716       98880.869       15299.413       4.3470000      -1.1117500       1.0005000       342.24800       2.0862145     0.016898070
       1132.0000       290.23798       98877.316       15301.112       3.7427500      -1.0832500      0.26525000       342.08500       2.0614594     0.018252561
       1137.0000       290.22848       98875.361       15302.497       2.6250000     -0.55125000     -0.40650000       341.90100       2.1078308     0.012561141
       1142.0000       290.21865       98873.405       15303.818       4.5195000      -4.5250000    0.0042500000       342.10400       2.0814465     0.014528611
       1147.0000       290.20849       98871.752       15305.029       4.8715000      -3.0627500     -0.68275000       341.58400       2.1270577     0.013339055
       1152.0000       290.19799       98864.453       15307.063       2.9777500      -4.4475000      0.44175000       342.10700       2.0383135     0.020355340
       1157.0000       290.18717       98854.474       15309.453       4.2135000      -4.2565000     -0.17500000       341.22800       2.0251778     0.020594589
       1163.0000       290.17376       98846.456       15311.613       4.7682500      -4.4130000     -0.49800000       341.20900       1.9454236     0.021586983
       1168.0000       290.16221       98842.760       15312.870       2.8850000      -3.3032500      0.13550000       341.86500       2.0629279     0.014810094
       1173.0000       290.15034       98849.436       15312.428       3.6320000      -2.9822500     -0.10825000       341.90000       2.0680574     0.013564278
       1178.0000       290.13813       98851.333       15312.670       2.6242500      -2.2255000      0.34475000       342.00500       2.0934732     0.015260212
       1183.0000       290.12560       98851.664       15313.090       3.6427500     -0.97950010      0.29775000       341.79200       2.0618711     0.018927825
       1188.0000       290.11274       98850.537       15313.669       3.3717500      -2.0145000      0.44650000       341.85500       2.1356901     0.015531550
       1193.0000       290.09955       98846.969       15314.562       3.4927500      -1.8137500      0.13125000       342.09300       2.1405642     0.016460383
       1198.0000       290.08603       98844.976       15315.137       3.1802500      -1.5295000     -0.83925000       341.91600       2.1331954     0.016414628
       1203.0000       290.07218       98841.496       15315.873       3.9327500     -0.77400000      0.14575000       342.19000       2.0323712     0.019272710
       1208.0000       290.05800       98839.696       15316.273       4.5460000     -0.42800000     -0.50350000       342.01700       2.2985416     0.019907808
       1213.0000       290.04349       98838.766       15316.462       3.8480000     -0.44200000      0.65150000       341.81700       2.5633343     0.019564329
       1218.0000       290.02866       98839.828       15316.264       6.4837500     -0.13325000     -0.42150000       341.31900       3.6212381     0.017423879
       1223.0000       290.01349       98843.755       15315.539       4.1692500      -1.0817500      0.17925000       341.56800       2.8021675     0.013076570
       1228.0000       289.99800       98845.770       15315.040       3.6635000    -0.038250000     0.040250000       341.87500       3.2712754     0.014481181
       1233.0000       289.98217       98844.874       15314.922       4.0680000      0.95625010     -0.33725000       341.36800       2.5733448     0.018577359
       1238.0000       289.96602       98850.137       15313.757       4.1287500      0.26075000     0.094500010       341.47100       3.5251524     0.020358099
       1243.0000       289.94953       98860.360       15311.734       4.9435000      -1.3982500      0.54450010       341.84900       5.2179421     0.016999304
       1248.0000       289.93272       98866.308       15310.304       4.6447500      -2.9102500      0.44650000       342.10900       3.7736778     0.016461048
       1254.0000       289.91211       98876.176       15308.052       5.4477500      -1.6342500      0.26925000       341.65600       2.7096829     0.014978268
       1259.0000       289.89458       98883.778       15306.185       3.6215000      -1.2105000     -0.97800000       341.56500       2.3138441     0.023586545
       1264.0000       289.99018       98890.572       15401.662       4.5200000      -1.6087500      0.60400000       342.53100       3.2692469     0.017049714
       1269.0000       289.98866       98891.798       15399.580       3.4760000      -1.0907500      0.21725000       342.97700       3.1499076     0.014071939
       1274.0000       290.15698       98889.111       15611.684       6.1112500      -1.4690000      0.30175000       341.94700       1.9918978     0.028661177
       1279.0000       290.15327       98891.126       15598.493       4.5880000     -0.57175000      0.70100000       341.90800       2.0697477     0.016853116
       1284.0000       290.10499       98891.512       15510.996       3.2557500    -0.053250000     -0.59575000       341.65100       2.1810395     0.014985280
       1289.0000       290.08872       98889.560       15445.605       3.7947500     -0.97200010     0.047500000       341.72700       2.1096431     0.020776629
       1294.0000       290.12552       98889.014       15420.708       3.4955000     -0.46875000    -0.095250000       342.36500       2.1006217     0.017909792
       1299.0000       290.09788       98891.007       15338.860       2.8295000      0.59825000      0.17425000       342.73800       2.0537771     0.020595666
       1304.0000       290.02269       98891.471       15190.024       5.0555000     -0.92825000     -0.37300000       341.73500       2.0441653     0.016670671
       1309.0000       289.98245       98889.435       15086.291       3.8782500     -0.15250000      -1.3360000       342.34600       2.0065024     0.023480101
       1314.0000       289.92300       98891.844       14980.855       3.0345000     -0.55825000     -0.29000000       341.74300       2.1011510     0.014047884
       1319.0000       289.87722       98891.133       14882.937       3.3317500     -0.24725000    -0.019250000       342.68900       2.0712351     0.019850797
       1324.0000       289.86253       98881.225       14791.459       2.5740000      0.24225000     0.060500000       343.02900       2.3041025     0.015384230
       1329.0000       289.84216       98877.967       14730.419       3.8787500     -0.67250000    -0.096750010       341.89700       2.6109918     0.021595348
       1334.0000       289.79313       98881.544       14664.495       4.7475000       2.8427500     -0.13525000       342.48200       3.7956399     0.029895460
       1340.0000       289.79364       98879.707       14643.833       7.2190000      0.51225000      0.84325000       342.96200       4.4601089     0.027443183
       1345.0000       289.84326       98878.315       14687.389       6.3850000     -0.30425000     -0.43725000       341.40400       2.9380287     0.021657052
       1350.0000       289.86337       98873.097       14716.094       3.1650000      0.25075000      0.76825000       342.72000       3.1174648     0.019013888
       1355.0000       289.88828       98861.721       14739.390       4.9842500      0.32900000    -0.091750000       342.28900       4.2350878     0.024520662
       1360.0000       289.91797       98856.319       14817.013       5.4612500     -0.25350000     -0.19650000       341.42000       3.7484945     0.023374908
       1365.0000       289.94161       98850.680       14937.568       4.9375000     -0.24375000     0.067250010       341.63600       3.3462127     0.020533351
       1370.0000       289.96128       98848.029       15033.827       3.2432500      0.43800000       1.1625000       342.22800       2.5998877     0.022331895
       1375.0000       290.02240       98850.302       15223.039       4.5660000      0.81350000     -0.94475010       341.89700       4.2827890     0.017757069
       1380.0000       290.00313       98850.274       15252.600       3.9015000      0.17525000     -0.35650000       341.88400       4.3279253     0.012675460
       1385.0000       289.91623       98851.341       15184.552       3.3825000      0.22950000      0.42600000       342.20800       3.9859722     0.022374296
       1390.0000       289.87619       98849.694       15130.359       6.0262500      0.64325000     -0.84350000       341.34300       4.2556871     0.018424117
       1395.0000       289.81211       98845.892       14983.642       5.1602500     -0.40025000     0.052000000       341.60100       3.2611888     0.017457605
       1400.0000       289.76805       98843.871       14895.968       3.2740000     -0.14800000      0.11550000       342.10700       2.7434304     0.017435808
       1405.0000       289.75769       98839.096       14831.136       3.8017500      0.70125000      0.86075000       342.22600       3.5992853     0.028017827
       1410.0000       289.73761       98839.265       14768.725       3.7890000      0.70125000      0.87200000       341.50600       3.0795517     0.015025662
       1415.0000       289.70092       98842.124       14698.318       3.5667500      0.45550000      0.32450000       342.15200       2.9162328     0.012578786
       1420.0000       289.68742       98847.447       14664.195       2.3452500    -0.030500000      0.90550010       342.36300       4.3145931     0.031377800
       1425.0000       289.71125       98857.706       14666.341       4.3162500     -0.43200000       1.6750000       342.39400       3.9698824     0.020984692
       1431.0000       289.69035       98866.240       14646.495       2.4295000     -0.54800000     -0.25475000       342.20000       3.3933032     0.027437061
       1436.0000       289.65355       98875.715       14644.633       3.9850000     -0.11675000      0.70700000       342.26300       2.6995313     0.015999166
       1441.0000       289.63362       98879.989       14631.526       3.7982500     -0.65750000      0.77550010       341.94500       4.8886201     0.029066953
       1446.0000       289.59700       98880.474       14580.255       6.7307500       1.1207500      0.66750000       342.02600       3.3135890     0.015585173
       1451.0000       289.58599       98881.558       14613.768       3.4217500    -0.015750000       1.2402500       341.75500       2.7369106     0.015307176
       1456.0000       289.61783       98880.250       14708.698       4.3525000      0.77450000      0.17950000       341.66700       4.5439323     0.023946594
       1461.0000       289.58069       98880.203       14731.967       5.0892500       1.0665000     -0.58350000       341.15300       3.3351700     0.014728607
       1466.0000       289.53831       98880.299       14803.340       2.9790000     -0.41075000      0.89175000       341.96000       2.8773808     0.028712984
       1471.0000       289.44101       98880.266       14762.844       4.1032500     -0.77450000     -0.18150000       341.97100       2.5341433     0.016560623
       1476.0000       289.25733       98880.360       14618.680       3.8865000      0.43775000     -0.30250000       341.84800       3.2206072     0.020765368
       1481.0000       289.17434       98880.406       14531.766       2.5110000       1.1377500      0.10950000       342.10600       3.3319851     0.036997742
       1486.0000       289.09939       98881.165       14431.777       3.9982500     -0.17825000      0.38975000       342.19100       3.7374865     0.024133482
       1491.0000       289.04654       98879.285       14327.586       4.1650000     -0.68950000     -0.30700000       341.67900       3.4855607     0.016209066
       1496.0000       289.05364       98875.633       14215.254       4.4485000     -0.71700000      0.14050000       341.54700       3.5000713     0.028088942
       1501.0000       289.03374       98873.631       14136.408       5.0560000      0.34575000     -0.73475000       341.57800       3.1646195     0.014620030
       1506.0000       288.98778       98871.652       14033.235       4.1175000     -0.40775000     -0.14725000       341.65900       4.3848878     0.023877890
       1511.0000       288.99588       98866.666       14011.364       4.1622500      0.87675010      0.81250010       341.85200       4.3260402     0.023182402
       1516.0000       289.04649       98861.110       14057.870       4.1917500      0.26375000      0.13500000       341.67100       5.8801061     0.029462780
       1522.0000       289.08510       98853.278       14096.631       3.4580000     -0.91750000      0.22575000       341.78500       3.5625718     0.018739544
       1527.0000       289.10649       98848.965       14132.616       3.2082500      -1.9287500      0.17875000       341.92700       3.5722984     0.023822515
       1532.0000       289.10016       98850.395       14151.445       4.3757500      -2.7807500     -0.24900000       341.69800       3.1071053     0.020298900
       1537.0000       289.10016       98850.454       14191.366       4.5750000     -0.53825000      0.30800000       341.74900       2.5847442     0.017358319
       1542.0000       289.11532       98847.187       14285.179       2.3975000      -1.4445000      0.16325000       341.98600       2.1168548     0.013936906
       1547.0000       289.10685       98848.904       14330.237       4.0315000      -2.1255000      0.15875000       341.39200       2.1193692     0.018711435
       1552.0000       289.08609       98853.092       14356.468       2.7510000     -0.41725000      0.52725010       341.90800       2.2040785     0.021171588
       1557.0000       289.04400       98859.464       14371.444       2.6757500     -0.70275000     -0.35000000       341.97300       2.0296123     0.015153005
       1562.0000       289.04515       98865.675       14388.173       3.4890000     -0.74375000      0.13075000       341.89900       2.0640144     0.016450864
       1567.0000       289.04428       98875.292       14373.022       4.4002500      -1.0297500     0.081000000       341.62700       2.3756917     0.022543477
       1572.0000       289.08488       98884.702       14386.980       4.7145000     -0.42075000      0.15825000       341.58100       2.1089380     0.014568072
       1577.0000       289.10637       98890.831       14394.424       4.8467500      0.57775000     -0.47700000       341.34400       2.0652700     0.014014335
       1582.0000       289.08500       98897.412       14353.310       2.7325000     -0.63650000     -0.45900000       341.56600       2.1863303     0.015223528
       1587.0000       289.09369       98901.637       14357.775       4.0627500     -0.12700000     -0.60375010       341.56700       2.2215876     0.013221357
       1592.0000       289.11466       98903.404       14385.661       5.1542500     -0.79450010     -0.58650000       341.28700       2.1443874     0.018753635
       1597.0000       289.14974       98901.593       14442.703       5.1002500     -0.74550000     0.059750000       341.53000       3.5439625     0.017554395
       1602.0000       289.17010       98897.286       14478.034       3.4445000      -1.7252500     -0.46200000       341.45900       2.1557691     0.013482262
       1607.0000       289.21767       98890.922       14546.639       4.4562500      -1.0567500      0.17150000       341.47100       2.6320484     0.012947200
       1613.0000       289.11642       98881.421       14485.143       4.5030000      -2.2070000      0.13500000       341.25900       2.2195771     0.014608177
       1618.0000       289.08725       98873.350       14479.857       3.5787500     -0.61875000      0.61425000       341.65100       2.1653794     0.016208680
       1623.0000       289.06752       98864.352       14494.801       3.5175000     -0.80750010    -0.043750000       341.29000       2.0536371     0.016119726
       1628.0000       289.03921       98858.544       14486.693       4.0975000      -1.5232500      0.43000000       341.56200       2.2032348     0.015617814
       1633.0000       289.05602       98853.622       14495.108       4.6935000      -1.2877500     -0.38575000       341.73500       2.0578175     0.014732902
       1638.0000       289.05481       98848.763       14504.463       3.3427500      -1.1585000     -0.15825000       341.67000       2.1224798     0.015354508
       1643.0000       289.00971       98845.478       14478.575       2.5092500      -1.7792500      0.47950000       341.64500       2.1116066     0.018148031
       1648.0000       288.99097       98844.608       14474.477       3.0392500     -0.70100000      0.16600000       341.31100       2.0793306     0.014126018
       1653.0000       289.01444       98841.798       14521.929       2.3900000      0.43175000     0.070000000       341.58200       2.0707629     0.015285898
       1658.0000       289.00335       98844.139       14527.677       2.4932500      -1.0242500      0.15125000       341.62000       2.1159133     0.015979236
       1663.0000       288.97969       98854.750       14520.673       3.4095000      -2.7325000     -0.45825000       341.54100       2.0472584     0.014454072
       1668.0000       288.94855       98861.755       14491.443       3.3495000      -1.9435000      0.13200000       341.62600       1.9884097     0.025897222
       1673.0000       288.87555       98869.032       14419.193       3.9532500      -1.2670000    -0.053000000       341.59800       2.1601992     0.012123542
       1678.0000       288.83719       98877.011       14364.152       2.8722500      -1.0950000      0.29850000       341.48000       2.1022722     0.015279201
       1683.0000       288.83952       98889.051       14319.870       3.0140000      -1.7055000      0.17500000       341.58900       2.0303623     0.018675782
       1688.0000       288.79827       98892.660       14243.766       3.7002500     0.052750000     0.094750000       341.63900       1.9920804     0.024779318
       1693.0000       288.73217       98891.621       14142.034       3.8827500      -1.7920000      0.12075000       341.54800       2.0961077     0.023310405
       1698.0000       288.69215       98891.447       14060.693       3.7080000      -1.1250000     -0.32375000       341.38600       2.0863053     0.016726793
       1704.0000       288.60933       98882.397       13926.058       5.2070000     -0.82825010      0.94250010       341.46400       2.0940229     0.013891133
       1709.0000       288.57654       98877.699       13855.622       5.1375000     -0.56750010      0.10000000       341.55200       2.5205428     0.024312620
       1714.0000       288.60026       98879.089       13822.724       4.5285000      0.40150000     -0.31975000       341.44400       2.2729294     0.016833563
       1719.0000       288.60037       98874.371       13797.629       5.2502500     -0.79475000     -0.17825000       341.09200       2.1922623     0.014038363
       1724.0000       288.59982       98864.586       13795.091       5.0052500      0.25700000      0.67250000       341.54400       2.5966673     0.016798403
       1729.0000       288.59966       98857.653       13793.156       4.7327500     -0.50850000     -0.39475000       341.32200       2.2816255     0.014903755
       1734.0000       288.60032       98846.287       13805.083       4.0445000    -0.020500000     -0.26025000       341.32900       2.2682752     0.018018917
       1739.0000       288.60048       98842.408       13822.524       3.8052500       1.2610000     -0.39950000       341.40600       2.8444854     0.014613892
       1744.0000       288.61304       98840.720       13856.891       2.8290000     -0.53200000     -0.19950000       341.58800       3.0872481     0.015152087
       1749.0000       288.59939       98845.208       13871.695       4.4840000      0.10725000    -0.074750010       341.50900       3.7894160     0.017436598
       1754.0000       288.54864       98858.780       13871.758       3.2925000     -0.44825000      0.30825000       341.52100       4.0164466     0.020294078
       1759.0000       288.54206       98869.195       13895.924       3.3897500      0.77350000     0.084000010       341.53900       4.0967520     0.015351146
       1764.0000       288.53010       98889.194       13906.719       2.3192500    0.0047500000      0.22425000       341.52200       3.9431006     0.020158102
       1769.0000       288.54747       98895.323       13947.956       3.1085000     -0.87675010      0.68650000       341.57400       4.5678222     0.014448697
       1774.0000       288.64587       98891.933       14065.978       4.0475000      -1.3390000     -0.25225000       341.42400       4.3880163     0.016630964
       1779.0000       288.66806       98891.213       14100.771       2.4395000      -1.0310000      0.65150000       341.52900       4.5272333     0.017187893
       1784.0000       288.65724       98881.338       14097.223       5.2900000      -2.8942500     -0.16000000       341.21800       2.3927466     0.014784305
       1789.0000       288.65382       98878.080       14104.976       4.5765000      -1.0782500     -0.56175010       341.24000       2.2248181     0.020781959
       1795.0000       288.59961       98881.474       14062.458       4.5665000      -1.4567500      -1.1057500       341.23500       2.0654764     0.014635656
       1800.0000       288.58536       98879.924       14045.581       4.1727500      -3.5887500     -0.18125000       341.11800       2.1342077     0.018033035
       1805.0000       288.61131       98878.342       14067.051       4.1035000      -1.4620000      0.29575000       341.23500       2.0969843     0.013908335
       1810.0000       288.59516       98873.132       14044.142       3.0845000      -1.9075000     -0.20100000       341.34100       2.1244578     0.011714357
       1815.0000       288.55791       98861.976       13977.979       5.6797500      -2.4632500     0.025000000       341.09200       2.0641070     0.018262356
       1820.0000       288.53800       98856.642       13952.449       3.9510000     -0.18650000     -0.22150000       341.44000       2.1282043     0.016733040
       1825.0000       288.50143       98848.250       13923.056       2.3782500     -0.93425010      0.24625000       341.41700       2.0553100     0.014161571
       1830.0000       288.48801       98848.858       13917.929       3.8082500     -0.98775010      0.27775000       341.42700       2.1104768     0.018592101
       1835.0000       288.51156       98860.890       13960.219       4.0905000      -1.2902500     -0.52425000       341.40600       2.4115152     0.014373883
       1840.0000       288.49549       98861.680       13955.312       3.0172500     -0.91150000     -0.36775000       341.54900       2.1548647     0.017543957
       1845.0000       288.43516       98858.189       13910.285       2.1297500     -0.97425000      0.90825000       341.54700       2.0618905     0.014846116
       1850.0000       288.44730       98861.739       13928.745       1.7687500      -1.7340000    -0.093250010       341.37000       2.0289433     0.020096505
       1855.0000       288.48504       98863.075       13956.570       3.1325000      -1.6502500      0.26050000       341.30300       2.0636010     0.016666962
       1860.0000       288.51123       98866.310       13995.230       4.2030000      -2.5190000     -0.11775000       341.31900       2.0929011     0.011499448
       1865.0000       288.61078       98883.498       14115.001       4.9397500      -2.8710000    -0.017000000       341.18500       2.1179846     0.016721947
       1870.0000       288.62158       98882.576       14145.277       4.8975000      -2.9667500     -0.92550000       341.27000       2.0195660     0.017782343
       1875.0000       288.55742       98867.651       14124.250       7.2587500      -1.2602500    -0.023750000       341.12200       2.0449419     0.015495080
       1880.0000       288.53717       98861.622       14114.238       3.3842500      -3.0647500     -0.88975010       341.08600       2.0281021     0.013861296
       1886.0000       288.49669       98849.119       14062.109       5.0910000     -0.94050000      0.91200010       341.26400       2.1726241     0.014053700
       1891.0000       288.48543       98845.695       14047.105       3.9082500      -1.5805000      0.32275000       341.26200       2.0548938     0.013348161
       1896.0000       288.49951       98848.744       14042.101       4.0667500      -1.5722500     -0.13375000       341.23100       2.0240024     0.014687819
       1901.0000       288.49921       98852.550       14040.649       5.7315000      -2.9227500     -0.87825010       341.11600       1.9784783     0.015965441
       1906.0000       288.50033       98858.650       14049.248       3.2317500      0.33225000      0.83625010       341.28200       2.0603379     0.014502186
       1911.0000       288.50044       98864.527       14058.828       4.0082500     -0.35700000      0.23200000       341.31100       2.1828367     0.011898067
       1916.0000       288.50968       98873.342       14075.365       4.1475000      -1.3070000     -0.43825000       341.23400       3.1743817     0.016322580
       1921.0000       288.49088       98881.303       14086.942       3.7215000      -1.8232500      0.53000000       341.27000       2.6750953     0.013045375
       1926.0000       288.45396       98889.587       14108.677       4.8067500      -1.8447500   -0.0045000000       341.18800       2.1059690     0.011516108
       1931.0000       288.43394       98894.713       14101.782       4.0787500      -2.0085000      0.16400000       341.30000       2.0458289     0.019131835
       1936.0000       288.40554       98902.761       14094.812       2.9935000     -0.83375010     -0.13050000       341.34800       2.1136819     0.015112536
       1941.0000       288.37546       98901.347       14041.938       2.9895000      0.37650000      0.88875000       341.35700       2.1053906     0.012051226
       1946.0000       288.34506       98891.888       13927.815       2.3722500     -0.85700010      0.19250000       341.44800       2.0669934     0.016149591
       1951.0000       288.34372       98886.001       13894.476       4.5692500      -1.2027500     0.097500000       341.29500       2.1067956     0.012118786
       1956.0000       288.34278       98877.081       13856.666       6.0772500     -0.38875000     -0.50950000       341.10500       2.0673897     0.011986461
       1961.0000       288.35204       98869.039       13855.698       6.1547500      -1.6300000     -0.97650000       341.11600       2.6399667     0.024844218
       1966.0000       288.40268       98859.024       13922.637       4.5695000       1.9355000      0.62075000       341.23300       2.5095730     0.013244254
       1972.0000       288.41461       98854.916       13946.363       4.4255000     -0.69450000       1.2272500       341.40200       2.8277417     0.015860018
       1977.0000       288.40596       98857.272       13962.321       3.9540000      -2.7347500     -0.10575000       341.31000       4.5345014     0.019578203
       1982.0000       288.36982       98876.496       13999.685       4.8475000      -2.1007500     -0.33825000       341.23500       2.4636045     0.012796213
       1987.0000       288.35003       98886.628       14003.332       3.1445000      -2.9702500      0.12275000       341.39200       2.1519385     0.013199905
       1992.0000       288.30006       98895.897       13970.437       3.8197500      -1.3802500     -0.28050000       341.24100       2.0624889     0.011533882
       1997.0000       288.28762       98902.283       13948.781       5.5262500     -0.37875000     -0.31775000       341.13300       2.1346011     0.014389746
       2002.0000       288.29982       98904.987       13921.456       4.2265000     -0.51875000    0.0050000000       341.19100       2.2078503     0.014894861
       2007.0000       288.33572       98901.700       13858.250       2.8180000     -0.72850000      0.91125010       341.36500       2.0951973     0.013051188
       2012.0000       288.39894       98897.424       13873.489       3.0245000      -1.1700000     0.067250010       341.27800       2.1140661     0.011953363
       2017.0000       288.50561       98892.740       13922.421       3.5552500      -1.7050000     -0.28800000       341.14700       2.0368623     0.014285915
       2022.0000       288.58505       98869.617       14023.173       2.5950000      -1.7482500     0.084250000       341.33400       2.0031673     0.016331028
       2027.0000       288.61993       98858.050       14068.892       4.1587500      -1.5342500    -0.010500000       341.24400       2.0820647     0.010945381
       2032.0000       288.57022       98844.751       14065.811       2.4312500     -0.89475010      0.68800000       341.42500       2.1399106     0.012281683
       2037.0000       288.55055       98840.907       14071.113       4.1672500     -0.89775000      0.38650000       341.25900       2.1512864     0.015476989
       2042.0000       288.53087       98845.661       14063.952       4.3410000     -0.96500000     0.011000000       341.28600       2.1202708     0.016590109
       2047.0000       288.48660       98865.717       14014.828       3.4625000     -0.56250000    -0.045500000       341.33300       2.2784234     0.013160309
       2052.0000       288.49944       98872.650       14023.200       2.6872500      -1.7210000      0.12525000       341.45000       2.0693605     0.011636374
       2057.0000       288.54998       98881.284       14061.205       2.5705000      -3.0822500     -0.59250000       341.39000       2.4078979     0.015580502
       2063.0000       288.59102       98890.048       14075.377       4.3872500      -3.4050000     -0.52225000       340.98200       2.0776354     0.011101666
       2068.0000       288.61023       98891.843       14081.888       2.6650000      -1.6007500      0.31375000       341.39500       2.0710194     0.014701725
       2073.0000       288.58607       98895.781       14037.573       4.3972500      -1.6417500    -0.050000000       341.26500       2.0556319     0.012372017
       2078.0000       288.59754       98892.128       14050.091       3.3307500      -1.0447500      0.31375000       341.38500       2.1088929     0.017014752
       2083.0000       288.64820       98872.097       14129.685       3.7590000      -1.1902500      0.10300000       341.54300       2.0893061     0.014274880
       2088.0000       288.65692       98862.418       14153.646       2.5650000     -0.73425000     -0.28625000       341.40600       2.0563165     0.015199583
       2093.0000       288.65726       98850.283       14182.403       3.3930000      -1.5665000      0.52225000       341.48600       2.0665978     0.013136581
       2098.0000       288.65598       98846.927       14195.405       2.9412500     -0.72375010      0.57850000       341.49400       2.1528449     0.019635215
       2103.0000       288.61071       98852.899       14151.437       4.0752500      0.16000000     -0.11575000       341.36500       2.2256214     0.013889964
       2108.0000       288.59200       98860.374       14129.010       4.7860000      -1.0070000    -0.014250000       341.22900       2.3128179     0.013630796
       2113.0000       288.60054       98878.748       14128.298       3.7660000     -0.22450000     0.044750000       341.60200       2.0971303     0.029805184
       2118.0000       288.60077       98888.613       14113.658       6.8490000     -0.37475000      0.34775000       341.21000       2.0446167     0.012244107
       2123.0000       288.58603       98900.202       14067.691       3.1832500      -1.8412500      0.35850000       341.52500       2.1487326     0.012337705
       2128.0000       288.59740       98903.493       14057.956       3.9670000      -2.6847500      0.41000000       341.37700       2.2259537     0.016007881
       2133.0000       288.61880       98894.958       14042.025       5.5035000      -1.1935000     -0.37900000       341.38400       2.0873680     0.015930325
       2138.0000       288.65034       98889.744       14068.198       3.9877500      -1.7090000      0.63125000       341.46500       2.1463620     0.013053329
       2143.0000       288.73839       98881.736       14180.143       4.4367500     -0.35475000     -0.22850000       341.40900       2.0010442     0.015395393
       2148.0000       288.76606       98873.715       14223.980       5.1492500      -1.2477500     -0.48175000       341.39100       2.0372970     0.012432652
       2154.0000       288.75626       98860.269       14252.303       5.3472500     -0.46750000     -0.20000000       341.62200       2.0720732     0.015147945
       2159.0000       288.75247       98857.293       14280.668       3.1632500      0.22100000    -0.012750000       341.41800       2.1047607     0.017419428
       2164.0000       288.69175       98855.037       14252.670       4.9415000      -1.4742500    -0.098500010       341.25300       1.9701892     0.014104851
       2169.0000       288.68945       98859.921       14273.514       5.8825000       1.2362500     -0.56575000       341.21300       1.9985537     0.023550022
       2174.0000       288.72522       98880.472       14344.806       3.9355000     -0.82025000     -0.42900000       341.51500       2.0166559     0.014571995
       2179.0000       288.75875       98889.600       14390.884       4.8397500     -0.98325000     -0.75050000       341.44100       2.0242610     0.015771907
       2184.0000       288.84538       98898.630       14468.080       3.7947500     -0.87175010    -0.095000010       341.47700       2.0620300     0.014791156
       2189.0000       288.86766       98903.435       14479.876       2.8765000     -0.17625000      0.36775000       341.70900       1.9703203     0.016396851
       2194.0000       288.84353       98906.766       14422.099       3.9337500     -0.40050000     0.061500000       341.67500       2.0827101     0.014454488
       2199.0000       288.85364       98899.898       14423.519       2.6590000      -1.1192500     -0.14675000       341.74600       2.0601058     0.015667047
       2204.0000       288.84337       98880.917       14411.979       2.8472500      -1.4557500      0.10375000       341.69800       2.0064055     0.015563251
       2209.0000       288.84679       98870.812       14414.970       4.5522500      -4.0210000      0.71925000       341.29200       1.9605948     0.017001128
       2214.0000       288.89519       98848.911       14490.847       5.3522500      -2.4185000     -0.41975000       341.16300       2.0307121     0.010470575
       2219.0000       288.91129       98844.992       14504.959       4.1242500     -0.38350000      0.32350000       341.32800       2.0762912     0.013885655
       2224.0000       288.89953       98858.665       14477.245       3.8220000      -3.6770000     -0.36975000       341.29000       2.0241594     0.015278654
       2229.0000       288.89925       98867.452       14454.071       5.4665000      -2.4322500     -0.18575000       341.44300       2.0083404     0.012703648
       2234.0000       288.87460       98886.155       14388.906       4.2445000      -1.3885000     0.083250000       341.43100       2.0227808     0.014823892
       2239.0000       288.90244       98895.064       14379.192       3.4782500      0.11250000       1.9530000       341.52600       1.9799627     0.018681776
       2245.0000       288.98538       98902.289       14399.690       5.3192500      -2.4537500      -1.0397500       341.31100       1.9948342     0.011484957
       2250.0000       289.02542       98901.770       14411.772       5.9442500     -0.36700000     -0.19650000       341.25400       2.0062096     0.015695789
       2255.0000       289.09893       98895.216       14466.282       5.3570000      -3.3170000     0.085000000       341.30600       1.9748920     0.015000729
       2260.0000       289.12593       98886.371       14479.638       4.1090000      -1.0635000      0.20625000       341.57100       2.1039375     0.014382424
       2265.0000       289.11171       98865.653       14450.915       4.2520000     -0.64800000      0.19275000       341.44800       2.0187200     0.010450956
       2270.0000       289.09587       98860.172       14463.340       5.0790000     -0.83675000      0.35850000       341.49900       2.0487476     0.016086942
       2275.0000       289.05898       98857.549       14505.988       6.8795000      -1.5557500     -0.14425000       341.39500       2.0201148     0.010694716
       2280.0000       289.03886       98859.118       14500.520       3.5167500      -1.3535000    -0.065000010       341.86200       1.9699008     0.012140145
       2285.0000       289.00138       98872.053       14506.000       5.2382500     -0.51150000    -0.012500000       341.20700       2.0812628     0.011863436
       2290.0000       288.98759       98880.155       14464.074       4.7547500     -0.50000000       1.0295000       341.59600       2.0818702     0.015614937
       2295.0000       288.97786       98890.938       14330.091       3.7095000      -1.8332500     -0.21000000       341.35500       2.0345774     0.014651383
       2300.0000       289.01005       98893.142       14289.472       3.7420000      0.38600000      0.49400000       341.59200       1.9925409     0.014453383
       2305.0000       289.05057       98892.870       14249.417       7.0160000     -0.66925000      0.55900000       341.62700       2.1219027     0.014425588
       2310.0000       289.13862       98890.024       14273.505       3.8037500      -3.2127500      0.46950000       341.87100       2.0223366     0.013631129
       2315.0000       289.33424       98878.793       14381.938       3.1247500      -1.3007500      0.24975000       342.04600       2.0334574     0.013163752
       2320.0000       289.40529       98870.840       14456.336       4.9502500      -2.0427500     -0.22000000       341.25600       2.0192520     0.016845930
       2325.0000       289.43295       98858.648       14547.622       4.9522500      -1.8562500    -0.091500010       341.53600       2.0306281     0.012489261
       2330.0000       289.48726       98858.153       14647.475       4.3245000      -1.4865000    -0.061500000       341.70300       2.1729634     0.018201347
       2336.0000       289.48979       98861.877       14781.899       3.9692500     -0.85625000     0.097250010       341.95900       2.0596372     0.014619279
       2341.0000       289.51822       98869.351       14860.683       4.6867500     -0.24425000      0.30350000       341.85600       2.0603092     0.012183356
       2346.0000       289.61553       98892.437       14966.086       3.8202500     -0.47175000     0.078000000       341.97600       2.0310730     0.012774293
       2351.0000       289.61935       98896.056       14989.517       2.2377500     -0.75900010      0.23300000       342.23400       2.1473351     0.012553194
       2356.0000       289.53599       98894.489       14937.206       2.2887500     -0.53775000     0.052250000       342.29100       1.9955954     0.013781685
       2361.0000       289.55310       98887.243       14925.530       3.8032500      0.13525000      0.51650000       342.32100       1.9728284     0.016488845
       2366.0000       289.56885       98866.392       14888.324       3.3950000      0.55000000      0.12050000       342.47600       2.0764000     0.011642500
       2371.0000       289.63621       98858.220       14870.651       2.5387500       1.1797500      0.54250000       342.77000       2.0694507     0.012437062
       2376.0000       289.78853       98846.908       14849.132       3.8812500       1.3155000     -0.59750000       342.13900       2.0821029     0.015860741
       2381.0000       289.87036       98849.161       14879.408       2.5460000      0.32000000      0.11550000       341.91700       2.0186432     0.012565512
       2386.0000       289.95336       98862.521       14927.085       3.9330000      0.40900000      0.32550000       342.06900       2.1946499     0.015954887
       2391.0000       289.99623       98872.254       14989.494       4.7487500      0.51650000     -0.38800000       341.79700       2.1665127     0.012991196
       2396.0000       290.01203       98890.498       15128.237       4.4220000     -0.25900000       1.1120000       341.63000       2.1214189     0.013430450
       2401.0000       290.00462       98897.833       15168.530       3.1465000     -0.19200000    0.0095000010       342.36100       2.0166256     0.019169411
       2406.0000       289.96448       98903.942       15171.991       4.0800000     -0.88925000     0.011000000       342.59000       2.0572782     0.011720860
       2411.0000       289.92540       98900.514       15169.159       6.8992510      -2.2045000     -0.20900000       341.30100       1.9734578     0.023416075
       2416.0000       289.85125       98886.436       15108.920       4.5805000      0.13475000    -0.033000000       341.56900       2.0457524     0.014457477
       2421.0000       289.82006       98880.425       15110.844       3.7072500      -1.1505000     0.032000000       341.57200       2.0420949     0.016241854
       2427.0000       289.80519       98867.463       15153.808       3.3615000     -0.50600000    -0.065750000       341.65200       2.0904979     0.016421087
       2432.0000       289.72451       98873.340       15086.356       3.6985000     -0.68350010      0.38975000       342.09800       2.0160197     0.013754945
       2437.0000       289.69357       98875.331       15046.413       4.6787500     0.034250000     -0.31275000       342.19300       2.0717673     0.014136663
       2442.0000       289.67493       98883.419       14972.858       4.2367500      0.67050000     -0.95875010       342.08400       2.0730387     0.015331357
       2447.0000       289.64382       98882.984       14891.254       2.9557500      0.65150000      0.69850000       342.29900       2.0629365     0.014483636
       2452.0000       289.62500       98877.620       14815.229       3.9445000       1.1702500     -0.12025000       342.02200       2.0536738     0.020995109
       2457.0000       289.65744       98865.683       14772.359       3.8877500      0.35800000     0.087750000       342.73700       2.0837861     0.016029093
       2462.0000       289.64595       98859.689       14716.071       4.4570000      0.71725000     -0.37900000       341.81800       1.9755439     0.021290325
       2467.0000       289.59992       98846.755       14628.140       4.2587500      0.96150000     -0.28925000       341.56200       2.0675948     0.012260902
       2472.0000       289.58393       98856.475       14579.966       4.4312500      0.25750000     -0.53825000       341.95800       2.0352863     0.012939181
       2477.0000       289.55489       98864.274       14558.014       3.7777500      0.62775000     -0.16375000       342.06400       2.0395204     0.013722555
       2482.0000       289.46994       98885.020       14578.696       3.5445000     0.012250000     0.097500000       342.29100       2.0513179     0.012789829
       2487.0000       289.43789       98893.609       14559.781       4.4145000     -0.28700000     -0.42400000       342.07400       2.0627087     0.012513931
       2492.0000       289.43042       98896.047       14534.123       4.7692500      -1.1472500      0.22000000       341.92400       2.0441511     0.014086593
       2497.0000       289.45620       98892.331       14518.019       2.6200000       1.0540000      0.61750000       342.81800       2.0319690     0.014440014
       2502.0000       289.42474       98887.787       14511.433       3.5515000     -0.91200010     -0.56450000       341.72200       2.1387240     0.013378788
       2507.0000       289.39923       98873.402       14468.337       2.7542500      0.74550000      0.62775000       342.26000       1.9999799     0.013812691
       2513.0000       289.36775       98871.797       14554.877       3.5490000     -0.65100000     -0.61725000       342.50600       2.0752128     0.012125199
       2518.0000       289.33899       98874.129       14574.395       2.6852500       1.1077500      0.27575000       342.40700       2.0258882     0.015937952
       2523.0000       289.38441       98886.228       14564.130       4.1287500      0.81800000    0.0057500000       342.16300       1.9876236     0.015659564
       2528.0000       289.36026       98892.036       14552.122       6.2735000      0.42575000     -0.40375000       341.36100       2.1526157     0.013146174
       2533.0000       289.24202       98901.164       14498.795       3.2375000      -1.0427500       1.3165000       342.38100       2.1273219     0.015577755
       2538.0000       289.18374       98902.686       14463.950       3.4777500     -0.81200000       1.5297500       342.57400       2.0132084     0.014749747
       2543.0000       289.13426       98898.047       14451.475       6.0767500      -1.5405000     -0.12325000       341.56300       2.0555511     0.014880224
       2548.0000       289.08563       98890.661       14416.157       6.1885000      -1.0557500     -0.13425000       341.28200       1.9723962     0.016944828
       2553.0000       289.08038       98869.550       14365.286       6.0790000     -0.64275000     -0.40250000       341.46200       2.0538873     0.014689392
       2558.0000       289.04909       98862.112       14321.170       5.4902500      0.77975000     -0.48650000       341.73200       2.0403343     0.017279602
       2563.0000       288.96106       98855.888       14241.325       5.1585000      0.40875000       1.3587500       341.90600       2.1036617     0.012746875
       2568.0000       288.93292       98857.546       14209.702       2.9450000      0.82225010      0.51975000       341.85400       2.0375714     0.016438086
       2573.0000       288.94408       98878.702       14212.169       5.0892500    -0.029500000      -1.2615000       341.36100       2.0840721     0.016696018
       2578.0000       288.94553       98888.421       14218.131       5.1122500     -0.20600000     -0.42150000       341.59900       2.0960375     0.015171161
       2583.0000       288.99093       98900.348       14256.466       4.2770000     0.087000000     -0.45650000       341.73500       2.1188246     0.013831498
       2588.0000       289.00965       98903.654       14291.776       4.7382500     -0.56800000     -0.46750000       341.45800       2.0822943     0.014423347
       2593.0000       288.98592       98897.607       14312.100       3.1072500     -0.72250000    -0.090500000       341.71200       2.0261685     0.016264907
       2598.0000       288.99738       98890.140       14366.055       4.4610000      0.56450000     -0.98150000       341.52600       1.9860762     0.022136568
       2604.0000       289.05184       98865.707       14484.127       3.2532500     -0.44075000     -0.19900000       341.40200       2.1758608     0.019848926
       2609.0000       289.05839       98860.506       14547.220       3.8007500     -0.43850000     -0.24975000       341.42400       2.0364617     0.017775837
       2614.0000       289.05658       98859.409       14627.463       4.5352500     -0.39000000     -0.61125000       341.66300       2.0753348     0.016175622
       2619.0000       289.05260       98864.693       14664.517       2.6795000     -0.28525000       1.1225000       341.68400       2.0723865     0.016821677
       2624.0000       288.99220       98894.187       14633.833       3.0465000      0.18775000    -0.093500000       341.63900       2.0194659     0.018569901
       2629.0000       288.98957       98901.009       14645.324       3.8472500     -0.84475000     -0.20425000       341.73100       2.0475620     0.012116699
       2634.0000       289.05050       98899.099       14680.173       3.1920000       1.0230000     -0.28875000       341.98800       2.1055718     0.013363660
       2639.0000       289.05667       98896.575       14674.400       2.5580000     -0.93425010       1.0642500       341.79200       1.9793553     0.016201606
       2644.0000       289.03121       98874.292       14646.499       2.9410000    -0.041250000      0.42150000       341.77700       2.0365057     0.014031528
       2649.0000       289.05521       98871.532       14646.098       3.3950000     -0.73400000      0.16250000       341.80900       2.0428667     0.014110294
       2654.0000       289.04301       98881.125       14605.204       5.4955000      0.77300010     0.083000000       341.47100       2.0802067     0.016666096
       2659.0000       289.10731       98886.909       14619.666       4.2300000     -0.11700000     -0.49075000       341.53600       1.9362114     0.017145158
       2664.0000       289.31740       98904.117       14712.485       3.2862500     -0.78550000      0.11850000       341.71800       2.0364845     0.015056442
       2669.0000       289.39537       98909.611       14758.469       4.4417500     -0.57425000      -1.0297500       341.60100       2.1038048     0.014959976
       2674.0000       289.44829       98910.043       14788.479       6.1077500     -0.29625000     -0.65750000       341.52400       2.0131511     0.015245932
       2679.0000       289.47649       98905.427       14842.753       5.3350000      0.10775000     0.054750000       341.58500       2.0672273     0.015968604
       2684.0000       289.38023       98889.460       14878.057       4.7067500      0.83525000      0.20575000       341.35100       2.0423636     0.013393402
       2689.0000       289.39198       98881.879       14955.296       3.5210000       1.5140000     -0.14800000       341.55500       2.0407552     0.011758189
       2695.0000       289.49688       98865.832       15141.303       5.7615000     -0.34575000     -0.13825000       341.30900       2.0169211     0.018405002
       2700.0000       289.52073       98868.050       15200.236       5.2905000      -2.5467500     -0.39050000       341.24300       2.1998316     0.018135998
       2705.0000       289.54575       98888.181       15225.887       3.6392500     -0.17150000     -0.94850000       341.69500       2.0407524     0.011462171
       2710.0000       289.56924       98894.487       15246.480       3.1005000      -1.1797500     -0.26100000       341.76800       2.1607601     0.012746483
       2715.0000       289.53158       98908.024       15189.263       3.7487500     -0.56225000     -0.58825000       341.75400       2.0909798     0.018885992
       2720.0000       289.55361       98908.305       15183.734       4.4222500     -0.25750000      0.29975000       341.80500       1.9869441     0.015182227
       2725.0000       289.64015       98895.771       15224.814       3.8345000       1.0397500       1.0285000       341.73900       2.1073927     0.017684709
       2730.0000       289.67381       98885.451       15215.753       1.8885000      -1.0437500       1.2190000       342.27600       2.0672461     0.013038187
       2735.0000       289.68773       98862.355       15175.889       3.1602500      -1.0927500      0.15800000       342.06200       2.1312502     0.011715205
       2740.0000       289.71789       98861.669       15159.342       2.6367500     -0.54000000      0.19050000       342.14100       2.0485448     0.016624833
       2745.0000       289.73155       98871.886       15130.590       1.8397500      -3.0997500     -0.11650000       341.77700       2.1897421     0.015923857
       2750.0000       289.76775       98877.800       15116.482       4.3780000      -1.4677500    -0.039250000       341.62200       1.9759799     0.018153329
       2755.0000       289.81870       98902.319       15107.132       2.9530000      -1.0892500     -0.65925000       341.69000       2.0465341     0.019939329
       2760.0000       289.88430       98905.953       15129.751       4.5550000      -1.0022500     -0.25825000       342.09600       2.0393232     0.017061868
       2765.0000       289.97026       98893.139       15138.969       3.6837500      -1.7192500     -0.49550000       341.20100       2.1314989     0.014785757
       2770.0000       290.04053       98887.407       15223.894       3.6900000      -1.2000000      0.48975000       341.92600       2.0496518     0.013593907
       2775.0000       290.15084       98872.946       15416.505       4.8182500     -0.78725000     -0.27700000       341.98000       2.0344580     0.014624903
       2780.0000       290.18208       98873.101       15503.967       4.6850000     -0.97975000      0.83975010       342.53500       2.1319258     0.013759181
       2786.0000       290.15673       98884.017       15617.580       3.7605000      -1.6787500     -0.18150000       341.90700       2.1015463     0.015455046
       2791.0000       290.14799       98888.857       15647.867       4.8250000      -1.6280000     -0.23225000       342.07800       2.0730684     0.017592469
       2796.0000       290.09739       98902.938       15595.284       2.9110000      0.43450000      0.67850010       342.47800       2.1530605     0.019951967
       2801.0000       290.08649       98902.480       15559.287       2.9160000     -0.12975000      0.41500000       342.30200       2.0390399     0.020260200
       2806.0000       290.10021       98894.050       15508.296       3.4845000    -0.081500000     -0.18125000       342.12300       2.0465532     0.021007362
       2811.0000       290.10014       98884.598       15453.150       3.4535000      -1.0695000     0.070000000       342.60800       2.0404852     0.019785231
       2816.0000       290.09976       98860.559       15365.887       3.4505000      -1.0775000      0.82400010       341.96900       2.1425870     0.015707733
       2821.0000       290.09958       98863.611       15303.789       4.4427500      -1.7147500      0.25600000       342.00400       2.0180517     0.015573635
       2826.0000       290.08290       98877.095       15220.956       3.6917500     -0.43650000      0.18625000       342.32000       2.0318163     0.020508448
       2831.0000       290.12094       98885.724       15234.289       4.5177500     -0.38175000     -0.24125000       341.76200       2.0769150     0.014548786
       2836.0000       290.22066       98915.963       15323.650       3.6895000     -0.95575000     -0.20325000       342.26000       2.0290055     0.015323517
       2841.0000       290.20486       98915.433       15320.065       5.8490000    -0.031000000      0.18825000       342.40200       1.8069536     0.025724896
       2846.0000       290.17664       98891.087       15344.153       5.5335000      0.76625000     -0.34775000       342.05700       2.0353623     0.014957481
       2851.0000       290.12085       98885.062       15331.338       5.3305000       1.1975000     -0.98200010       342.03300       2.0533612     0.018076755
       2856.0000       289.94557       98870.675       15221.535       4.2167500      0.50775000     -0.14325000       341.91900       2.1181639     0.013390253
       2861.0000       289.89227       98873.934       15191.906       4.4300000     -0.94725010     -0.13750000       342.15600       2.0362494     0.017193524
       2866.0000       289.90683       98894.447       15229.718       4.1327500      -1.2437500     -0.10425000       341.95500       2.0965384     0.015027572
       2871.0000       289.87710       98901.683       15193.663       3.3965000      -1.0480000    0.0020000000       342.24200       2.0082336     0.021976888
       2877.0000       289.84907       98914.636       15106.086       3.6192500      -1.0060000     -0.15900000       342.24800       2.0996731     0.021434958
       2882.0000       289.81468       98893.659       15053.429       4.1047500      -1.0917500     -0.46050000       342.66600       1.9609499     0.018532376
       2887.0000       289.79372       98888.376       15032.381       4.7780000     -0.56575000      0.55975000       342.75800       1.9923999     0.019305178
       2892.0000       289.84527       98883.720       15128.441       6.1817500     -0.53000000     -0.51475000       342.36700       1.9875533     0.021302163
       2897.0000       289.81949       98882.073       15120.019       6.1055000      -1.3112500     -0.54300000       341.52500       2.1422961     0.024873787
       2902.0000       289.75678       98886.579       15067.385       4.4790000    -0.098000000      0.66900000       342.18300       2.0064760     0.015797553
       2907.0000       289.65319       98907.766       14982.326       6.2680000      -1.1707500      0.40550000       341.81900       2.0860325     0.014250095
       2912.0000       289.59256       98910.245       14901.285       4.2310000    -0.064500000     -0.22275000       341.84400       2.1328465     0.012895129
       2917.0000       289.48255       98907.635       14743.461       3.8552500     -0.32750000     0.023000000       342.53300       2.0457053     0.015560240
       2922.0000       289.52929       98888.171       14722.625       5.5745000      -1.0245000      0.35350000       342.06300       1.9850054     0.025122288
       2927.0000       289.51208       98882.489       14659.352       7.1197500       1.9947500     -0.10075000       341.49000       2.0819042     0.013643405
       2932.0000       289.46974       98882.299       14571.610       6.5725000     -0.36550000     0.025750000       341.73600       2.1197082     0.016076414
       2937.0000       289.41256       98882.797       14485.822       5.7555000    -0.063500000      0.83450000       341.88400       2.0644948     0.018804486
       2942.0000       289.33080       98888.211       14390.967       5.4940000     -0.66475000     -0.56325000       341.67600       2.0652118     0.013802074
       2947.0000       289.18917       98909.271       14273.401       6.8935000      0.52625000     -0.11325000       341.65400       1.9541448     0.023499511
       2952.0000       289.13176       98907.462       14172.611       6.4187500      0.39575000      0.46700000       341.59700       2.0374719     0.020253091
       2957.0000       289.09374       98896.527       14078.848       5.7462500     -0.32425000     -0.20025000       341.63200       2.0449820     0.013394625
       2962.0000       289.05466       98875.710       13926.876       4.0185000     -0.32000000      0.17500000       341.65100       2.0361932     0.014367077
       2968.0000       289.04233       98870.725       13843.485       4.6317500      0.46175000      0.32450000       341.46700       2.0903108     0.017718935
       2973.0000       289.04368       98886.482       13825.134       3.1800000       1.0395000     -0.21475000       341.56000       2.0592510     0.013445525
       2978.0000       289.04497       98891.498       13820.694       2.5250000     -0.24500000      0.74300000       341.88800       2.0534679     0.019887212
       2983.0000       289.10476       98907.297       13913.006       5.5362500     -0.97850010    0.0010000000       341.25200       2.1276938     0.019923955
       2988.0000       289.11253       98909.472       13950.074       4.3540000      -1.2692500     -0.29050000       341.59300       2.0903208     0.020139581
       2993.0000       289.05200       98889.921       13932.905       4.7702500     -0.10850000     -0.13450000       341.52700       2.0150556     0.018914483
       2998.0000       289.04323       98883.208       13967.753       3.5497500     -0.73250000     -0.28675000       341.43500       2.0321819     0.017078286
       3003.0000       289.05858       98872.515       14043.437       3.5092500     -0.94525000       1.0057500       341.72800       2.0860321     0.015326396
       3008.0000       289.04866       98872.257       14073.415       5.4485000     -0.93150000     -0.20200000       341.48300       2.0993940     0.016611768
       3013.0000       289.05574       98893.990       14123.560       4.3357500    0.0052500000       1.5977500       341.66100       2.0762494     0.018757420
       3018.0000       289.05463       98898.681       14142.972       5.5842500     -0.58875000     -0.32375000       341.47200       2.0444241     0.021016720
       3023.0000       289.00966       98898.537       14073.391       5.4962500     -0.89700000     0.082000000       341.41600       2.0927665     0.011851235
       3028.0000       288.99105       98896.997       14061.063       5.6832500      -1.2417500     -0.79450010       341.53600       2.1002807     0.017567508
       3033.0000       289.00057       98880.050       14095.065       6.0010000     -0.90200010     0.098250000       341.56200       2.1141837     0.020133157
       3038.0000       289.00080       98872.530       14095.835       4.4655000      -1.6270000      0.40250000       342.02900       2.0566173     0.015707045
       3043.0000       288.99993       98865.718       14101.509       5.9595000     -0.37975000      0.52125000       341.29700       1.9776318     0.022620100
       3048.0000       288.99981       98868.436       14097.966       4.5047500      -2.6597500      0.72250000       341.88400       2.1041177     0.014611551
       3053.0000       289.01405       98889.729       14056.477       5.3017500      0.63650000      0.14900000       341.67100       2.0350260     0.024320687
       3059.0000       288.99913       98893.438       14033.092       4.6497500      -2.1025000     -0.30600000       341.52200       2.0302662     0.020550561
       3064.0000       288.97479       98889.220       14039.121       5.0590000     -0.62300000     -0.75725000       341.72700       2.0750984     0.015489117
       3069.0000       288.94130       98891.818       14022.660       5.0607500     0.073250000      -1.0140000       341.30400       2.0632698     0.018054389
       3074.0000       288.86723       98882.417       13997.890       5.5690000     -0.22775000     -0.16325000       341.07800       2.0709357     0.015842068
       3079.0000       288.83124       98883.231       13975.758       6.4837500      -1.5505000     -0.36725000       341.23700       2.0130727     0.017754709
       3084.0000       288.80519       98906.684       13948.868       4.1515000      -1.5725000      0.42950000       341.74800       2.0883464     0.015899798
       3089.0000       288.78901       98909.461       13914.047       4.3620000     -0.54400000      0.23900000       341.28900       2.0513426     0.017176060
       3094.0000       288.79999       98899.702       13872.616       3.2777500      -2.8820000      0.42625000       341.30800       2.0359445     0.018300393
       3099.0000       288.80003       98893.995       13840.042       2.3297500      0.58700000      0.91725000       341.63300       2.0435405     0.021501934
       3104.0000       288.78684       98872.676       13777.789       5.4002500     -0.40825000      0.15775000       341.60700       2.0338394     0.013031985
       3109.0000       288.80035       98871.114       13766.883       4.5460000      0.29625000     0.012500000       341.52000       2.0547507     0.016356878
       3114.0000       288.83817       98887.269       13790.436       3.5807500     -0.29625000      0.18175000       341.69200       2.0466925     0.013776415
       3119.0000       288.85808       98892.229       13820.474       6.4652500     -0.41800000     -0.30475000       341.20400       2.0721576     0.015369394
       3124.0000       288.89519       98908.739       13890.833       6.5327500      -2.1205000     -0.44025000       341.26800       2.0966594     0.013945526
       3129.0000       288.91131       98909.038       13943.721       5.1460000     -0.19200000      0.29925000       341.53100       2.1037869     0.012748023
       3134.0000       288.89996       98885.820       14006.586       5.1182500       1.5397500      0.19775000       341.54100       2.0810079     0.015069521
       3139.0000       288.89996       98882.445       14049.165       7.9610000     0.031750000     -0.40425000       341.29600       2.0362373     0.012773781
       3145.0000       288.90015       98882.207       14095.302       4.3717500      0.11100000       1.1617500       341.71400       2.1181224     0.017031027
       3150.0000       288.90031       98885.710       14109.295       4.7600000       1.4927500     -0.36300000       341.41200       2.2075466     0.016058785
       3155.0000       288.91118       98907.835       14109.520       5.0282500     -0.71200000      0.15650000       341.37900       1.6480020     0.048556853
       3160.0000       288.89502       98909.094       14083.169       3.5347500     -0.41150000      0.11400000       341.51700       2.0411569     0.013769607
       3165.0000       288.84670       98897.795       14001.585       4.0167500     0.028000000      0.28100000       341.61400       2.0521154     0.019437981
       3170.0000       288.84276       98893.276       13982.517       3.4842500     -0.28450000      0.62125000       341.79400       2.0741909     0.013371261
       3175.0000       288.84224       98877.150       13968.310       2.5722500     -0.10225000      0.26150000       341.75900       2.0742435     0.014833652
       3180.0000       288.84876       98878.027       13966.508       3.0667500      -1.2517500      0.35000000       341.75800       2.0370775     0.015432292
       3185.0000       288.89890       98896.272       14006.350       2.3332500     -0.32550000      0.29950000       342.00400       2.0148989     0.014894506
       3190.0000       288.91297       98897.474       14034.191       3.0000000    -0.088750000      0.50650000       341.75000       2.0603979     0.013241563
       3195.0000       288.89997       98898.349       14056.988       2.7260000      0.94075010      0.32100000       341.89900       2.0575464     0.012421960
       3200.0000       288.90002       98894.886       14076.209       3.2532500    -0.061500000     -0.18025000       341.89400       2.0196681     0.016823491
       3205.0000       288.91126       98871.880       14123.827       6.1547500      -1.4025000     -0.49400000       341.22700       2.0912783     0.016563069
       3210.0000       288.89520       98872.290       14121.746       3.7312500      0.31300000      0.53800000       341.58700       2.0566535     0.014347061
       3215.0000       288.84672       98887.912       14063.104       5.2820000      0.30975000     -0.60200010       341.27100       2.0155468     0.015805693
       3220.0000       288.84279       98892.899       14058.799       5.7662500     -0.82325010      0.50575000       341.66700       2.0464887     0.015374218
       3225.0000       288.83186       98908.899       14048.527       4.9235000     -0.37950000     -0.71350000       341.52500       1.9980765     0.015193808
       3230.0000       288.85437       98907.516       14066.221       4.4785000      -1.8517500      0.69350000       341.60300       2.0901392     0.013284707
       3236.0000       288.96826       98882.332       14163.212       4.6090000     -0.18175000      0.10525000       341.45700       2.0304315     0.013772683
       3241.0000       288.96225       98882.694       14160.886       3.8015000      0.29050000    0.0037500000       341.82300       2.0773221     0.014366141
       3246.0000       288.91088       98888.891       14126.259       6.0442500      -1.9385000     -0.26225000       341.38500       2.0362675     0.012592478
       3251.0000       288.88224       98891.689       14091.043       4.6540000      -2.0332500     -0.10600000       341.54200       2.0539874     0.012063100
       3256.0000       288.78517       98909.588       13991.190       3.8995000     -0.65700000    -0.068500000       341.57200       2.0899479     0.014511069
       3261.0000       288.78112       98906.576       13974.042       3.7485000      -1.1562500      0.47700000       341.73400       2.0799359     0.013939300
       3266.0000       288.84483       98882.659       14002.973       3.4485000     -0.60550000      0.29425000       341.74200       2.0297963     0.014313153
       3271.0000       288.86483       98883.045       13995.031       2.5767500      -1.4515000      0.13850000       341.75300       2.0362627     0.012226126
       3276.0000       288.90223       98887.594       14003.201       3.1697500      -1.3707500     -0.24850000       341.40000       2.1034118     0.019079390
       3281.0000       288.91358       98892.088       13999.313       5.8515010     -0.61550000      0.10250000       341.57100       2.0422869     0.012606181
       3286.0000       288.88208       98915.225       13949.070       4.0527500     -0.20000000    -0.058000000       341.39000       2.0591518     0.013523625
       3291.0000       288.91936       98912.351       13978.491       3.4915000      -1.6842500     0.056500000       341.76900       1.9402536     0.021195329
       3296.0000       288.99244       98888.215       14056.166       4.1430000      -2.3695000     -0.54100000       341.79900       2.0409372     0.013965867
       3301.0000       289.03226       98887.668       14115.614       4.7637500     -0.86175010      0.10050000       341.58500       2.0320516     0.012377331
       3306.0000       289.11577       98887.093       14212.360       4.9480000     -0.23100000     -0.34500000       341.27000       2.0546751     0.013687743
       3311.0000       289.11888       98890.707       14273.524       4.0475000     -0.38675000     -0.32100000       341.55700       2.0546363     0.015419123
       3316.0000       289.06221       98914.785       14326.477       3.7855000     -0.52300000     -0.15675000       341.56800       2.1529746     0.013699956
       3321.0000       289.02304       98911.708       14344.493       4.6602500     -0.69125000     -0.88125000       341.63200       2.0456436     0.012643239
       3327.0000       288.94858       98887.900       14353.359       2.7017500    -0.094750000      0.25825000       341.90200       2.0043214     0.016127606
       3332.0000       288.86932       98885.292       14250.060       3.8652500      -1.5547500      0.21750000       341.70800       1.9814892     0.015023316
       3337.0000       288.83732       98882.901       14192.809       1.9027500      -1.3450000     -0.41425000       341.88700       1.9792729     0.014382694
       3342.0000       288.84500       98900.390       14136.684       2.8915000     -0.93050000      0.53650000       341.62300       1.9747170     0.019537996
       3347.0000       288.84375       98904.177       14078.213       4.2627500     -0.65200000      0.50750010       341.29000       2.0915649     0.014021314
       3352.0000       288.85478       98900.589       14029.737       5.3210000      -2.3682500     -0.18900000       341.56300       1.9938401     0.016185945
       3357.0000       288.91271       98883.774       14015.942       3.3827500     -0.40525000      0.30675000       341.73800       2.0082254     0.014161152
       3362.0000       288.89976       98884.239       13968.068       2.9695000      -1.0765000      0.46775000       341.70700       2.0252962     0.014286304
       3367.0000       288.84943       98883.586       13890.555       3.5552500      0.47800000      0.16100000       341.51100       2.1733933     0.014093318
       3372.0000       288.81492       98900.167       13868.707       3.3505000      -2.3985000     -0.41400000       341.49800       2.1152948     0.012672774
       3377.0000       288.79333       98904.083       13854.036       4.1677500     -0.91300000     -0.22700000       341.76600       2.0685376     0.019828638
       3382.0000       288.80011       98886.825       13861.854       4.9807500      -1.9115000     -0.66275000       341.46900       2.0555209     0.015418417
       3387.0000       288.80009       98883.516       13877.926       3.7110000      0.49725000     -0.48800000       341.31800       2.1489454     0.017970056
       3392.0000       288.80001       98883.872       13902.523       4.7462500      -2.3087500      0.20475000       341.83300       2.0246527     0.013809839
       3397.0000       288.79393       98882.580       13928.167       5.2947500      0.31275000      -1.2272500       341.14600       2.0265738     0.013567752
       3402.0000       288.81559       98888.240       13983.260       4.4980000      -1.0962500    -0.068000000       341.40100       2.0231804     0.015145100
       3407.0000       288.85637       98909.714       14068.932       4.5222500     -0.49875000     0.037500000       341.69400       1.9746325     0.018450551
       3412.0000       288.86971       98892.008       14138.148       4.9225000      -2.6230000      0.64425000       341.71500       2.0424564     0.012705852
       3418.0000       288.85792       98888.208       14168.412       5.2815000      -2.5570000     -0.37650000       341.53800       2.0773365     0.014426206
       3423.0000       288.77498       98884.224       14121.383       3.5857500      -2.0482500      0.30775000       341.57000       2.0010698     0.012868302
       3428.0000       288.73671       98882.761       14101.450       3.7075000      -1.2367500      0.93600000       341.81000       2.0427448     0.012915094
       3433.0000       288.70967       98901.540       14064.112       4.0642500     -0.58950000      0.35625000       341.78000       2.0755525     0.012431004
       3438.0000       288.69085       98903.737       14038.886       4.0775000    -0.031750000     -0.24150000       341.65400       2.0767361     0.014908529
       3443.0000       288.71450       98884.457       14054.038       3.6877500     -0.37100000      0.22175000       341.81000       2.0575972     0.013900378
       3448.0000       288.70301       98882.971       14024.651       3.1650000     -0.64625000     0.013250000       341.97700       2.0381232     0.011426490
       3453.0000       288.65211       98886.990       13943.818       5.0637500      -1.8722500     -0.82025000       341.37900       1.9925030     0.014153571
       3458.0000       288.64347       98889.407       13909.895       3.4572500    0.0042500000      0.17150000       341.93400       2.1425384     0.013042805
       3463.0000       288.64465       98912.122       13873.189       5.4520000     -0.49200000     -0.96975000       341.46700       2.1297702     0.012491064
       3468.0000       288.64584       98915.361       13850.466       4.6722500      -2.0430000      0.24900000       341.76800       2.0653451     0.011862140
       3473.0000       288.70477       98892.326       13893.842       4.8077500      -2.8162500      0.46650000       341.58600       2.0391088     0.015213801
       3478.0000       288.71235       98887.735       13890.861       4.8230000      -1.2605000     -0.14150000       341.62600       2.0632226     0.015171764
       3483.0000       288.65211       98882.553       13828.550       5.2222500      -1.0762500    -0.023250000       341.46000       2.1138743     0.012182103
       3488.0000       288.64353       98882.239       13821.649       4.9617500      -2.4197500    -0.025250000       341.60000       2.0617664     0.014390975
       3493.0000       288.63043       98906.461       13811.492       4.9217500      -3.3272500      0.18200000       341.31800       2.0003702     0.016293340
       3498.0000       288.64318       98909.651       13838.193       4.9787500      -2.8215000     -0.27800000       341.21800       2.0310274     0.013778318
       3503.0000       288.69696       98891.113       13924.935       5.0732500      -2.8762500     -0.17700000       341.47200       2.0577004     0.015789399
       3509.0000       288.77207       98887.963       14024.728       4.9420000      -1.2327500    -0.091750000       341.65800       2.0342821     0.013287779
       3514.0000       288.85901       98882.381       14124.763       3.2375000     -0.11800000    -0.095000010       341.53500       2.1329659     0.019118398
       3519.0000       288.92846       98883.294       14225.763       5.9945000      -1.3965000     -0.12325000       341.25200       2.0406112     0.012189629
       3524.0000       289.04110       98907.569       14383.097       5.3117500     -0.82625000     -0.22000000       341.43300       2.0173541     0.012194439
       3529.0000       289.07999       98908.909       14448.942       3.5800000     -0.31775000     -0.67200010       341.56300       2.0587184     0.015021830
       3534.0000       289.04440       98890.882       14468.793       3.7127500      -2.0100000      0.60875000       341.47000       1.9858445     0.014280166
       3539.0000       289.05445       98888.625       14483.058       2.9627500     0.022750000     0.057750000       341.87400       1.9878198     0.014199694
       3544.0000       289.01762       98882.631       14404.553       3.4395000      0.35125000      0.71050010       341.89800       2.0369330     0.014667222
       3549.0000       289.04886       98883.495       14398.702       3.2827500     -0.27400000     -0.12625000       341.74200       2.0518180     0.015808588
       3554.0000       289.19824       98907.904       14461.443       4.2240000     -0.15675000      0.37500000       341.69400       2.0601220     0.011416173
       3559.0000       289.22778       98909.466       14459.242       2.7962500      0.74275000      0.44425000       341.74400       2.0397933     0.015979700
       3564.0000       289.20074       98889.330       14447.360       3.2565000     -0.94075010      0.40900000       341.79100       2.0491950     0.014037215
       3569.0000       289.20677       98888.458       14424.632       2.2865000      0.43450000      0.81250010       342.31100       2.1126512     0.019026831
       3574.0000       289.14698       98887.025       14343.493       5.0982500      0.85525010      0.34025000       341.49100       2.0379444     0.012927846
       3579.0000       289.13490       98888.605       14302.496       3.9737500      0.77300010      0.72175000       341.74900       2.0478426     0.023155557
       3584.0000       289.16921       98913.347       14267.708       5.2355000     -0.40975000     0.037250000       341.50900       2.0888221     0.015976977
       3589.0000       289.21342       98914.368       14262.835       4.4965000      0.35275000      0.44625000       341.78900       2.0749058     0.015490000
       3594.0000       289.27763       98889.588       14273.021       4.5810000      0.88250010     -0.61650000       341.65700       2.0753301     0.013707608
       3600.0000       289.32589       98887.120       14315.422       4.5100000     -0.76400010     -0.20000000       341.64000       1.9611028     0.022828657
       3605.0000       289.39904       98888.607       14399.671       3.4665000       1.0467500     0.016500000       341.92200       2.0823486     0.013949413
       3610.0000       289.42604       98889.555       14457.841       6.1432500      0.57575010     0.019000000       341.36400       2.0401169     0.015212359
       3615.0000       289.41170       98909.202       14542.172       6.1505000      0.45200000      0.15325000       341.73900       2.0086229     0.012934940
       3620.0000       289.39586       98907.927       14573.821       4.0935000       1.5222500     0.021000000       341.59300       2.1192117     0.014630960
       3625.0000       289.34718       98883.240       14563.990       4.8725000     -0.44125000     -0.15650000       341.22100       2.1020978     0.014377533
       3630.0000       289.34354       98882.351       14578.363       2.4647500      0.52400000      0.38650000       342.42800       2.0642280     0.013113086
       3635.0000       289.34346       98890.553       14578.311       3.7457500      0.53225000     -0.13300000       342.09300       2.0148216     0.013035146
       3640.0000       289.34981       98889.427       14576.561       3.8952500       1.0262500      0.22975000       342.02400       2.0479249     0.012397199
       3645.0000       289.39964       98894.840       14593.500       4.8535000       1.9210000    -0.017500000       341.56200       2.0523114     0.013941314
       3650.0000       289.41365       98897.550       14585.861       6.2090000     0.050750000      -1.0055000       341.16700       2.0540812     0.013516316
       3655.0000       289.38854       98887.876       14541.625       5.5570000      0.76975010     -0.23025000       341.55900       2.0974257     0.015308892
       3660.0000       289.40443       98889.368       14525.346       5.0020000      0.21900000      0.14325000       341.52100       2.1223841     0.017519041
       3665.0000       289.43050       98909.060       14493.834       3.1220000    -0.019750000     -0.25375000       342.78500       2.0127660     0.013673472
       3670.0000       289.46733       98907.218       14519.940       3.0080000      0.43475000      0.27750000       342.45800       2.1148971     0.013141448
       3675.0000       289.58519       98888.870       14617.100       2.5672500      0.14250000      0.24875000       342.73100       2.0126644     0.015274055
       3680.0000       289.55359       98888.760       14625.270       3.5317500       1.3297500     -0.32325000       342.62100       2.0743281     0.015345573
       3686.0000       289.41603       98887.682       14643.023       4.0325000      0.36950000     -0.21200000       342.07300       2.0763839     0.015175656
       3691.0000       289.34739       98891.172       14594.545       4.9800000       1.1582500      0.31025000       341.89600       2.0546029     0.012939909
       3696.0000       289.18759       98915.171       14441.863       3.1445000     -0.30150000      0.29925000       342.64900       2.0110784     0.015895780
       3701.0000       289.14337       98912.170       14370.536       2.9542500      0.31300000      0.10200000       342.01300       2.1077012     0.012711560
       3706.0000       289.19097       98888.493       14301.131       4.9232500      0.32475000     -0.64975010       341.13500       2.0122444     0.012950395
       3711.0000       289.20939       98888.013       14266.122       3.4005000       1.4857500       1.2050000       342.04900       2.0838024     0.014008544
       3716.0000       289.23618       98890.027       14248.769       3.0442500     -0.13400000      0.24625000       342.37100       2.0308524     0.015317004
       3721.0000       289.27545       98887.959       14266.568       5.5660000     -0.23025000      0.12650000       342.53300       2.0316324     0.013295788
       3726.0000       289.35726       98898.449       14329.508       3.3992500      -1.0017500      0.37375000       342.43800       2.0491799     0.013811740
       3731.0000       289.36995       98895.153       14362.387       3.4082500      0.14575000     -0.20975000       342.40100       2.1034026     0.022648992
       3736.0000       289.36522       98870.986       14427.026       2.1252500     -0.44950000      0.52725010       342.53100       2.0270373     0.013645484
       3741.0000       289.33791       98872.975       14432.178       4.8150000      0.67350010      0.65000000       342.39800       1.9993529     0.022716960
       3746.0000       289.22420       98891.143       14376.631       3.8037500     -0.39300000      0.31350000       342.38700       2.0476839     0.015734868
       3751.0000       289.24891       98892.395       14394.827       3.8247500     -0.77550010     -0.31425000       342.25200       2.1033178     0.018644316
       3756.0000       289.32332       98896.394       14413.661       2.4945000     -0.10875000      0.51425000       342.91200       2.0003809     0.014810536
       3761.0000       289.39198       98898.676       14456.355       4.1382500      0.28325000      0.12675000       342.44400       2.0332236     0.013069238
       3766.0000       289.56255       98887.653       14550.249       5.7807500      0.66550000     -0.18175000       341.19400       2.0266193     0.013956504
       3771.0000       289.59765       98890.104       14617.640       4.0112500      0.17025000     -0.18700000       341.25700       2.0138651     0.014369811
       3777.0000       289.55562       98909.211       14695.251       3.1557500     -0.27300000    -0.090750000       341.85000       2.0052667     0.017332024
       3782.0000       289.51474       98890.680       14750.737       6.3312500     -0.35250000   -0.0080000000       341.86400       1.9581318     0.021806947
       3787.0000       289.49405       98888.371       14773.373       3.4785000     -0.91725000      0.20225000       341.35100       2.0145188     0.014190380
       3792.0000       289.53011       98889.869       14736.370       4.5270000     -0.67475000    -0.076250000       342.01600       2.1367968     0.014058390
       3797.0000       289.51283       98888.532       14712.342       3.5852500      -1.2372500      0.58425000       342.16500       2.0466464     0.014131768
       3802.0000       289.47096       98890.904       14683.476       5.5692500     -0.78950010     -0.12800000       342.34500       2.0484888     0.012685801
       3807.0000       289.40195       98909.304       14652.069       4.8295000      0.86750010     -0.14725000       341.39000       2.0766852     0.015034140
       3812.0000       289.36152       98906.470       14585.359       5.6990000      0.82100000      0.54175000       342.00600       2.0577515     0.018768882
       3817.0000       289.30691       98887.773       14518.534       3.8312500     0.097500000     -0.26550000       342.00300       2.1118528     0.012299445
       3822.0000       289.17840       98898.264       14343.042       4.6062500     -0.15900000      0.36050000       342.10400       2.0615965     0.012769928
       3827.0000       289.13441       98896.577       14218.456       4.2630000     -0.23700000     0.053500000       341.90800       1.9474945     0.019218154
       3832.0000       289.10464       98889.282       14091.247       5.1600000      0.89900000     -0.21900000       341.82600       2.0940435     0.015061407
       3837.0000       289.08116       98890.290       13990.038       4.6730000     -0.28575000    -0.051250000       341.83100       2.0803575     0.014483982
       3842.0000       289.09454       98891.297       13915.405       3.1087500      0.34725000      0.53800000       342.21800       2.0778222     0.014695440
       3847.0000       289.21287       98882.573       13874.183       3.6717500      0.39800000     -0.42125000       341.69300       2.0278650     0.015683258
       3852.0000       289.22996       98885.220       13858.779       2.7202500      -1.5482500     -0.37625000       342.38400       2.0540179     0.012776434
       3857.0000       289.18843       98904.013       13853.036       2.3530000     -0.68900000      0.14625000       342.26000       1.9663821     0.019447841
       3862.0000       289.26139       98885.140       13960.359       2.8747500    -0.047500000      0.19650000       342.30000       2.2960754     0.014625559
       3868.0000       289.31008       98882.614       14069.161       1.8780000      -1.6035000      0.26600000       342.37600       2.0345685     0.015918245
       3873.0000       289.38135       98892.602       14214.833       3.4945000     -0.77300010     -0.14025000       341.87300       2.0380062     0.017777658
       3878.0000       289.41833       98890.490       14318.161       2.4742500      0.59825000      0.30325000       342.04600       1.9853952     0.019972207
       3883.0000       289.38584       98888.497       14377.771       2.3202500     -0.89875010      0.47450000       342.29700       2.1003963     0.013490758
       3888.0000       289.39700       98891.362       14457.167       2.9122500     -0.58625000      0.17650000       342.36300       2.0074829     0.014705987
       3893.0000       289.46204       98884.137       14587.722       3.1637500     -0.25800000     -0.72075000       342.27000       2.0798275     0.014403237
       3898.0000       289.45915       98882.670       14619.612       2.4797500     -0.37575000    -0.052250000       342.23300       2.0437028     0.013819079
       3903.0000       289.40809       98899.969       14593.877       1.5112500     -0.35750000      0.47250000       342.60600       2.0743148     0.016686443
       3908.0000       289.39837       98903.383       14573.425       3.1055000     -0.59025000      0.58725010       342.31200       2.0352243     0.014458978
       3913.0000       289.35344       98889.144       14452.226       2.8270000      -1.1137500     -0.19750000       342.01200       2.0437588     0.013781920
       3918.0000       289.33531       98888.412       14389.281       4.8250000      -2.1320000      0.47000000       341.91100       2.0695018     0.013313212
       3923.0000       289.39037       98898.111       14375.528       4.2257500      -2.7875000     -0.60250000       341.59300       2.0621810     0.011745981
       3928.0000       289.40897       98895.859       14356.960       4.7575000      -1.0565000      0.21850000       341.48900       2.0806758     0.011294887
       3933.0000       289.38558       98889.589       14321.895       4.9085000      -1.1240000     -0.21550000       341.19100       2.1535049     0.014824449
       3938.0000       289.39710       98890.508       14336.268       3.9375000      -1.1980000    -0.076000010       341.82600       1.9410327     0.026250731
       3943.0000       289.43416       98884.520       14402.828       1.8287500     -0.18550000     0.078750010       342.24900       2.0618481     0.016828425
       3948.0000       289.45430       98883.011       14447.766       2.5962500     -0.44125000    -0.027000000       342.55500       2.0531184     0.013937335
       3953.0000       289.50472       98901.606       14543.663       4.7457500      -1.1625000     0.089750010       341.62200       2.0581114     0.012010824
       3959.0000       289.51120       98903.503       14589.818       3.8275000      -1.5360000     0.064750000       341.69000       2.0429046     0.019893289
       3964.0000       289.46200       98883.744       14570.662       3.5497500      -2.4637500     -0.16550000       341.56200       2.0165408     0.019264166
       3969.0000       289.44216       98883.326       14568.966       2.9915000      -1.5822500     -0.18175000       342.34300       2.0664999     0.019965576
       3974.0000       289.40507       98892.246       14540.368       3.5537500      -1.7980000     -0.14025000       341.84300       2.0435478     0.014515814
       3979.0000       289.38899       98889.927       14531.823       2.2835000      -1.4227500     0.080500010       342.19100       2.1553208     0.017167591
       3984.0000       289.42722       98889.299       14555.806       3.2720000     -0.97475000     -0.27975000       341.58800       2.1559716     0.016209899
       3989.0000       289.39957       98891.848       14537.394       2.8417500      -2.0485000    0.0090000010       342.02500       2.0633211     0.014415699
       3994.0000       289.32399       98883.844       14498.988       3.3502500      -3.3562500      0.77425000       342.55500       2.0584744     0.012530316
       3999.0000       289.28383       98883.292       14462.348       5.2295000      -4.7285000     -0.28275000       341.74200       2.0113184     0.012854680
       4004.0000       289.20961       98901.347       14402.549       3.8355000      -2.7647500     -0.31625000       341.93800       2.0538712     0.015314008
       4009.0000       289.17657       98903.564       14344.977       3.3775000      -1.6980000      0.37425000       342.33800       2.1162789     0.012220984
       4014.0000       289.19985       98888.905       14280.234       4.0265000      0.25250000     0.091500010       342.19300       2.0908693     0.015001757
       4019.0000       289.19974       98889.059       14235.171       4.7160000       1.9102500     0.089000000       341.72400       2.0383609     0.011234119
       4024.0000       289.18642       98897.688       14154.075       1.9715000       1.5337500      0.27175000       342.24000       2.0419261     0.011687430
       4029.0000       289.20020       98894.843       14152.161       5.5742500       1.7000000     -0.85250000       341.61700       2.0463389     0.012669714
       4034.0000       289.26351       98889.568       14254.368       1.9687500      -1.3140000      0.69250010       342.67800       2.0551149     0.013386056
       4039.0000       289.25578       98890.616       14265.724       3.9442500    -0.043500000     -0.67725000       342.23300       2.0288387     0.019625520
       4044.0000       289.20494       98883.829       14259.468       3.3935000      -2.2820000     -0.38950000       342.32700       2.0480852     0.013105759
       4050.0000       289.19262       98883.809       14276.681       2.3515000     -0.61900000     -0.42650000       342.55900       2.0065297     0.013369858
       4055.0000       289.14279       98903.328       14219.173       3.8740000      -1.8222500      -1.1195000       341.90700       2.0104221     0.015000846
       4060.0000       289.13529       98902.468       14246.938       3.4192500      0.33525000       1.1535000       342.25400       2.0046044     0.015552436
       4065.0000       289.21054       98883.297       14397.702       4.9792500      -1.1875000      0.49100000       341.72400       2.0428456     0.012480791
       4070.0000       289.20814       98883.786       14415.541       3.6060000     -0.87075010      0.67750000       342.12900       2.0459332     0.012799802
       4075.0000       289.14710       98891.499       14379.370       2.9270000      0.42450000      0.25525000       341.98800       2.0394898     0.017364413
       4080.0000       289.14324       98888.849       14371.599       3.8342500     -0.15800000     0.098000000       341.95700       2.0457443     0.011596721
       4085.0000       289.13208       98888.437       14294.340       3.5762500     -0.60725000    -0.042250000       341.95600       2.0899920     0.017485688
       4090.0000       289.15455       98892.467       14290.725       1.6552500     -0.60675000      0.42750000       342.28800       2.0308597     0.010710916
       4095.0000       289.26440       98892.097       14368.551       3.3570000     -0.35300000    -0.042000000       342.03700       2.0126089     0.014917414
       4100.0000       289.26622       98888.105       14383.117       3.9527500     -0.79875000     -0.26975000       341.78500       1.9495352     0.025467226
       4105.0000       289.21583       98892.184       14385.438       3.1745000      -2.6177500      -1.4520000       342.06400       2.0583749     0.013692975
       4110.0000       289.19005       98891.325       14382.251       1.6665000      -2.2847500      -1.1075000       342.13700       2.1502442     0.022046383
       4115.0000       289.10118       98871.240       14367.393       3.6615000      -1.0935000      0.24375000       341.88100       2.0047716     0.015656623
       4120.0000       289.07390       98872.788       14327.904       4.5365000     -0.67325000     -0.38675000       341.82500       2.1477491     0.015227501
       4125.0000       289.09998       98897.217       14259.237       3.2955000     -0.86825000     0.064500000       342.00500       2.0784213     0.012807787
       4130.0000       289.10004       98898.097       14225.619       3.3985000     -0.81925000    -0.026500000       341.78000       2.0360404     0.013516433
       4135.0000       289.08901       98888.652       14156.444       2.1012500     -0.92650000      0.81225000       342.23200       2.0156160     0.014117065
       4141.0000       289.10988       98891.906       14165.879       4.6605000      -3.2655000     -0.21975000       341.97100       2.0441012     0.017887719
       4146.0000       289.15531       98891.111       14263.660       3.9847500      -1.9865000    -0.041750000       341.82800       2.0273416     0.012411123
       4151.0000       289.15660       98887.153       14271.727       5.9987500      -1.9502500     -0.80850010       341.39600       2.0645515     0.013519683
       4156.0000       289.16647       98889.486       14288.511       2.7477500      -3.2257500       1.0947500       341.91500       2.0549653     0.018269772
       4161.0000       289.13952       98893.457       14254.899       4.3320000      -2.6512500     -0.34725000       341.50700       2.0091279     0.012590318
       4166.0000       289.05220       98888.069       14143.390       3.9780000      -1.0465000    0.0037500000       341.73900       2.0336682     0.013440186
       4171.0000       289.02093       98889.781       14095.625       3.2235000      -1.6265000      0.30850000       341.80900       2.0674161     0.014304455
       4176.0000       288.99762       98908.585       14055.855       3.6950000      -1.4765000      0.15600000       341.93300       2.0232198     0.014523630
       4181.0000       288.98634       98907.432       14019.865       3.6955000      -2.2627500      0.32975000       341.78000       2.0061228     0.014818221
       4186.0000       288.99110       98887.926       13995.909       5.2205000      -1.7465000      0.12775000       341.79800       2.0718954     0.014518623
       4191.0000       289.00964       98888.353       13982.976       3.7112500     -0.78975000    -0.019250000       341.90800       2.0579677     0.014183832
       4196.0000       289.05543       98896.992       13960.747       3.0847500     -0.13650000      0.10125000       341.95700       1.9438908     0.016121312
       4201.0000       289.05701       98893.266       13984.984       2.8207500     -0.39450000      0.24350000       342.28700       2.0158044     0.019490788
       4206.0000       289.06736       98889.202       14075.646       3.2070000     -0.35075000      0.35900000       342.07500       2.0036894     0.015688868
       4211.0000       289.03920       98891.979       14067.378       4.1330000      0.37500000     -0.44225000       341.57400       2.0499668     0.015235418
       4216.0000       288.95186       98891.101       14046.819       3.9062500      -1.4610000      0.35975000       342.15700       2.0250070     0.015296180
       4221.0000       288.92084       98887.058       14004.406       4.4162500      -1.6297500      0.32375000       341.50100       2.0109678     0.017794479
       4226.0000       288.88755       98889.228       13871.917       4.8560000      -2.0937500     -0.23350000       341.62200       2.0443467     0.011380072
       4232.0000       288.90033       98892.866       13834.553       2.6490000     -0.56400000     -0.13125000       342.09200       2.0261272     0.013648892
       4237.0000       288.93769       98889.833       13834.659       4.5902500      -1.0297500     -0.17175000       341.72900       2.0343272     0.012821225
       4242.0000       289.04507       98892.155       13884.086       4.6462500      -1.6877500     -0.49800000       341.62800       2.0513549     0.013919582
       4247.0000       289.10590       98896.340       13930.311       4.6482500      -2.4092500      0.13725000       341.57500       2.0994404     0.014179542
       4252.0000       289.15439       98898.068       13989.102       3.5775000     -0.94675000     -0.16075000       341.87800       2.0866424     0.014636540
       4257.0000       289.21234       98889.430       14069.528       2.8362500      -1.2660000      0.15750000       341.91700       2.0814852     0.011027990
       4262.0000       289.22952       98886.546       14154.178       3.2510000      -2.1615000     -0.23950000       341.71900       2.0623199     0.013390539
       4267.0000       289.20643       98892.102       14251.772       5.3132500      -2.8665000      0.30375000       341.81700       2.0899100     0.013100851
       4272.0000       289.13988       98874.248       14309.262       5.0547500      -2.8282500     -0.38175000       341.38200       2.0448503     0.012077503
       4277.0000       289.13663       98871.290       14376.760       3.1267500      -1.8895000      0.88925000       341.88800       2.0214739     0.012874233
       4282.0000       289.21985       98889.807       14494.060       4.4255000      -1.4585000     0.090250010       341.84300       2.0238185     0.013877651
       4287.0000       289.21218       98892.133       14500.767       4.9130000      -1.5827500      0.12325000       341.62000       2.0062027     0.016400534
       4292.0000       289.17987       98890.779       14454.548       2.8082500      -1.3110000      0.42475000       341.72100       2.0479542     0.015110357
       4297.0000       289.15851       98890.530       14374.917       2.8435000      -1.1450000     -0.29050000       341.85400       2.0394065     0.013671623
       4302.0000       289.13643       98894.531       14308.796       2.0865000     -0.68325000      0.28325000       341.90800       2.0352620     0.013261094
       4307.0000       289.03208       98888.543       14149.639       2.4395000      -1.3107500     -0.34300000       341.70600       2.1005233     0.013456126
       4312.0000       289.07027       98901.178       14114.084       3.6562500     -0.74950000      0.16325000       341.62900       2.0442031     0.014915232
       4318.0000       289.10631       98908.389       14086.695       4.2712500      -1.9617500     -0.13700000       341.71500       2.0484187     0.013607718
       4323.0000       289.10598       98899.962       14019.373       5.1062500      -1.3817500     -0.20300000       341.37000       2.0125948     0.013034346
       4328.0000       289.14841       98899.308       14038.921       3.9177500      -1.0942500     -0.14725000       341.67100       2.1012917     0.013534209
       4333.0000       289.25837       98907.876       14164.911       3.1237500      -1.6515000     0.085500000       341.79100       2.1011834     0.015983569
       4338.0000       289.31688       98906.477       14245.091       3.7187500     -0.60075000     0.021000000       341.82600       2.0138247     0.014059689
       4343.0000       289.37991       98894.898       14356.912       2.4035000     -0.27825000      0.48075000       342.26400       2.0430260     0.017212030
       4348.0000       289.41704       98894.166       14454.152       2.9202500      -1.2555000   -0.0092500000       342.10200       2.0260183     0.013317707
       4353.0000       289.42815       98899.267       14538.904       2.6735000     -0.12675000     -0.18575000       341.87700       2.0642745     0.015356281
       4358.0000       289.40555       98895.141       14592.501       2.9390000     -0.51975000     0.036750000       341.80100       2.0536296     0.014507674
       4363.0000       289.34508       98887.851       14682.248       3.0190000      0.19400000      0.30650000       341.87400       2.0142728     0.014250495
       4368.0000       289.29375       98889.887       14679.361       2.3835000     -0.18175000     -0.16950000       341.79100       2.0079375     0.012724294
       4373.0000       289.17079       98892.188       14541.851       3.1767500     -0.18075000     -0.27300000       341.44800       2.0375179     0.013684427
       4378.0000       289.12497       98889.392       14479.147       2.2375000      0.44550000     0.021750000       341.80300       2.0617627     0.015492775
       4383.0000       289.11398       98892.170       14362.905       3.4685000    -0.058750000   -0.0070000000       341.74800       2.1717270     0.019350798
       4388.0000       289.13845       98897.047       14322.309       3.6552500     -0.35025000     -0.13500000       341.68200       1.9620582     0.014678890
       4393.0000       289.28616       98894.845       14414.097       1.7797500      -1.6512500     0.092000010       342.02400       1.9958596     0.021721343
       4398.0000       289.32228       98894.028       14414.605       3.9672500     -0.24225000     -0.38850000       341.65200       2.0150815     0.019238689
       4403.0000       289.29702       98906.717       14401.944       3.2315000      -1.1320000     -0.37275000       341.70200       2.0593027     0.013684090
       4409.0000       289.30575       98907.656       14359.607       2.7285000      -1.2412500      0.44200000       342.12700       2.0236657     0.018004415
       4414.0000       289.22228       98890.665       14198.398       2.5932500     -0.81800000      0.45675000       342.24300       2.0440526     0.016626351
       4419.0000       289.23777       98887.926       14178.216       3.9952500      -2.2252500     -0.38875000       341.90900       2.1389735     0.013232174
       4424.0000       289.35796       98891.612       14234.655       5.5667500      -2.5970000     -0.24075000       341.79900       2.0783216     0.017132895
       4429.0000       289.42741       98889.657       14274.253       3.5810000      -1.3042500     -0.10400000       342.08000       1.9735542     0.022063202
       4434.0000       289.51365       98887.837       14360.190       2.9727500     -0.83600000      0.42425000       342.22100       2.0038541     0.016911626
       4439.0000       289.57987       98891.226       14473.071       2.0232500      -1.4782500      0.45500000       342.19700       2.0323941     0.014756318
       4444.0000       289.63273       98897.882       14602.746       4.0022500      -1.4992500      0.17250000       341.60300       2.1195638     0.015597907
       4449.0000       289.66938       98895.097       14718.987       3.5817500     -0.43725000     -0.42950000       341.30100       2.1261126     0.017324600
       4454.0000       289.70855       98888.150       14930.149       4.1320000     -0.52000000     0.036500000       341.64800       2.0311097     0.015071687
       4459.0000       289.71174       98890.457       15021.637       3.0600000      -1.9175000     -0.45475000       342.18300       2.0290507     0.012720277
       4464.0000       289.66227       98892.723       15038.962       1.5832500      -2.6117500      0.81825010       342.19600       2.0675436     0.011097956
       4469.0000       289.64264       98888.793       15021.439       3.9335000      -1.7682500     -0.14600000       342.19000       2.0020411     0.013050702
       4474.0000       289.57811       98888.007       14901.997       2.1202500      -1.1367500      0.42925000       342.68600       2.1572709     0.015505376
       4479.0000       289.59007       98891.991       14839.651       3.9852500      -1.4377500     0.086750000       342.01900       2.0580250     0.011606619
       4484.0000       289.68903       98891.451       14751.957       2.6657500      -3.2292500      0.44875000       342.51300       2.0587092     0.014174017
       4489.0000       289.71530       98888.785       14694.436       2.2370000      -3.2260000     -0.94525000       341.73600       2.0380695     0.014717828
       4494.0000       289.73837       98892.896       14666.329      0.96725000      -1.1662500       1.0080000       342.45800       2.1221969     0.016766119
       4500.0000       289.76814       98898.274       14648.521       2.3005000      -2.5017500     -0.22000000       341.70100       2.0479310     0.013656591
       4505.0000       289.73189       98896.476       14649.842       1.6610000      -2.3067500     -0.45075000       341.91900       2.1350131     0.015143991
       4510.0000       289.75454       98893.513       14650.632       2.0282500      -1.1755000      0.43400000       342.01200       2.1018618     0.014676949
       4515.0000       289.81884       98894.088       14646.675       2.8597500      -1.4462500      0.17625000       342.42100       2.0771551     0.016016582
       4520.0000       289.88462       98897.051       14699.235       3.7970000      -1.5935000     -0.21125000       341.93000       2.0465904     0.012180619
       4525.0000       289.99318       98896.471       14766.816       4.4085000      -1.4417500      0.13525000       342.24800       2.0176001     0.012724617
       4530.0000       290.03075       98893.548       14865.356       2.3505000     -0.60400000      0.22750000       343.33400       1.9824811     0.017998111
       4535.0000       290.06645       98895.032       15054.862       3.6152500     -0.25075000     -0.27950000       342.71700       2.0275562     0.013494797
       4540.0000       290.05793       98896.462       15161.592       3.3900000     -0.23625000     -0.28600000       342.98400       2.0062996     0.018396756
       4545.0000       289.98014       98888.822       15285.245       4.2495000     -0.92700000     -0.77000000       342.07800       2.0426266     0.013529806
       4550.0000       289.91389       98888.595       15294.492       3.2537500      0.10250000      0.41550000       342.72400       2.0449671     0.016228707
       4555.0000       289.80550       98900.290       15219.351       3.7412500      0.55400000    -0.069750000       341.81900       1.9188102     0.027760307
       4560.0000       289.76829       98903.084       15142.869       4.0077500     -0.52350000     -0.63075000       341.62600       2.0243683     0.012616860
       4565.0000       289.75427       98900.302       14971.573       3.4657500   -0.0027500000     -0.32475000       341.83400       1.9905146     0.018796366
       4570.0000       289.73076       98900.274       14858.698       3.7782500     -0.13925000    -0.087750000       342.29100       2.0512423     0.016561837
       4575.0000       289.74588       98903.702       14743.083       2.0905000     -0.34425000      0.57050000       343.48000       2.1658943     0.024176064
       4580.0000       289.75601       98898.817       14667.567       2.0957500     -0.66250000      0.83175000       343.24900       1.9630522     0.019728100
       4585.0000       289.75430       98882.951       14624.578       2.6150000     -0.19250000      0.32625000       342.89300       2.0230771     0.019213402
       4591.0000       289.74221       98884.127       14556.854       3.0930000    -0.051750000    -0.098250000       342.17000       2.0239124     0.018627108
       4596.0000       289.76594       98891.485       14535.217       3.0325000      -1.5180000     -0.28725000       343.21700       1.9860300     0.020292876
       4601.0000       289.73848       98888.623       14472.187       2.7932500      0.78775010     0.048250000       343.09400       1.9936865     0.022128348
       4606.0000       289.65160       98889.462       14364.525       1.5952500      -1.1250000      0.12975000       342.57800       2.1514942     0.016484850
       4611.0000       289.62067       98893.466       14322.605       2.6500000     -0.62825000      0.59475000       342.95100       2.0622346     0.013507850
       4616.0000       289.60704       98890.894       14291.572       4.8102500      0.96200010      0.21450000       341.57500       2.0132530     0.014690652
       4621.0000       289.57710       98886.918       14282.127       3.9522500      0.71725000     -0.50150000       342.01200       1.9668364     0.017615081
       4626.0000       289.57194       98889.243       14336.162       3.1542500      -1.9357500     -0.36550000       342.24200       2.0401231     0.015888453
       4631.0000       289.51436       98893.273       14309.813       2.1705000     -0.68025000     -0.30375000       342.67300       2.0385654     0.012170461
