MIRICO/SHELL project - Processed LDS file generated on
Sun Jul 23 05:54:07 2017
Time stamp for record start
05/12/2017  12:01:18.0001
Nb of points in the record
         917
Beam position index
       2.0000000
Beam angle (degrees)
      -8.6380000
Open Path length (m)
       64.850000
****************** Temporal data record ************************
Elapsedtime_sec Temp_K Press_Pa Humidity_ppmv WindX_m/s WindY_m/s WindZ_m/s Speedofsound_m/s CH4vmr_ppmv CH4vmrerror_ppmv  
      0.00000000       287.81487       98869.828       14076.976       3.9627500      -1.4452500     -0.45125000       341.10300       1.8663815     0.012063246
       4.9999729       287.85399       98856.539       14035.742       4.2442500      -1.2402500     0.040750000       341.09700       1.9494923    0.0095559112
       9.9999860       287.84415       98850.846       13969.495       2.6177500     0.071750000      0.40550000       341.29500       1.9388538     0.010727691
       14.999999       287.85741       98841.350       13912.435       4.7745000      0.23600000     0.034250000       341.04000       1.9392411     0.011151760
       19.999972       287.85135       98843.959       13857.284       3.3220000      -1.5127500     -0.37375000       341.27100       2.0160211    0.0099321206
       24.999985       287.78973       98862.554       13748.184       3.8435000      -1.4782500     -0.34775000       340.95300       1.8794366     0.013253056
       29.999998       287.79257       98869.962       13725.514       5.2942500      -1.1172500    -0.035250000       341.07200       1.9449413     0.010232410
       34.999971       287.84178       98880.974       13766.915       3.7462500      -1.5772500    -0.069000010       341.21100       1.9508286     0.012175916
       40.999979       287.86581       98883.378       13791.826       4.8510000     -0.85325000      0.35525000       340.96900       2.0118191     0.010401107
       45.999992       287.91157       98874.703       13854.779       4.4542500      -1.3907500      0.43025000       341.00900       2.0148306     0.012276040
       51.000005       287.90414       98874.587       13870.015       2.9837500    -0.090250010      0.87875000       341.22800       1.8870449     0.015068795
       55.999978       287.84518       98875.621       13851.856       3.3852500      0.27825000      0.38375000       341.14900       1.9116450     0.010158164
       60.999991       287.84384       98874.639       13868.460       3.8077500      -1.6072500     0.034000000       340.93900       1.8645946     0.015360031
       66.000004       287.84196       98878.137       13890.424       3.9130000      0.60550000      0.59600000       341.06600       1.9596076     0.010345171
       70.999977       287.85105       98873.465       13900.413       4.8495000      -1.5122500    -0.047500000       341.07500       1.9722840    0.0099740707
       75.999990       287.90276       98858.945       13931.578       2.8937500     -0.71950000     -0.25125000       341.10200       1.8690218     0.011888303
       81.000003       287.91412       98857.543       13925.210       6.1512500     -0.44075000     -0.48950000       340.82500       1.8789569     0.015372434
       85.999976       287.89134       98858.054       13875.370       7.0887500      -1.9982500      0.13200000       340.88700       1.9646450     0.011343267
       90.999989       287.90999       98861.609       13870.843       4.7242500    -0.088000010     -0.47675000       341.06200       2.0039649     0.013666335
       96.000002       287.93730       98873.675       13864.210       4.3697500       1.3400000      0.79975000       341.14500       1.9316960     0.010292689
       100.99998       287.97582       98881.569       13891.818       6.6835000    -0.015500000     0.051000000       340.96600       1.8400891     0.022239046
       105.99999       288.05830       98889.770       13969.801       4.4657500      0.20550000      0.93950000       340.99100       1.9130035     0.010951300
       111.00000       288.07112       98894.856       13990.306       6.1507500     -0.29025000      0.62175010       340.79500       1.8114309     0.019201164
       115.99997       288.05813       98902.898       14002.961       4.7300000      -2.0760000     -0.23525000       340.99000       1.9508197     0.018043191
       120.99999       288.04908       98901.381       14015.938       4.3362500      -2.0825000      0.38700000       340.90900       1.8745248     0.011726705
       126.00000       287.98846       98892.066       13986.133       4.0065000     -0.48700000      0.14775000       340.92300       1.8008897     0.020968899
       131.99997       288.04581       98883.258       14068.247       4.4825000      -2.2575000     -0.18100000       340.93300       1.9558439     0.011498348
       136.99998       288.05772       98875.219       14101.925       4.7037500      -2.1065000     0.050500000       341.02600       2.0100842     0.011467281
       141.99999       288.04010       98865.595       14108.607       4.6860000      -1.3217500      0.36350000       341.16000       1.8419863     0.017225114
       147.00001       288.05004       98859.459       14133.062       5.1142500     -0.31250000     -0.43100000       340.90500       2.0032102    0.0099755897
       151.99998       288.05991       98854.531       14152.977       4.9887500      -1.6352500     -0.13900000       341.05600       1.8791347     0.013737662
       156.99999       288.03636       98847.728       14133.967       5.4162500     -0.66075000     -0.32875000       340.97900       1.8934261     0.012513190
       162.00001       288.06957       98850.357       14186.348       5.0087500     -0.62475000     -0.18175000       341.10000       1.9021644     0.013308739
       166.99998       288.15637       98859.898       14289.463       4.4540000     0.050250000     -0.44150000       340.95200       1.9115539     0.011775315
       171.99999       288.18512       98867.390       14359.440       4.5592500      -1.2035000      0.72175000       341.11900       1.8577304     0.019894689
       177.00001       288.20665       98875.394       14404.815       3.5732500    0.0070000000      0.33575000       341.13500       1.9278328     0.011464428
       181.99998       288.17005       98884.978       14370.011       3.6910000      0.13950000      0.20550000       341.18300       1.9412122     0.010280437
       186.99999       288.18762       98891.069       14396.194       4.4500000     -0.66250000     -0.63600000       340.89600       1.9832907     0.010337641
       192.00000       288.27520       98900.213       14466.584       4.1332500      -1.1687500     -0.27750000       341.07500       1.9475818     0.010211791
       196.99998       288.30629       98902.647       14515.103       4.5215000      -2.1475000     -0.48400000       341.03500       1.9435170     0.011126400
       201.99999       288.32504       98900.136       14570.432       2.3390000      -1.6387500     0.037000000       341.18600       1.9249172     0.014036240
       207.00000       288.37677       98890.938       14688.741       3.9502500     -0.76425000      0.60000000       341.22700       1.9379924     0.011818226
       211.99998       288.33100       98884.668       14662.659       3.2225000     -0.77700000      0.26050000       341.11300       1.8685168     0.013629864
       216.99999       288.18857       98875.382       14552.208       5.2290000     -0.43150000     -0.14525000       341.29100       1.9371092     0.010776372
       223.00000       288.14016       98865.734       14471.329       4.3480000     -0.86800000     0.042000000       341.10500       1.9692348     0.014901151
       227.99997       288.13344       98858.708       14433.588       3.3835000     -0.83475010     0.012000000       340.94300       1.9511204     0.010055250
       232.99998       288.23889       98847.517       14496.754       3.7160000     -0.85425000     -0.45225000       340.89900       1.8730862     0.016426704
       238.00000       288.26614       98842.964       14489.304       2.7367500      -1.2100000     -0.14325000       341.20200       1.9313087     0.010641735
       242.99997       288.25740       98841.779       14431.120       3.5897500      -1.5230000      0.91075000       341.17200       1.8867605     0.013143889
       247.99998       288.25608       98844.261       14394.768       2.4405000      -1.4447500     -0.34050000       341.24000       1.9691213     0.012286211
       253.00000       288.22406       98854.537       14332.408       2.0675000     -0.64975010     0.033000000       341.37100       1.8820993     0.016976841
       257.99997       288.19373       98861.508       14291.938       3.5022500      -1.6695000     -0.33750000       340.90000       1.8299487     0.026886775
       262.99998       288.17919       98868.997       14286.394       3.0395000      0.90750000      0.94425000       341.25100       1.8612380     0.018581743
       267.99999       288.14784       98876.987       14261.999       2.0392500      -2.2832500     -0.51775000       341.31400       1.9102352     0.012232831
       272.99997       288.06077       98889.188       14220.598       3.1437500      -1.5805000     -0.58250000       341.11100       1.9348561     0.010682016
       277.99998       288.03360       98892.785       14198.151       2.8897500      -1.0407500      0.83575000       341.27700       1.8926930     0.010383156
       282.99999       288.02926       98891.521       14160.909       4.0290000      -2.2435000     -0.11625000       341.10700       1.9412174     0.010662169
       288.00001       288.04143       98891.304       14159.973       3.6105000      -1.1022500     -0.35925000       341.32200       1.8536688     0.014838517
       292.99998       288.13799       98882.346       14223.523       3.4615000      -1.7757500     0.039750000       341.19300       1.9404167     0.011128720
       297.99999       288.16538       98878.646       14236.484       3.2847500      -1.5312500    -0.035750000       341.34700       1.8927867     0.013708777
       303.00001       288.15613       98881.677       14249.315       3.1105000      -1.5050000     -0.76075010       341.54500       1.9732844    0.0092710151
       308.99997       288.15350       98880.156       14242.822       3.2237500     -0.34075000    0.0092500000       341.41400       1.8105625     0.024496666
       313.99999       288.09193       98878.918       14170.806       2.5312500      -1.1257500     -0.23700000       341.30600       1.9719019    0.0095514476
       319.00000       288.08901       98874.179       14150.928       3.3550000     -0.49475000     -0.10050000       341.33200       1.9245465     0.012895117
       323.99997       288.12519       98864.530       14158.111       3.6347500     -0.89900000     0.094250000       341.35100       1.8110961     0.019150692
       328.99999       288.15874       98857.597       14158.916       2.7522500     -0.43525000     -0.74150000       341.22900       1.9525325     0.012332872
       334.00000       288.23282       98846.241       14180.346       4.3310000      -2.2177500      0.58350000       341.23700       1.9930496     0.010289933
       338.99997       288.26915       98842.392       14190.518       5.0755000      -1.5945000     -0.40525000       341.13500       1.8408497     0.024635204
       343.99998       288.26931       98844.658       14171.863       3.5572500      -1.0475000     0.036000000       341.45700       1.9622594     0.010024933
       349.00000       288.31352       98845.077       14199.186       3.7415000      -1.2472500     -0.63050000       341.42300       1.8976347     0.018967951
       353.99997       288.36445       98847.196       14246.705       3.6022500      -2.3032500     -0.46925000       340.96600       1.8538264     0.019732293
       358.99998       288.41825       98851.562       14305.320       3.9417500     -0.54225000      0.20325000       341.26700       1.7996119     0.024415300
       364.00000       288.54214       98856.722       14408.496       3.7610000      -1.3212500     -0.20225000       341.16600       1.9643671    0.0097158298
       368.99997       288.58044       98862.124       14487.861       3.4330000     -0.69800000     -0.58850000       341.18900       1.9311025     0.011255430
       373.99998       288.54385       98873.187       14554.180       3.2685000      -1.7655000     -0.18100000       341.43900       1.8603580     0.018081212
       379.00000       288.55369       98878.423       14636.358       2.5880000     -0.42250000      0.17275000       341.53100       1.9072685     0.011172931
       383.99997       288.54293       98879.934       14750.640       2.8215000      -1.9045000      0.19400000       341.71800       1.9801567    0.0085429201
       388.99998       288.54715       98881.601       14809.652       4.0465000     -0.20525000      0.66950010       341.18600       1.9525357    0.0095463989
       394.00000       288.60755       98880.377       14875.995       3.4845000      -2.1170000      0.85000000       341.23600       1.8883790     0.013524091
       400.00000       288.60787       98880.427       14877.575       4.5720000      -1.2765000      0.18850000       341.51600       1.8590466     0.018351227
       404.99998       288.55722       98880.243       14788.731       4.1810000      -1.9535000     -0.72150000       341.68800       1.8757069     0.014740547
       409.99999       288.53717       98880.243       14741.666       4.2612500      -1.9522500     -0.48275000       341.28000       1.9640038     0.010929108
       415.00000       288.50092       98880.434       14679.081       3.8945000      -1.3042500     -0.63400000       341.32200       2.0490269     0.016298173
       419.99997       288.48735       98880.521       14623.802       3.4542500     -0.67525010     -0.26300000       341.47200       1.8658399     0.015351623
       424.99999       288.49970       98881.396       14579.653       3.9545000     0.026250000      0.19800000       341.27100       1.9883558     0.011974318
       430.00000       288.49958       98879.762       14529.374       3.2800000      -1.3010000      0.30150000       341.61100       1.9302374     0.010778030
       434.99997       288.48919       98878.248       14445.719       3.3150000     -0.17475000   -0.0022500000       341.60400       1.7930799     0.017593468
       439.99999       288.50565       98872.963       14429.201       5.3395000      -1.6032500     0.083500010       341.58700       1.9178382     0.010512971
       445.00000       288.54280       98859.581       14444.949       4.3707500      -1.3182500     -0.37450000       341.07000       1.9062668     0.011600996
       449.99997       288.56291       98857.434       14469.968       5.1075000      -1.8077500     -0.68225000       341.29200       1.9103860     0.010694359
       454.99999       288.61054       98862.273       14552.940       4.1652500     -0.85650000     -0.60900000       340.89100       1.9165059     0.011175158
       460.00000       288.60780       98858.697       14592.251       4.8077500      -2.2877500      0.11100000       340.82200       1.9497741     0.010922969
       464.99997       288.55791       98857.707       14615.240       5.3362500      -2.2352500     -0.33550000       341.13800       1.9769259    0.0089060677
       469.99999       288.53800       98854.551       14646.237       3.0285000      -1.2030000   -0.0012500000       341.34200       1.9017548     0.013931408
       475.00000       288.48922       98839.420       14668.589       3.5577500      -1.4715000      0.24500000       341.66200       1.8530140     0.014801367
       479.99997       288.49194       98836.978       14697.602       4.2095000      -2.2785000      0.25450000       341.59800       1.9860947     0.010084239
       484.99998       288.53151       98844.546       14761.859       4.3200000      -2.5095000     -0.48950000       341.26200       1.9227156     0.011179880
       490.99999       288.57716       98847.000       14749.974       3.8380000     -0.79125010       1.0255000       341.64400       1.9629275     0.010345340
       496.00001       288.64146       98848.758       14691.834       4.3657500     -0.19675000    -0.096250010       340.97600       1.8797046     0.013310790
       500.99998       288.69171       98853.614       14669.593       2.9007500      0.66450010      0.29300000       341.84100       1.9485855     0.010678395
       505.99999       288.73107       98859.773       14589.541       2.6582500      -1.8600000      0.35400000       341.46700       1.8791799     0.013366981
       511.00000       288.79924       98863.849       14615.092       3.7552500      -2.0030000    -0.061750000       341.15300       1.8852695     0.013922027
       515.99998       288.89236       98869.975       14739.176       3.3247500      -2.1267500    -0.083750000       341.53800       1.8709913     0.013729606
       520.99999       288.96538       98874.077       14799.386       4.6552500      -1.3250000     -0.22950000       341.35300       1.9389604     0.015326323
       526.00000       288.95185       98874.869       14749.719       3.9265000      -1.5035000     -0.35800000       341.71600       1.8145687     0.014795762
       530.99998       288.98225       98876.883       14758.122       4.5652500      -2.1337500    -0.078500000       341.66500       2.0732508     0.012874525
       535.99999       289.01231       98880.363       14766.206       4.4320000      -2.1840000    -0.016250000       341.35100       1.8498885     0.017709182
       541.00000       289.04205       98881.423       14774.561       4.7717500     -0.35500000     -0.43950000       340.83100       1.8677802     0.012297151
       545.99998       289.07146       98880.249       14783.160       3.0175000     -0.61525010     -0.13850000       341.34000       1.9566365     0.010932351
       550.99999       289.10054       98880.203       14791.494       3.7207500     -0.26775000     -0.21400000       341.31900       1.9035132     0.010617072
       556.00000       289.12930       98880.448       14799.691       1.5357500     -0.94450000      0.19025000       342.70900       1.9702832     0.010832293
       560.99997       289.15772       98880.541       14807.819       2.6455000      -1.4520000     -0.12000000       341.92400       1.8939650     0.012360032
       565.99999       289.18581       98880.299       14815.907       3.6995000      -1.4537500     0.019250000       340.88100       1.9654504     0.011024874
       571.00000       289.21357       98880.266       14823.874       1.8140000      -1.3832500      0.54500000       342.13500       1.9051321    0.0099759917
       575.99997       289.24101       98880.103       14831.771       3.7632500      -2.4125000     -0.14900000       341.51300       1.8927504     0.011602571
       581.99998       289.27350       98884.600       14840.417       2.9720000     -0.87525000     -0.35800000       342.42900       1.9095545     0.010772969
       586.99999       289.30021       98881.995       14848.493       3.8915000      -2.0605000     -0.13300000       341.85200       1.9206873     0.010199885
       591.99997       289.32659       98868.171       14858.195       3.3280000      -2.0012500     -0.54025000       342.09200       1.8598785     0.010334009
       596.99998       289.35264       98863.910       14866.355       4.4085000      -1.9482500     -0.24775000       341.57100       1.8544377     0.014563434
       601.99999       289.37836       98862.094       14874.058       3.8862500      -1.3697500      0.30000000       342.31900       1.7660084     0.015199346
       607.00001       289.40376       98858.324       14881.976       4.9935000     -0.96000000     -0.34700000       341.43400       1.9558329    0.0096437885
       611.99998       289.42882       98859.816       14889.008       3.6570000      -1.4552500    0.0050000000       341.70900       1.7243965     0.025535510
       616.99999       289.45356       98872.561       14894.238       3.1420000      -1.4302500     -0.62175010       342.13500       1.9525977     0.010346629
       622.00001       289.47796       98865.583       14902.402       4.3350000      -1.8960000      0.32725000       341.26000       2.0177004     0.015183427
       626.99998       289.50204       98860.636       14910.176       4.7157500  -0.00050000000      0.24450000       341.47200       1.8827898    0.0093600716
       631.99999       289.52579       98844.333       14919.612       3.8275000      -2.5920000     0.062000000       341.50800       1.9001258     0.010356493
       637.00000       289.54920       98841.731       14926.872       4.6725000      -2.9270000     -0.66025000       341.43900       1.9298257    0.0099255173
       641.99998       289.57229       98853.813       14931.804       2.7420000      -3.6995000     -0.57325010       340.83100       1.8962961    0.0089235802
       646.99999       289.59505       98859.637       14937.618       4.4930000      -2.5415000      0.22775000       341.07300       1.9173653     0.011647994
       652.00000       289.61748       98866.670       14943.169       2.8410000      -3.1887500     -0.25725000       341.42500       1.9082976     0.010241872
       656.99998       289.63959       98885.388       14946.853       3.8277500      -3.6922500     -0.43225000       341.42900       1.8816368    0.0087793921
       661.99999       289.66136       98880.223       14954.125       2.7975000      -1.6292500      0.36900000       341.94300       1.9510652    0.0093981409
       667.00000       289.68280       98859.738       14963.678       2.5420000      -3.0227500     -0.60250000       341.88400       1.9103728     0.010995822
       672.99997       289.70810       98847.540       14973.148       3.0530000      -1.5447500      0.33450000       341.79100       1.9641294     0.010835366
       677.99998       289.72882       98841.950       14980.258       2.0592500      -1.5997500     -0.10925000       342.50300       1.8159448     0.021987410
       683.00000       289.74921       98849.416       14985.288       3.3190000      -2.3200000      0.23025000       342.04700       1.9318725     0.011390956
       687.99997       289.76927       98851.323       14991.104       3.7317500      -2.9290000      0.10225000       341.32000       1.8661602     0.013205089
       692.99998       289.78900       98850.305       14997.300       3.0455000      -1.6355000      0.47150000       342.25600       1.9225992     0.011609427
       698.00000       289.80840       98850.289       15003.273       3.7147500      -2.6100000     -0.23500000       341.17400       2.0082399     0.012548140
       702.99997       289.82747       98850.243       15009.182       3.5350000      -2.2062500      0.25275000       342.49600       1.8750575     0.011403870
       707.99998       289.84621       98850.260       15015.015       3.9170000      -2.5452500    0.0040000000       341.47300       1.9308738     0.010442978
       713.00000       289.86463       98847.554       15021.201       3.5727500     -0.68250000     -0.41800000       342.05800       1.9913260    0.0099698869
       717.99997       289.88271       98849.800       15026.556       3.0707500      -1.4892500     0.062250000       343.10100       1.9424624     0.014116618
       722.99998       289.90047       98859.867       15030.640       2.9980000      -1.4067500      0.48500000       341.91700       1.9963592     0.013698571
       727.99999       289.91790       98861.528       15035.955       3.5222500     -0.74575000      0.75150000       342.27400       2.0016059     0.012337730
       733.00001       289.93499       98861.618       15041.448       3.6492500      -1.7500000    -0.065000010       341.48400       1.9470459     0.011013217
       737.99998       289.95176       98861.422       15046.923       3.3055000      -1.2547500      0.67475000       342.34600       1.9441717     0.010130881
       742.99999       289.96820       98847.740       15054.419       3.5230000     -0.64550000     0.018750000       342.01000       1.9266819     0.016751864
       748.00001       289.98431       98847.363       15059.796       3.3747500      -1.5232500     -0.32050000       342.05100       1.9729087     0.010599916
       752.99998       290.00009       98861.845       15062.814       3.2512500     -0.37025000      0.47500000       343.04000       1.9091005     0.012568469
       757.99999       290.01554       98866.727       15067.255       2.8057500      0.82100000      0.81100000       343.18800       1.9784217     0.011331500
       764.00000       290.03365       98873.705       15072.329       3.1340000   -0.0022500000      0.20425000       342.57700       1.9213072     0.011533597
       768.99997       290.04838       98878.009       15076.726       2.8480000     -0.69150000      0.10250000       342.30400       1.8697748     0.013432550
       773.99999       290.06277       98874.505       15082.271       3.4112500    -0.082500000      0.22325000       342.97200       1.9508429     0.011622338
       779.00000       290.07684       98874.861       15087.160       3.6435000      -2.6185000     -0.24300000       342.56100       1.9128891     0.012500599
       783.99997       290.09058       98879.809       15091.279       2.2970000      0.52925000      0.33050000       343.54800       1.8841914     0.011662848
       788.99999       290.10399       98881.407       15095.859       3.6392500      0.37450000     -0.89175000       342.47000       2.0013430     0.011262282
       794.00000       290.11707       98880.346       15100.794       3.2600000      0.36875000      0.63075000       342.49400       2.0810256     0.012907369
       798.99997       290.12982       98880.386       15105.501       4.3600000      0.43775000      0.10200000       341.89400       1.9401507     0.010338550
       803.99998       290.14225       98880.243       15110.179       3.5312500      0.49850000    -0.016750000       341.98000       1.9091303     0.016656362
       809.00000       290.15434       98880.243       15114.780       3.1527500     -0.26950000     -0.29075000       342.08500       2.0389339    0.0097490934
       813.99997       290.16610       98880.306       15119.314       3.0810000    -0.038750000      0.60825000       342.45000       1.9185812     0.013336492
       818.99998       290.17754       98880.306       15123.804       2.9612500     -0.89100000      0.26800000       342.70300       2.0254202     0.010185882
       824.00000       290.18864       98880.131       15128.265       3.3225000     0.018500000      0.27025000       342.73500       1.8767363     0.014316021
       828.99997       290.19942       98880.072       15132.654       3.4005000      0.50725000     0.040500000       342.20800       1.9099710     0.019053082
       833.99998       290.20987       98880.306       15136.943       2.7682500      0.27825000      0.20425000       342.21000       1.9409888     0.012959192
       839.00000       290.21998       98880.306       15141.214       2.9440000      -1.3275000    -0.063750010       342.69800       1.9227140    0.0094844371
       843.99997       290.22977       98880.346       15145.426       2.8702500    -0.024750000     -0.11525000       342.43700       2.0206047     0.011954096
       849.99998       290.24108       98880.396       15150.409       3.5182500     -0.97625010     -0.13900000       341.41200       2.0750098     0.015974042
       854.99999       290.25015       98880.303       15154.525       3.0902500      -1.3495000      0.12425000       342.32500       2.0125537    0.0088129860
       860.00000       290.25888       98880.276       15158.577       3.3092500     -0.52350000      0.39525000       341.91800       1.9038415     0.012097452
       864.99998       290.26729       98877.995       15162.928       4.3650000      0.78400000    -0.088500000       341.56300       1.9880978     0.010055850
       869.99999       290.27537       98881.186       15166.375       3.5270000     -0.38200000     0.086000000       342.23600       1.9379161     0.012734876
       875.00000       290.28311       98890.844       15168.762       3.4535000      0.64150010      0.92375000       342.28200       1.9660424     0.010575368
       879.99997       290.29053       98891.575       15172.488       3.2345000     -0.57750000     -0.86550000       342.31100       1.9197501    0.0098677726
       884.99999       290.29762       98889.341       15176.624       3.8632500    -0.040500000      0.23900000       342.08200       1.9020422     0.015181377
       890.00000       290.30438       98891.355       15180.047       4.7087500      0.41225000     -0.28825000       341.51200       1.8333132     0.020093484
       894.99997       290.31081       98891.065       15183.777       3.2580000       1.0367500       1.0685000       342.13600       1.9606929     0.010535385
       899.99999       290.31691       98889.067       15187.723       3.5522500       1.0262500     0.047750000       342.11900       2.0145007     0.010430236
       905.00000       290.32269       98891.667       15190.901       2.4942500      -1.2667500      0.29125000       342.54800       1.8713873     0.016310310
       909.99997       290.32813       98890.368       15194.636       2.6160000     -0.15800000       1.1825000       342.43300       1.9950053    0.0086753864
       914.99999       290.33324       98880.295       15199.690       3.4345000     -0.58375000      0.10350000       342.25800       2.0671248     0.015674787
       920.00000       290.33803       98877.509       15203.556       3.0972500     -0.82475010     -0.58700000       342.22400       1.9151209     0.016335696
       924.99997       290.34248       98880.306       15206.501       3.1837500     -0.90700010      0.43775000       342.35200       1.9673506    0.0097443657
       929.99998       290.34661       98880.306       15209.831       2.7032500      -2.3127500     0.091250000       341.64300       1.8942784     0.012857328
       935.00000       290.35041       98878.384       15213.411       3.0747500      -1.3650000     -0.28575000       342.01900       1.9410012     0.012802027
       941.00001       290.35453       98882.783       15216.593       3.9145000      -1.7585000     0.078500000       341.43100       2.0679533     0.012633681
       945.99998       290.35760       98889.479       15218.716       2.3267500      -1.1520000      0.63575010       342.22600       1.9652216     0.011544883
       950.99999       290.36034       98893.443       15221.215       3.9377500      -2.2012500     0.030000000       341.74200       1.9922459    0.0096270116
       956.00000       290.36276       98902.682       15222.838       2.4587500      -1.1157500      0.27300000       342.12600       1.9379191     0.010790662
       960.99998       290.36484       98901.167       15226.092       2.0085000      -1.2322500      0.24975000       342.17300       2.0945319     0.012367261
       965.99999       290.36660       98891.379       15230.588       2.3022500     -0.72750000     -0.29900000       342.24200       1.8541027     0.015298484
       971.00000       290.36802       98887.434       15234.120       2.3105000     -0.63100000     -0.16825000       342.16200       2.0265810     0.012001822
       975.99998       290.36912       98879.914       15238.162       2.3650000      -2.0095000      0.69900010       342.38000       2.0341781    0.0086080004
       980.99999       290.36989       98877.703       15241.322       4.2685000      -2.0720000      0.11350000       342.14500       2.0217879     0.010698989
       986.00000       290.37033       98880.243       15243.687       2.3935000      -1.2105000      0.48850000       342.27900       1.9783330    0.0096756122
       990.99998       290.37044       98880.243       15246.399       3.2267500     -0.83400010     -0.10100000       341.82500       2.0756694     0.013803794
       995.99999       290.37022       98880.450       15249.027       3.7797500      -1.2867500      0.16250000       341.93600       2.0191360     0.014792552
       1001.0000       290.36967       98880.543       15251.622       4.9707500      -1.4927500    -0.088250000       341.82400       2.1733772     0.011620044
       1006.0000       290.36879       98880.306       15254.216       4.0207500      -3.6220000      0.45275000       341.76200       1.9553977     0.010772673
       1011.0000       290.36758       98880.306       15256.721       5.2827500      -1.9927500     -0.65525000       341.61000       1.9080313     0.011958260
       1016.0000       290.36605       98880.440       15259.153       4.5787500      -1.0687500     -0.41000000       341.41200       1.9500221     0.011048744
       1021.0000       290.36418       98880.500       15261.544       4.8747500     -0.58500000     0.077000010       341.41100       2.0676106     0.017270980
       1026.0000       290.36199       98878.566       15264.195       4.7695000      -1.3582500      0.74825000       341.79500       1.9420226     0.011364460
       1032.0000       290.35892       98889.319       15265.257       5.5605000      -2.7365000     -0.14925000       341.26800       1.9718866     0.021426728
       1037.0000       290.35600       98891.662       15267.120       4.3892500      -1.5157500      0.12325000       341.68600       2.0076054     0.011293205
       1042.0000       290.35275       98891.256       15269.361       3.2627500     -0.36750000      0.62550000       341.49200       1.9108180     0.012367557
       1047.0000       290.34917       98891.451       15271.453       4.9937500      0.61150000      0.53900000       341.40100       1.9225516     0.015217951
       1052.0000       290.34527       98889.189       15273.876       3.7990000      -1.2015000      0.34225000       341.47000       1.9153635     0.016173714
       1057.0000       290.34103       98879.308       15277.440       3.1815000      -1.0407500      0.94350000       341.90500       1.9820225     0.011239449
       1062.0000       290.33647       98877.699       15279.652       3.6457500      0.70425000      0.32825000       341.87700       2.0385281     0.013234583
       1067.0000       290.33157       98880.400       15281.132       3.3712500     -0.76650010      0.51175000       341.75400       1.9947731     0.011632679
       1072.0000       290.32635       98880.243       15283.004       3.9455000      -2.5030000      0.27075000       341.89300       1.8981810     0.020868864
       1077.0000       290.32079       98880.243       15284.796       3.7135000      -1.3580000     -0.37325000       341.62600       1.9608603     0.011235303
       1082.0000       290.31491       98880.395       15286.507       4.0845000     -0.40850000      0.18325000       341.60500       1.8582524     0.013177535
       1087.0000       290.30870       98880.466       15288.173       4.9475000      -2.2635000     -0.54575000       341.49200       1.9867111     0.010693093
       1092.0000       290.30216       98880.306       15289.818       5.1815000      -2.4300000     -0.13150000       341.53600       1.9566889     0.015664008
       1097.0000       290.29529       98880.306       15291.380       4.7682500      -2.4852500    -0.021250000       341.93300       2.0171330     0.011410881
       1102.0000       290.28809       98880.306       15292.883       4.4835000      -1.9382500    0.0057500000       341.66600       1.8904355     0.022325415
       1107.0000       290.28056       98880.452       15294.304       4.7872500      -2.0050000    -0.069250000       342.06200       1.9806595     0.016734069
       1112.0000       290.27271       98880.511       15295.680       4.2962500      -2.4037500      0.29950000       342.13400       1.7717301     0.022210869
       1117.0000       290.26452       98880.399       15297.021       4.3552500     -0.98175010      0.70900010       341.94300       2.1159848     0.014983829
       1123.0000       290.25426       98881.654       15298.333       3.9405000      -3.5350000     -0.89900000       341.29000       2.1013188     0.012703815
       1128.0000       290.24535       98880.549       15299.697       3.9660000      -2.1830000     -0.23725000       342.24400       1.9396201     0.011377247
       1133.0000       290.23611       98876.925       15301.394       3.5012500      -1.1282500     0.042250000       342.08800       2.0108833     0.010653011
       1138.0000       290.22654       98874.970       15302.766       3.1127500      -1.7322500     0.073250000       342.32100       1.8387669     0.021046486
       1143.0000       290.21664       98875.740       15303.647       3.3025000      -2.1842500      0.83475010       342.14100       1.9304717     0.012174134
       1148.0000       290.20641       98870.498       15305.409       5.1622500      -3.4007500     -0.22350000       341.55000       1.9616486     0.012179232
       1153.0000       290.19586       98858.530       15308.163       3.9382500      -3.2010000     -0.92975000       341.92100       1.9717519    0.0099874235
       1158.0000       290.18497       98853.582       15309.750       4.3540000      -2.8202500     -0.22700000       341.26600       2.0392294    0.0098635348
       1163.0000       290.17376       98846.456       15311.613       4.7250000      -2.5817500      0.38025000       341.40500       1.9408666     0.011180391
       1168.0000       290.16221       98842.760       15312.870       2.5630000      -2.3205000      0.66425000       342.07500       1.9918433     0.011236699
       1173.0000       290.15034       98849.436       15312.428       3.1775000      -3.0002500     -0.95050010       341.69300       1.9483169     0.013409208
       1178.0000       290.13813       98851.333       15312.670       3.0052500      -1.4922500     -0.51275000       341.68400       1.9557941    0.0096811347
       1183.0000       290.12560       98851.664       15313.090       2.4062500      -1.4175000    -0.077250000       341.90400       1.9867693    0.0095884910
       1188.0000       290.11274       98850.537       15313.669       4.9985000      -1.9140000      0.44100000       341.62600       1.9727972     0.011690014
       1193.0000       290.09955       98846.969       15314.562       4.4380000      -2.1305000     -0.21975000       341.83600       1.9909549     0.013460014
       1198.0000       290.08603       98844.976       15315.137       3.8697500     -0.60250000    -0.036750000       341.97100       1.8942243     0.014001763
       1203.0000       290.07218       98841.496       15315.873       5.9932500      -1.0762500      0.12775000       341.63300       1.9868682     0.010350600
       1208.0000       290.05800       98839.696       15316.273       3.5025000     -0.25200000     -0.28675000       342.17500       2.0963118     0.010557343
       1214.0000       290.04055       98838.877       15316.444       3.5417500      -1.2725000      0.57925000       341.80800       2.0795189    0.0099807643
       1219.0000       290.02565       98840.192       15316.191       7.3007500      -1.7175000     -0.11650000       341.50700       3.3340022     0.012520031
       1224.0000       290.01042       98844.158       15315.446       3.2897500      -1.3075000      0.30650000       341.62600       2.4601191     0.012883385
       1229.0000       289.99486       98846.173       15314.931       2.8462500      0.38775000      0.36800000       341.84600       2.5249403     0.016300502
       1234.0000       289.97897       98845.722       15314.727       4.3122500      0.99675010     -0.18050000       341.34400       2.3886721     0.012295301
       1239.0000       289.96275       98851.497       15313.466       4.3365000     -0.61800000     -0.47250000       341.37400       4.0465205     0.012268312
       1244.0000       289.94620       98861.551       15311.454       6.2057500      -1.0230000     -0.23925000       341.63300       3.8951959     0.012561467
       1249.0000       289.92932       98867.495       15310.008       4.4370000      -1.9677500     -0.41925000       341.79100       3.5447423     0.013644714
       1254.0000       289.91211       98876.176       15308.052       4.6730000      -1.1882500      0.15225000       342.08500       2.2109901     0.013732605
       1259.0000       289.89458       98883.778       15306.185       3.7707500      -1.1222500    0.0082500000       342.19500       2.5305150     0.011259995
       1264.0000       289.99018       98890.572       15401.662       6.5277500      -2.5392500     -0.85300000       341.68400       3.7928246     0.012896712
       1269.0000       289.98866       98891.798       15399.580       4.0067500      -2.1537500     -0.41125000       342.21300       2.6027057     0.012951844
       1274.0000       290.15698       98889.111       15611.684       5.4855000     -0.89750000     -0.36925000       341.24200       1.9435984     0.014103561
       1279.0000       290.15327       98891.126       15598.493       5.6445000      -1.6040000     -0.16925000       341.23700       2.0779863     0.011939879
       1284.0000       290.10499       98891.512       15510.996       2.3487500      -1.3917500     -0.12400000       342.30500       1.9974032     0.011354760
       1289.0000       290.08872       98889.560       15445.605       4.1095000      -1.3722500      0.11875000       341.40700       1.8417087     0.021806885
       1294.0000       290.12552       98889.014       15420.708       3.8882500     -0.11650000      0.17925000       341.99400       1.8016411     0.015686051
       1299.0000       290.09788       98891.007       15338.860       4.1075000     -0.96425000    0.0010000000       342.53100       1.9578928     0.011915791
       1305.0000       290.01459       98891.066       15168.748       5.5147500     -0.86300000     -0.98500010       341.61000       2.0669184     0.010489022
       1310.0000       289.97448       98889.024       15066.337       4.2072500      -1.7257500     0.041000000       342.50000       1.8742765     0.015486844
       1315.0000       289.91286       98891.899       14960.454       2.7632500      -1.8342500     -0.37100000       342.05400       1.7836264     0.022394042
       1320.0000       289.86954       98890.695       14864.573       3.2740000     -0.47425000    -0.059000000       342.64000       1.9530242     0.010119496
       1325.0000       289.85849       98880.375       14777.935       4.1322500      -1.1747500     -0.16000000       342.74800       2.2857019     0.013503907
       1330.0000       289.83803       98877.613       14720.183       2.7582500     -0.26825000     0.090750000       342.06400       2.3048053     0.012484486
       1335.0000       289.79070       98881.364       14657.667       3.8820000      0.98025010     0.058500000       341.90800       3.1456143     0.013010674
       1340.0000       289.79364       98879.707       14643.833       5.4757500     -0.91700010     -0.77850000       341.78200       4.8107921     0.011867056
       1345.0000       289.84326       98878.315       14687.389       6.0652500     -0.27550000     -0.27725000       341.70900       3.2409110     0.023751441
       1350.0000       289.86337       98873.097       14716.094       4.8765000       1.1075000      0.47275000       342.16300       2.7512380     0.010774192
       1355.0000       289.88828       98861.721       14739.390       5.1087500     -0.10300000     -0.19375000       342.34400       3.1687362     0.015363989
       1360.0000       289.91797       98856.319       14817.013       5.4920000     -0.31125000     -0.24475000       341.47500       3.0788409     0.012587211
       1365.0000       289.94161       98850.680       14937.568       4.6370000       1.9090000      -1.5635000       342.27300       2.5297342     0.013631107
       1370.0000       289.96128       98848.029       15033.827       4.6520000      0.50550000      0.10075000       342.06600       4.0466544     0.011346114
       1375.0000       290.02240       98850.302       15223.039       4.9962500     -0.20650000      0.11575000       341.83600       3.7617397     0.025753425
       1380.0000       290.00313       98850.274       15252.600       3.6547500      0.78200010     0.096500000       341.99400       4.6585569     0.015488210
       1385.0000       289.91623       98851.341       15184.552       4.3305000      0.65700000      0.33775000       341.96300       2.7847698     0.013781365
       1390.0000       289.87619       98849.694       15130.359       4.9547500       1.1685000       1.6830000       341.91300       2.7353052     0.011247655
       1396.0000       289.80227       98845.483       14965.044       4.9495000     -0.13525000     -0.64800000       341.37800       2.5322696     0.011698074
       1401.0000       289.76078       98843.474       14880.018       3.5202500     0.039750000     -0.34750000       342.22500       2.7508326     0.010549673
       1406.0000       289.75368       98838.934       14818.095       3.1997500     -0.13650000      0.37125000       342.15900       3.2478068     0.012426236
       1411.0000       289.73359       98839.592       14757.080       3.6025000      0.35850000       1.3270000       341.93200       2.7564243     0.014313721
       1416.0000       289.69721       98842.983       14689.796       2.9985000      0.37925000      0.21600000       342.06400       2.6771668     0.013741168
       1421.0000       289.68623       98848.820       14659.913       1.9800000     -0.29825000      0.30975000       342.44400       2.8953080     0.028699099
       1426.0000       289.70901       98859.129       14662.735       4.6437500      0.77450000    -0.081250000       341.49800       2.7147910     0.012654858
       1431.0000       289.69035       98866.240       14646.495       3.7610000     -0.67075000      0.21275000       342.23100       2.2691296     0.023403487
       1436.0000       289.65355       98875.715       14644.633       5.4352500     -0.37600000     -0.33675000       341.60100       3.1117898     0.032298175
       1441.0000       289.63362       98879.989       14631.526       4.3862500     0.021750000     -0.12275000       341.57100       3.6944216     0.013284411
       1446.0000       289.59700       98880.474       14580.255       4.0492500       1.7877500      0.31475000       341.80900       2.2413923     0.026327785
       1451.0000       289.58599       98881.558       14613.768       5.8300000      0.46650000     -0.43800000       341.30800       2.7100056     0.013094911
       1456.0000       289.61783       98880.250       14708.698       4.4582500      0.55200000     -0.36750000       341.57700       4.0763055     0.011287912
       1461.0000       289.58069       98880.203       14731.967       4.3415000      0.60125010      0.49625000       341.70700       2.7828668     0.012644106
       1466.0000       289.53831       98880.299       14803.340       3.1070000      0.61350010      0.18950000       341.78300       2.9250485     0.012445493
       1471.0000       289.44101       98880.266       14762.844       3.5227500      0.10500000      0.20700000       341.92000       2.9537777     0.011233365
       1476.0000       289.25733       98880.360       14618.680       3.2280000     -0.19650000     0.098250000       341.97400       2.6896876     0.011556444
       1482.0000       289.16004       98881.758       14512.669       4.3922500       1.6942500     -0.91625010       341.10200       3.0826229     0.014848833
       1487.0000       289.08678       98880.890       14411.216       3.8522500     -0.80525000      0.21225000       341.39100       2.5610345     0.016417326
       1492.0000       289.06957       98877.225       14286.800       3.7152500     -0.62875000     0.077750000       341.81700       3.0748022     0.016732528
       1497.0000       289.04966       98875.234       14198.544       3.7887500      0.27175000      0.27950000       341.41900       2.9769457     0.015647136
       1502.0000       289.02976       98873.229       14122.047       3.5900000     -0.10025000    -0.098000000       341.70300       3.0201035     0.012067912
       1507.0000       288.98738       98870.758       14025.327       4.6120000     -0.34900000      0.48075000       341.70100       2.9928553     0.011715382
       1512.0000       289.00053       98865.513       14012.288       4.1340000     -0.20975000     -0.15675000       341.87100       4.7843863     0.013298666
       1517.0000       289.05055       98860.312       14060.894       3.2092500     -0.67675000     -0.10325000       341.77900       3.3647157     0.017315522
       1522.0000       289.08510       98853.278       14096.631       3.5305000      -1.0380000      0.15425000       341.85300       3.5038028     0.016200825
       1527.0000       289.10649       98848.965       14132.616       3.0065000      -1.1090000      0.56825000       342.05700       3.2104108     0.015211080
       1532.0000       289.10016       98850.395       14151.445       4.6277500     -0.80200000      0.29350000       341.92100       2.8927199     0.012157182
       1537.0000       289.10016       98850.454       14191.366       3.7785000      -1.6705000    -0.095500010       341.57400       2.2960758     0.011774083
       1542.0000       289.11532       98847.187       14285.179       2.8615000      -1.8835000     -0.20700000       341.88700       2.0049925     0.012520356
       1547.0000       289.10685       98848.904       14330.237       4.1480000      -2.5147500     -0.22425000       341.44000       2.0408368     0.010393157
       1552.0000       289.08609       98853.092       14356.468       3.8082500      -1.2620000      0.17850000       341.88000       1.9677804     0.010017499
       1557.0000       289.04400       98859.464       14371.444       3.0970000     -0.59775000     -0.40550000       342.00000       2.0326131     0.016128874
       1562.0000       289.04515       98865.675       14388.173       3.7050000     -0.98175010      0.38500000       341.91600       2.0103775     0.010192059
       1567.0000       289.04428       98875.292       14373.022       4.3317500      -1.2395000      0.11950000       341.53500       2.2319719    0.0099996970
       1573.0000       289.09019       98886.035       14389.198       4.7520000     -0.51375000     -0.16750000       341.36000       1.9376705     0.013489441
       1578.0000       289.10915       98891.896       14394.819       5.1580000      -1.1745000    -0.041000000       341.46900       1.9590760     0.011509180
       1583.0000       289.08576       98898.453       14352.331       2.5387500     -0.23000000      0.50100000       341.63100       2.0726811     0.010193727
       1588.0000       289.09690       98902.187       14361.476       5.8492500      -1.0002500      0.77700000       341.81000       2.0679947     0.011608791
       1593.0000       289.13368       98903.217       14416.838       5.3570000     -0.90475000     -0.23925000       341.23200       2.0516193     0.011542953
       1598.0000       289.15378       98900.934       14449.502       4.6770000      0.41825000     -0.69925000       341.50600       2.7607775     0.013138964
       1603.0000       289.21790       98894.937       14527.857       3.2347500     -0.89125000    -0.080500010       341.54700       2.1225520     0.010007630
       1608.0000       289.21386       98889.794       14548.054       4.0240000      -1.0137500      0.27525000       341.55700       2.2887305     0.016892168
       1613.0000       289.11642       98881.421       14485.143       4.3457500      -2.2957500     0.063250010       341.33900       2.0473943     0.014934658
       1618.0000       289.08725       98873.350       14479.857       3.9252500     0.078000000      0.21000000       341.62900       2.0157520     0.011629324
       1623.0000       289.06752       98864.352       14494.801       3.7602500     -0.87800000     -0.13150000       341.30400       1.8862358     0.013118777
       1628.0000       289.03921       98858.544       14486.693       3.9132500    -0.052750000     -0.23050000       341.48100       1.9687126     0.011209086
       1633.0000       289.05602       98853.622       14495.108       4.0947500      -1.7587500     -0.52525000       341.60600       1.9524715     0.011600164
       1638.0000       289.05481       98848.763       14504.463       3.5160000      -1.4195000     -0.10350000       341.67200       1.9160888     0.016344706
       1643.0000       289.00971       98845.478       14478.575       2.1837500     -0.95850000     -0.47200000       341.59100       1.9824918     0.011925346
       1648.0000       288.99097       98844.608       14474.477       3.3095000     -0.47975000    0.0017500000       341.51600       2.0039403     0.013846747
       1653.0000       289.01444       98841.798       14521.929       1.5655000     -0.36975000    -0.092000010       341.62800       1.9296499     0.013423019
       1658.0000       289.00335       98844.139       14527.677       2.1775000     -0.43025000      0.56475000       341.69300       1.9094960     0.011721602
       1664.0000       288.97444       98856.158       14516.504       2.9722500     -0.97050010    -0.013500000       341.67400       1.9144718     0.012772206
       1669.0000       288.94086       98863.146       14483.087       3.0457500      -1.6122500    -0.043500000       341.60100       2.0448964     0.012794543
       1674.0000       288.86689       98870.626       14408.343       3.7445000      -1.1597500      0.24475000       341.57800       2.0800759     0.011004804
       1679.0000       288.83100       98878.608       14352.906       2.1757500      -1.3162500    -0.065250000       341.46800       1.9778096     0.012912811
       1684.0000       288.83230       98890.070       14305.754       3.3602500     -0.42225000      0.92400000       341.62400       1.8795460     0.018967214
       1689.0000       288.78848       98892.935       14226.896       3.9712500     -0.55450000      0.67250000       341.68900       1.9321863     0.012324797
       1694.0000       288.72416       98891.785       14125.891       5.6240000     -0.15425000    -0.075250010       341.63600       1.8658878     0.016486517
       1699.0000       288.68415       98891.114       14044.238       3.1522500      -1.6627500      0.67550000       341.35700       1.9009446     0.013840351
       1704.0000       288.60933       98882.397       13926.058       5.0195000      -1.3122500      0.70150010       341.57900       1.8508973     0.014450965
       1709.0000       288.57654       98877.699       13855.622       4.5827500     -0.90825000      0.76025000       341.56900       2.9858760     0.013219865
       1714.0000       288.60026       98879.089       13822.724       4.6552500      0.23575000      0.15075000       341.64100       2.2583039    0.0092417125
       1719.0000       288.60037       98874.371       13797.629       4.6000000     -0.45175000     -0.68575000       341.15500       1.9699316     0.010239696
       1724.0000       288.59982       98864.586       13795.091       4.8677500     -0.35525000      0.88850000       341.46300       2.2729948    0.0098574322
       1729.0000       288.59966       98857.653       13793.156       4.3835000     -0.13450000      0.59275000       341.48800       2.1320476     0.011108335
       1734.0000       288.60032       98846.287       13805.083       3.6455000      0.24300000      0.14125000       341.33900       2.1751994     0.014692463
       1739.0000       288.60048       98842.408       13822.524       3.3435000      0.86450000      0.18750000       341.56800       2.9656864     0.012606358
       1744.0000       288.61304       98840.720       13856.891       3.0180000     -0.85675000     -0.36800000       341.57400       3.8393157     0.012799455
       1749.0000       288.59939       98845.208       13871.695       3.3992500     -0.61600010      0.49475000       341.55500       4.4163812     0.012920344
       1755.0000       288.54629       98860.771       13876.071       3.9507500     -0.90600000     0.065250000       341.32100       4.2652813     0.011680252
       1760.0000       288.54228       98871.416       13901.541       2.7787500       1.2795000      0.37525000       341.49300       3.5419860     0.019601902
       1765.0000       288.53161       98890.912       13913.287       2.7405000      0.84600000      0.17200000       341.60000       4.3229679     0.012110987
       1770.0000       288.55389       98895.810       13958.729       2.3070000      -1.1895000      0.26100000       341.60800       3.9015524     0.022605352
       1775.0000       288.65230       98891.995       14075.270       2.8540000     -0.41550000    -0.011250000       341.38800       3.8544860     0.014986565
       1780.0000       288.66950       98890.761       14104.222       2.7520000      -1.1045000      0.72375010       341.53900       3.3034232     0.012458547
       1785.0000       288.65756       98880.486       14099.904       4.9425000      -1.0257500     -0.56700000       341.24200       2.2378470     0.014957321
       1790.0000       288.65163       98877.728       14104.830       4.6872500      -2.6340000     -0.65100000       341.09000       2.0318773    0.0090031359
       1795.0000       288.59961       98881.474       14062.458       3.9432500      -1.8967500    -0.018000000       341.31600       2.1391334     0.011448273
       1800.0000       288.58536       98879.924       14045.581       4.4600000      -3.9890000     -0.32625000       341.12500       2.0403817     0.011541954
       1805.0000       288.61131       98878.342       14067.051       3.8700000      -1.7942500      0.29350000       341.35700       2.0236185     0.014034499
       1810.0000       288.59516       98873.132       14044.142       3.4420000      -1.5990000      0.95400010       341.51400       1.8771740     0.011656030
       1815.0000       288.55791       98861.976       13977.979       5.3405000      -2.7675000      -1.1780000       341.18700       1.8963218     0.010209178
       1820.0000       288.53800       98856.642       13952.449       3.4450000     0.016000000    -0.089000000       341.44400       2.0737491     0.017559243
       1825.0000       288.50143       98848.250       13923.056       3.8287500      -2.3262500     0.038250000       341.30100       1.9076845     0.012941624
       1830.0000       288.48801       98848.858       13917.929       3.4497500     -0.91100010     -0.82650010       341.47300       2.0859703    0.0086398383
       1835.0000       288.51156       98860.890       13960.219       3.8547500      -1.7322500     -0.24775000       341.45700       2.2797573    0.0088634942
       1840.0000       288.49549       98861.680       13955.312       3.3735000      -1.2607500     0.049500000       341.51000       1.9464152     0.017070587
       1846.0000       288.43555       98858.796       13912.329       2.3245000     -0.59975000      0.75425000       341.56200       1.8206889     0.017702218
       1851.0000       288.45278       98862.604       13934.912       2.0145000      -2.1610000      0.35000000       341.43500       2.0061473     0.011310548
       1856.0000       288.48929       98863.525       13962.711       3.2495000      -2.1967500      -1.1042500       341.31900       1.9251879    0.0095506119
       1861.0000       288.51794       98867.252       14005.354       4.4797500     -0.26650000     0.058750000       341.33600       1.9462829    0.0083188493
       1866.0000       288.61597       98883.921       14123.728       4.8512500      -2.0152500     -0.13525000       341.16200       1.8595174     0.013853628
       1871.0000       288.61920       98881.479       14147.318       5.3337500      -2.2865000    0.0090000010       341.28100       1.9540494    0.0091656603
       1876.0000       288.55337       98866.446       14123.342       6.4335000     -0.91125010     -0.24925000       341.20100       1.9003200    0.0090772885
       1881.0000       288.53312       98860.415       14110.596       3.5190000      -2.5112500     -0.14725000       341.09000       1.8287619     0.014402052
       1886.0000       288.49669       98849.119       14062.109       5.5410000      -1.5260000    0.0082500000       341.16100       1.9404572     0.011807362
       1891.0000       288.48543       98845.695       14047.105       3.5420000      -1.2485000      0.64400010       341.30300       1.9555600    0.0087013358
       1896.0000       288.49951       98848.744       14042.101       4.0562500      -1.6522500     -0.31650000       341.32500       1.8674929     0.011617006
       1901.0000       288.49921       98852.550       14040.649       5.2840000      -2.5242500     -0.41100000       341.18400       1.9345004     0.010671706
       1906.0000       288.50033       98858.650       14049.248       2.5232500      0.24875000       1.0217500       341.33900       1.9157132     0.010911329
       1911.0000       288.50044       98864.527       14058.828       3.9310000     -0.42150000      0.45000000       341.33300       2.2270106     0.010018167
       1916.0000       288.50968       98873.342       14075.365       3.6145000     -0.64500000     -0.23250000       341.27900       3.1359946     0.010686889
       1921.0000       288.49088       98881.303       14086.942       3.1430000      -1.7157500   -0.0022500000       341.16600       2.3055537     0.010347031
       1926.0000       288.45396       98889.587       14108.677       4.4387500      -1.1710000      0.19950000       341.23600       1.9559677    0.0093958491
       1931.0000       288.43394       98894.713       14101.782       4.8250000      -2.2100000     0.018000000       341.26000       2.0769949     0.018451784
       1937.0000       288.39952       98902.883       14086.508       3.3890000     -0.36600000      0.37025000       341.32700       1.9250747     0.011468077
       1942.0000       288.35494       98895.707       13969.000       2.7500000      -1.0030000      0.52625000       341.44100       1.8841475     0.013056101
       1947.0000       288.34381       98890.809       13919.538       2.9505000      -1.3942500     -0.14975000       341.35300       1.9463978    0.0079691415
       1952.0000       288.34492       98884.675       13890.220       3.7937500     -0.21400000     -0.48200000       341.25800       2.0040462     0.010898697
       1957.0000       288.34360       98875.480       13854.098       5.6275000     -0.73300000      -1.1510000       340.99900       2.0615844     0.010696044
       1962.0000       288.35543       98867.421       13859.067       5.4487500     -0.51675000     -0.38075000       341.19600       2.9944471     0.010322461
       1967.0000       288.40595       98858.448       13927.910       5.5607500       1.8532500    -0.019000000       341.21800       2.1669338    0.0097291161
       1972.0000       288.41461       98854.916       13946.363       2.3012500     -0.83175000      0.29250000       341.38900       3.2787908     0.011511691
       1977.0000       288.40596       98857.272       13962.321       3.5280000      -1.6307500      0.46475000       341.37800       2.8839620     0.011039556
       1982.0000       288.36982       98876.496       13999.685       4.5110000      -1.9145000      0.19600000       341.33600       2.2787130     0.011383941
       1987.0000       288.35003       98886.628       14003.332       4.3847500      -1.4160000      0.43200000       341.27100       2.1908855     0.021697035
       1992.0000       288.30006       98895.897       13970.437       4.5702500     -0.68575000     -0.30175000       341.19400       2.1355718     0.014276521
       1997.0000       288.28762       98902.283       13948.781       5.8845010    -0.077500000     0.019750000       341.32000       2.0321783     0.011383349
       2002.0000       288.29982       98904.987       13921.456       4.0457500      -1.0215000     -0.51525000       341.27200       2.2505611    0.0099927791
       2007.0000       288.33572       98901.700       13858.250       4.6467500     -0.46425000      0.46800000       341.23600       1.9307906    0.0087861764
       2012.0000       288.39894       98897.424       13873.489       3.5310000      -1.5037500      0.13300000       341.21900       2.0260270     0.011290858
       2017.0000       288.50561       98892.740       13922.421       4.2477500      -1.1335000     -0.15675000       341.12100       1.9659154    0.0095263973
       2023.0000       288.59506       98866.989       14034.595       2.0377500      -1.5615000      0.43900000       341.41400       2.0290634     0.011393590
       2028.0000       288.62235       98856.208       14074.609       4.3417500      -2.5535000     -0.20900000       341.24200       1.9692176    0.0072755265
       2033.0000       288.56629       98843.294       14067.871       3.0610000     -0.45475000     -0.13975000       341.29400       1.8532394     0.010844101
       2038.0000       288.54661       98841.170       14070.677       3.1580000     -0.14950000      0.11500000       341.42700       1.9317017     0.010374201
       2043.0000       288.49449       98859.332       14021.542       3.7580000      -2.3115000     -0.79050000       341.33600       1.8975952    0.0090105787
       2048.0000       288.48715       98867.197       14015.012       4.0937500      0.24225000      0.19900000       341.26600       2.1610838     0.010201056
       2053.0000       288.53394       98874.716       14053.347       2.6972500      -1.4967500      0.44600000       341.51900       1.9920522    0.0087830017
       2058.0000       288.55400       98882.804       14062.736       2.8507500      -2.5030000     -0.18175000       341.38000       2.3269411     0.011850266
       2063.0000       288.59102       98890.048       14075.377       4.2272500      -2.9185000    -0.094500010       340.99200       1.9550269     0.010179390
       2068.0000       288.61023       98891.843       14081.888       3.7912500      -3.0407500      0.14850000       341.36600       1.9497688    0.0081711671
       2073.0000       288.58607       98895.781       14037.573       3.8292500      -1.4182500     -0.22525000       341.30700       2.0285830     0.014709534
       2078.0000       288.59754       98892.128       14050.091       3.2265000      -1.2170000      0.50075000       341.39000       1.8629928     0.011269761
       2083.0000       288.64820       98872.097       14129.685       4.0765000      -1.9017500    -0.032500000       341.28700       1.9677235     0.012490958
       2088.0000       288.65692       98862.418       14153.646       3.4640000      0.84475000     0.084250000       341.56200       1.9313448     0.013674442
       2093.0000       288.65726       98850.283       14182.403       3.7285000     -0.51125000      0.84900000       341.48800       1.9803162    0.0088212457
       2098.0000       288.65598       98846.927       14195.405       4.5022500     -0.49925000     -0.12875000       341.19000       1.9547761    0.0086976583
       2103.0000       288.61071       98852.899       14151.437       4.6162500      0.34100000      0.57900010       341.33700       2.1716817     0.010746003
       2108.0000       288.59200       98860.374       14129.010       4.6610000      -1.2325000       1.0210000       341.27400       2.1440015    0.0093449766
       2114.0000       288.60058       98880.933       14125.881       5.1870000      0.16400000    0.0035000000       341.36500       2.0600183     0.011835266
       2119.0000       288.60082       98890.267       14109.964       6.2122500     -0.96300010     0.071500000       341.12700       2.0720491     0.016597806
       2124.0000       288.58732       98901.354       14064.595       4.2295000      -1.4625000      0.25550000       341.33500       2.1018650     0.016456076
       2129.0000       288.60115       98903.412       14057.731       4.2730000      -2.0990000     -0.23975000       341.38700       1.8986565    0.0090578435
       2134.0000       288.62406       98894.022       14044.810       5.2405000      -1.0290000      0.12050000       341.37900       1.8904677    0.0086716402
       2139.0000       288.65822       98888.541       14077.114       4.5397500      -1.5247500      0.37800000       341.47200       1.9811507     0.010592232
       2144.0000       288.74593       98880.131       14190.378       4.4990000      0.31325000     -0.27625000       341.47900       1.9182109    0.0081811052
       2149.0000       288.76859       98872.112       14230.538       4.0100000     -0.55300000     -0.33950000       341.33000       2.0566355     0.021096592
       2154.0000       288.75626       98860.269       14252.303       4.9817500     -0.88700000     -0.20400000       341.39400       1.9746843     0.011247824
       2159.0000       288.75247       98857.293       14280.668       4.0670000      0.35950000      0.23575000       341.53700       1.8871274     0.010670022
       2164.0000       288.69175       98855.037       14252.670       3.9075000      -1.8580000      0.69975000       341.41700       1.9191345    0.0096811657
       2169.0000       288.68945       98859.921       14273.514       5.5407500      0.82350000      0.66300000       341.33900       2.0020334     0.012188217
       2174.0000       288.72522       98880.472       14344.806       4.1325000     -0.68525000     -0.49825000       341.44600       1.8460644     0.015942486
       2179.0000       288.75875       98889.600       14390.884       4.6617500      -1.9375000     0.084000010       341.36600       1.9371789     0.016822106
       2184.0000       288.84538       98898.630       14468.080       4.2672500      -1.8015000      0.21650000       341.52200       1.9579103     0.010951112
       2189.0000       288.86766       98903.435       14479.876       2.6492500     -0.90425000      0.67425000       341.75100       1.8708563    0.0096618421
       2194.0000       288.84353       98906.766       14422.099       3.4510000     -0.52850000     -0.27425000       341.44300       1.8883393     0.011475720
       2199.0000       288.85364       98899.898       14423.519       3.0917500      -1.1045000    -0.097250010       341.66900       2.0005598     0.010823800
       2205.0000       288.84307       98878.884       14411.102       2.9527500      -1.6670000     0.075250010       341.65800       1.9890821     0.013793536
       2210.0000       288.84895       98868.810       14417.782       5.6852500      -2.7252500    -0.042500000       341.33500       1.9110520     0.010707133
       2215.0000       288.89940       98847.339       14495.632       5.4482500      -1.3717500      0.15000000       341.15200       2.0402194     0.013369846
       2220.0000       288.91303       98845.389       14504.834       4.4565000      -1.4472500      0.33150000       341.41400       1.9942064     0.011272409
       2225.0000       288.89947       98860.210       14473.417       3.0185000      -1.8887500       1.0660000       341.51600       1.8615947     0.011180478
       2230.0000       288.89919       98869.528       14448.226       4.8385000      -2.9595000      0.80600010       341.52300       1.9025811     0.012261270
       2235.0000       288.87816       98888.234       14385.238       4.6575000      -1.3942500     -0.53850000       341.54600       1.9433944    0.0095475217
       2240.0000       288.91102       98896.399       14379.836       4.4270000     -0.97175000      0.32500000       341.55700       1.9560875    0.0095815401
       2245.0000       288.98538       98902.289       14399.690       5.1150000      -2.0630000       1.0165000       341.32400       1.8275806     0.014443813
       2250.0000       289.02542       98901.770       14411.772       5.7830000     -0.30050000     -0.14150000       341.40500       1.9285066     0.010571226
       2255.0000       289.09893       98895.216       14466.282       6.4545000      -1.1825000      0.10625000       341.27200       1.8646695     0.016799273
       2260.0000       289.12593       98886.371       14479.638       4.7630000     -0.46675000      0.82075010       341.65400       1.8244868     0.015993255
       2265.0000       289.11171       98865.653       14450.915       4.8497500     -0.89425000     -0.41850000       341.38900       1.9372386    0.0092992266
       2270.0000       289.09587       98860.172       14463.340       4.2647500      -1.7967500      0.78125010       341.41500       2.0374761     0.013934284
       2275.0000       289.05898       98857.549       14505.988       6.3510000      -1.5685000      0.34450000       341.49500       2.1457664     0.026438916
       2280.0000       289.03886       98859.118       14500.520       4.1660000      -1.9325000     0.099500010       341.73400       1.9742316     0.013884864
       2285.0000       289.00138       98872.053       14506.000       5.6892500      -1.6610000     -0.77300010       341.50300       2.0302416     0.014456737
       2290.0000       288.98759       98880.155       14464.074       5.2110000      -1.9240000     -0.48950000       341.29200       1.8957929    0.0098577933
       2296.0000       288.98228       98891.685       14319.826       3.6015000      -2.1950000       1.2360000       341.77400       1.9174413    0.0087085956
       2301.0000       289.01950       98893.125       14284.551       4.7950000     -0.39325000     -0.39800000       341.50000       1.9162334     0.012545423
       2306.0000       289.06523       98892.595       14250.555       5.1830000      -2.2675000      0.59175000       341.82900       1.9413207     0.010766039
       2311.0000       289.16066       98889.014       14283.856       3.8335000      -3.9552500     -0.13025000       341.72100       1.9222819     0.010132121
       2316.0000       289.35140       98877.206       14396.062       3.7947500      -1.8770000     -0.24925000       341.69700       1.8583660    0.0094402004
       2321.0000       289.41507       98869.244       14472.353       4.8252500      -3.0537500      0.15350000       341.25200       1.9389860    0.0093658793
       2326.0000       289.44481       98858.148       14567.003       4.4580000      -1.0550000     -0.16350000       341.61600       1.8812913    0.0095091097
       2331.0000       289.49663       98858.656       14668.328       3.8772500     -0.95700000     0.091750000       341.76500       1.8818008     0.011732333
       2336.0000       289.48979       98861.877       14781.899       3.9355000     -0.95000000     -0.43325000       341.62000       2.0240249     0.011429770
       2341.0000       289.51822       98869.351       14860.683       4.7740000      -1.6965000      0.66700010       341.97200       1.9094815     0.012780805
       2346.0000       289.61553       98892.437       14966.086       3.6517500     -0.97725000     -0.49025000       342.03700       1.9468609     0.010115077
       2351.0000       289.61935       98896.056       14989.517       2.8522500     -0.25575000      0.20750000       342.23500       1.9069421    0.0089282737
       2356.0000       289.53599       98894.489       14937.206       1.8090000     -0.62875000      0.78125010       342.51100       1.9008575     0.012280114
       2361.0000       289.55310       98887.243       14925.530       4.4115000     -0.18600000     -0.41475000       342.42100       1.9603562    0.0092635311
       2366.0000       289.56885       98866.392       14888.324       4.3292500      0.95075010     -0.21975000       342.31800       2.0060688     0.011664157
       2371.0000       289.63621       98858.220       14870.651       3.6275000       1.5057500      0.50550000       342.68500       1.8538293     0.014394902
       2376.0000       289.78853       98846.908       14849.132       3.7755000       1.5137500     -0.70100000       342.10200       2.0462724     0.017573858
       2381.0000       289.87036       98849.161       14879.408       4.2907500      0.48575000      0.79450010       342.19200       1.9867392     0.010785492
       2387.0000       289.96400       98864.274       14937.753       3.1417500      0.81750010      0.85600010       342.04200       1.9261274    0.0098523133
       2392.0000       290.00025       98881.970       15072.091       5.0305000       1.0397500    -0.031750000       341.74000       1.9549572     0.010883576
       2397.0000       290.01251       98892.261       15138.959       5.0355000       2.4032500     -0.95850000       341.66400       1.8962436     0.011104050
       2402.0000       290.00019       98898.857       15172.587       3.8920000     -0.14250000      0.48475000       342.67500       1.9419128    0.0091962864
       2407.0000       289.95771       98903.762       15173.156       2.6192500     -0.88025000       1.1437500       342.91900       1.8660505     0.012961164
       2412.0000       289.91602       98899.070       15165.998       6.2590000      -1.9485000      0.18975000       341.96500       2.0175958     0.010520501
       2417.0000       289.84400       98885.232       15107.925       4.6167500     -0.41525000     -0.43750000       341.32500       1.9187681    0.0093527312
       2422.0000       289.84413       98873.101       15169.080       3.7667500      -1.1460000     -0.11700000       341.35800       1.9735736     0.010164142
       2427.0000       289.80519       98867.463       15153.808       3.4190000     -0.84750000     0.019750000       341.94700       2.0397383     0.012624255
       2432.0000       289.72451       98873.340       15086.356       4.7972500     -0.97350010     -0.33500000       341.44200       1.9026843     0.010829396
       2437.0000       289.69357       98875.331       15046.413       4.1505000      0.27350000     -0.82700000       342.05700       1.9423386    0.0087698835
       2442.0000       289.67493       98883.419       14972.858       4.7502500     -0.44800000      0.19400000       341.44300       2.0349195     0.013284591
       2447.0000       289.64382       98882.984       14891.254       2.9947500      0.79525010      0.28525000       342.33800       2.0133712     0.015536027
       2452.0000       289.62500       98877.620       14815.229       2.3842500       2.6890000      0.45175000       342.08300       1.8619359     0.011612936
       2457.0000       289.65744       98865.683       14772.359       4.6117500     0.064500000     -0.29150000       342.76500       1.9258778     0.010789383
       2462.0000       289.64595       98859.689       14716.071       4.8827500      0.80325000     -0.89825000       341.90500       1.8905102     0.011071165
       2467.0000       289.59992       98846.755       14628.140       4.2582500      0.99075010     -0.27600000       341.64900       1.8449359     0.014384001
       2472.0000       289.58393       98856.475       14579.966       4.3240000      0.17800000     -0.11975000       341.90800       1.9803634     0.010936774
       2478.0000       289.54761       98866.124       14555.431       2.7780000      0.52100000      0.29175000       342.17200       1.9074937    0.0099258277
       2483.0000       289.46157       98887.230       14575.455       2.8387500     -0.43375000      0.21625000       342.38200       1.8983439     0.011513209
       2488.0000       289.43443       98894.589       14555.189       4.4322500      0.30150000     -0.56450000       341.90700       1.9417361     0.010624281
       2493.0000       289.47232       98893.184       14523.600       4.2490000      -1.0680000     -0.34525000       341.96300       2.0307577     0.016755981
       2498.0000       289.45091       98891.731       14516.668       3.2842500      0.72775010      -1.0397500       342.45500       1.9266883     0.010347609
       2503.0000       289.40731       98877.440       14473.851       3.5777500       1.2272500     -0.37125000       342.49100       1.9237391     0.010422846
       2508.0000       289.39721       98872.765       14469.789       3.3912500      0.12350000      0.30500000       342.23600       1.8541234     0.012829790
       2513.0000       289.36775       98871.797       14554.877       4.0740000     -0.54600000     -0.39325000       342.55000       1.9695627     0.014341215
       2518.0000       289.33899       98874.129       14574.395       3.3787500      0.72250000      0.53975000       342.39300       1.9463304     0.014071221
       2523.0000       289.38441       98886.228       14564.130       5.7480000     -0.32550000       1.4090000       342.45500       1.8785563     0.013757377
       2528.0000       289.36026       98892.036       14552.122       6.7405000     -0.51975000     0.012250000       341.34600       1.9395645     0.013973234
       2533.0000       289.24202       98901.164       14498.795       5.1525000      -1.3545000     0.064250000       341.67500       1.8485765     0.015431270
       2538.0000       289.18374       98902.686       14463.950       3.7770000     -0.29325000    -0.032500000       342.08800       1.9343236     0.011812824
       2543.0000       289.13426       98898.047       14451.475       6.3832500      -3.5580000      0.43175000       341.31900       1.8626308     0.012833697
       2548.0000       289.08563       98890.661       14416.157       7.0562510     -0.32175000      0.31125000       341.54300       2.0187936     0.011561602
       2553.0000       289.08038       98869.550       14365.286       6.3435000      -1.6612500     -0.53825000       341.44400       1.9883557     0.012238468
       2558.0000       289.04909       98862.112       14321.170       5.8052500       1.1715000     -0.23800000       341.87700       1.9714414     0.011597769
       2563.0000       288.96106       98855.888       14241.325       3.4630000      0.32325000      0.30800000       341.65200       1.8195574     0.015100028
       2569.0000       288.93038       98858.781       14206.375       5.0710000       1.0027500     -0.27200000       341.75800       1.9267621     0.010298735
       2574.0000       288.94338       98880.842       14212.054       5.5270000      0.17150000     -0.45800000       341.27200       1.8452972     0.012996980
       2579.0000       288.94731       98890.069       14221.285       5.9407500      0.74550000      0.20625000       341.68100       1.9667953    0.0093093536
       2584.0000       288.99569       98901.514       14263.229       6.3112500     -0.13150000     0.083250000       341.70900       1.8437862     0.014854331
       2589.0000       289.01188       98903.559       14299.285       4.8972500     -0.43850000     -0.77900000       341.51900       1.8833364     0.011599122
       2594.0000       288.98721       98896.415       14321.347       3.4892500     -0.81800000      0.11800000       341.94100       2.0090286    0.0099358564
       2599.0000       289.00117       98888.194       14379.168       3.6042500      0.83375010     -0.13900000       341.73600       1.9306884     0.012675801
       2604.0000       289.05184       98865.707       14484.127       3.4715000     -0.37200000     -0.15025000       341.45800       1.9020686     0.015849065
       2609.0000       289.05839       98860.506       14547.220       3.9952500      -1.1582500     0.047000000       341.47800       1.9958953     0.010397551
       2614.0000       289.05658       98859.409       14627.463       4.3480000     -0.88750000      0.55400000       341.72300       1.9572145    0.0099939713
       2619.0000       289.05260       98864.693       14664.517       2.6420000     -0.65475000      0.28475000       341.71700       1.9753775     0.012573243
       2624.0000       288.99220       98894.187       14633.833       3.0250000     0.065750000      0.13725000       341.67800       1.9933449     0.014794548
       2629.0000       288.98957       98901.009       14645.324       2.9265000      0.63125000      0.47500000       341.73700       2.0738473     0.013544594
       2634.0000       289.05050       98899.099       14680.173       1.8542500     0.042500000      0.68400000       341.96700       1.9595003     0.012630628
       2639.0000       289.05667       98896.575       14674.400       4.0880000      -1.0677500     -0.24950000       341.82900       1.9694925     0.010693447
       2644.0000       289.03121       98874.292       14646.499       2.9617500      0.32175000      0.49125000       341.79600       1.8609967     0.011994043
       2649.0000       289.05521       98871.532       14646.098       3.3770000     -0.73425000      0.12325000       341.70800       1.8802620     0.012325701
       2655.0000       289.05188       98882.087       14605.468       4.6472500    -0.035250000     -0.38100000       341.51200       2.0467538     0.011325823
       2660.0000       289.12614       98888.358       14626.497       4.3095000     -0.81350000     0.051750000       341.49300       2.0217304     0.010787398
       2665.0000       289.33595       98905.610       14722.176       2.5557500      -1.0680000      0.41925000       341.74600       2.0076100     0.011481859
       2670.0000       289.40653       98910.119       14766.930       5.9592500      -1.1647500     -0.25225000       341.49900       2.0256997     0.014051110
       2675.0000       289.45697       98909.529       14798.819       6.3902500     -0.34700000     -0.88250010       341.27500       1.9210649     0.011670624
       2680.0000       289.47756       98903.890       14854.375       4.3450000     -0.66075000     0.037750000       341.61800       1.9017352     0.011304339
       2685.0000       289.37957       98887.840       14891.378       4.8792500      0.18300000      0.14400000       341.40000       1.9544686     0.013201656
       2690.0000       289.39884       98880.518       14973.956       2.9905000      0.58150010      0.37525000       341.58900       2.0183373     0.013602412
       2695.0000       289.49688       98865.832       15141.303       5.9800000     -0.29625000     0.095500010       341.33100       2.0925329     0.019741215
       2700.0000       289.52073       98868.050       15200.236       4.7802500      -2.4152500     -0.95950010       341.31800       1.8709274     0.012852927
       2705.0000       289.54575       98888.181       15225.887       2.9845000      -1.5390000     -0.34500000       341.76100       1.9968802    0.0085658743
       2710.0000       289.56924       98894.487       15246.480       3.0842500      -1.2017500      0.37275000       341.81900       1.8953950     0.016390340
       2715.0000       289.53158       98908.024       15189.263       3.5580000     -0.13575000     -0.10125000       341.91700       2.0471265     0.013209301
       2720.0000       289.55361       98908.305       15183.734       4.4145000      0.24750000    0.0030000000       341.57900       1.9173306     0.010405647
       2725.0000       289.64015       98895.771       15224.814       2.3090000     -0.96600000      0.50875000       342.27800       2.0014578     0.019390572
       2730.0000       289.67381       98885.451       15215.753       1.8222500      -1.3040000      0.60600000       342.42800       1.9662143     0.010410927
       2735.0000       289.68773       98862.355       15175.889       2.9250000      -1.0155000      0.84825000       342.09300       1.9919731     0.016856319
       2740.0000       289.71789       98861.669       15159.342       2.5075000     -0.93675010      0.23050000       341.92300       1.9565759     0.010552170
       2746.0000       289.73781       98872.775       15127.033       2.5170000      -2.4850000     0.060000000       342.12700       1.9518892     0.010542909
       2751.0000       289.77647       98879.423       15114.761       3.8202500      -2.1650000     0.012500000       341.60000       1.9566219     0.010681294
       2756.0000       289.83084       98903.735       15110.209       2.2432500      -1.4010000       1.1235000       341.98600       1.9924651    0.0096860749
       2761.0000       289.89889       98905.645       15136.448       3.3365000     -0.30325000      0.89625010       342.18400       1.8938390     0.012520256
       2766.0000       289.98426       98892.100       15152.215       3.7997500      -2.1925000      0.14475000       341.58300       1.9460177     0.010366922
       2771.0000       290.05467       98886.099       15246.514       4.3690000     -0.52750000     0.083500010       341.85600       1.8722448     0.013560008
       2776.0000       290.16009       98872.475       15435.825       3.4220000      -2.9440000      0.40725000       342.51900       2.0080641     0.013885502
       2781.0000       290.18381       98873.886       15518.697       3.6565000     -0.29775000     -0.60575000       342.07900       1.9669503     0.011674175
       2786.0000       290.15673       98884.017       15617.580       3.4267500     -0.42825000      0.73700000       342.14600       1.9576682    0.0098850584
       2791.0000       290.14799       98888.857       15647.867       4.1457500     -0.64225000      0.57025000       342.26400       1.9731392    0.0098282045
       2796.0000       290.09739       98902.938       15595.284       3.1612500     -0.46825000      0.34725000       342.23700       1.8765762     0.017972689
       2801.0000       290.08649       98902.480       15559.287       3.8440000      0.21600000     -0.18425000       341.78800       2.0087258     0.010288926
       2806.0000       290.10021       98894.050       15508.296       4.0550000     -0.42175000     -0.19525000       342.11000       2.0039640     0.021608906
       2811.0000       290.10014       98884.598       15453.150       3.6302500     -0.21725000      0.32150000       342.84700       1.9027984     0.011964684
       2816.0000       290.09976       98860.559       15365.887       3.9750000      -1.2475000     -0.42150000       341.88100       1.9870117     0.010580151
       2821.0000       290.09958       98863.611       15303.789       3.2570000     -0.15450000     0.086000000       342.35100       1.9676168     0.011010975
       2826.0000       290.08290       98877.095       15220.956       2.5170000      -1.1875000      0.38925000       342.67800       2.0282455     0.013016367
       2831.0000       290.12094       98885.724       15234.289       3.6027500     -0.54500000     -0.65050010       341.63400       2.0049296     0.010226794
       2837.0000       290.22057       98916.870       15324.177       3.2622500      0.25675000    0.0065000000       342.48300       2.0477849     0.014679987
       2842.0000       290.19471       98896.796       15333.353       4.9760000      -1.7977500      -1.2227500       342.77600       1.9061405     0.013522679
       2847.0000       290.16843       98889.783       15343.931       5.9512500      0.26600000       1.0277500       342.88100       1.8155470     0.016584218
       2852.0000       290.10527       98884.006       15325.262       5.5392500       1.3042500    -0.042250000       341.52700       1.8537019     0.012727053
       2857.0000       289.93192       98870.619       15213.758       4.7265000     -0.10250000    -0.013000000       342.19600       2.1092404     0.023602002
       2862.0000       289.88611       98875.648       15188.756       4.0660000     -0.97025010     -0.17000000       341.81100       1.9541152     0.010890127
       2867.0000       289.90087       98895.992       15224.269       3.8165000      -1.0140000     -0.18200000       342.05800       1.7985603     0.017254030
       2872.0000       289.86930       98911.682       15145.133       3.9025000      -1.2540000      0.12250000       342.22600       1.8918006     0.011364468
       2877.0000       289.84907       98914.636       15106.086       3.7947500      -1.0442500      0.15350000       342.24800       1.9306648     0.013305369
       2882.0000       289.81468       98893.659       15053.429       4.4765000     -0.18275000   -0.0065000000       343.27400       1.9635390     0.010845259
       2887.0000       289.79372       98888.376       15032.381       3.7112500       1.3005000      0.64575000       342.92000       1.9349175     0.012843570
       2892.0000       289.84527       98883.720       15128.441       6.2960000      0.41950000      -1.0655000       342.57700       1.9373813    0.0093723416
       2897.0000       289.81949       98882.073       15120.019       5.7917500      -1.2922500     -0.22925000       341.63000       1.8731194     0.018415035
       2902.0000       289.75678       98886.579       15067.385       6.2282510     -0.34475000      0.81550000       341.81400       1.9921312     0.011038153
       2907.0000       289.65319       98907.766       14982.326       6.7745000      -1.1782500     -0.58900000       341.46700       2.0657441     0.016391932
       2912.0000       289.59256       98910.245       14901.285       4.9755000     -0.28825000     -0.65825000       341.99200       1.8247453     0.016252366
       2917.0000       289.48255       98907.635       14743.461       3.5945000      0.76175000      0.59525000       342.48100       2.0170660     0.013882413
       2922.0000       289.52929       98888.171       14722.625       5.9067500     -0.53500000     0.042750000       342.24800       1.8995981     0.012165026
       2928.0000       289.50563       98881.969       14644.707       7.8312500       1.1692500      0.24250000       341.46900       1.8559697     0.017390213
       2933.0000       289.46027       98882.005       14555.189       6.0847500      -1.7915000     -0.54975000       341.95200       1.9044073     0.014513729
       2938.0000       289.39817       98883.486       14467.569       6.9270010     -0.29600000     -0.14300000       341.35600       1.9550916     0.010260350
       2943.0000       289.25279       98905.287       14355.976       5.7162500     -0.62775000     -0.72750000       341.78600       1.9413339     0.011349524
       2948.0000       289.17572       98909.513       14253.033       6.2387500      0.18425000    -0.046500000       341.25600       2.0007873     0.011891672
       2953.0000       289.13405       98900.515       14157.658       6.6220000     -0.71600000     -0.90350000       341.22900       1.8998844     0.015002073
       2958.0000       289.08492       98895.282       14058.965       4.8475000     -0.52300000     -0.10925000       341.50900       1.9318815     0.010565040
       2963.0000       289.05131       98873.991       13908.793       4.2067500      0.69475000      0.60175000       341.83300       1.9751089     0.010194735
       2968.0000       289.04233       98870.725       13843.485       4.1290000     -0.67550000     -0.32250000       341.68800       1.8738005     0.011175664
       2973.0000       289.04368       98886.482       13825.134       4.3807500     -0.13450000      0.42675000       341.44600       2.1030017     0.016080592
       2978.0000       289.04497       98891.498       13820.694       2.5660000     -0.34825000      0.25600000       341.94000       1.8534386     0.014827130
       2983.0000       289.10476       98907.297       13913.006       5.0665000      -1.1812500     -0.11625000       341.49600       2.0989481     0.012652114
       2988.0000       289.11253       98909.472       13950.074       4.2232500      0.75675000     -0.51325010       341.55000       1.8980721     0.012792139
       2993.0000       289.05200       98889.921       13932.905       4.8592500     -0.38225000     -0.16400000       341.53500       1.9871816     0.021020351
       2998.0000       289.04323       98883.208       13967.753       3.3450000      -1.7402500      0.30175000       341.68600       1.9062150     0.014232880
       3003.0000       289.05858       98872.515       14043.437       4.7820000      0.98050000     0.020250000       341.89000       1.9795536     0.010794904
       3008.0000       289.04866       98872.257       14073.415       4.5485000     -0.42500000     -0.17800000       341.63100       2.0606288     0.014883747
       3013.0000       289.05574       98893.990       14123.560       5.0370000      0.26575000      0.66425000       341.85800       1.8345131     0.013107267
       3019.0000       289.05292       98899.004       14143.290       4.4622500      -1.7422500     -0.97125010       341.67300       1.9959084     0.010815966
       3024.0000       289.00495       98898.622       14069.417       5.4337500      -1.0555000      0.12250000       341.39600       1.9017352     0.012861597
       3029.0000       288.98881       98896.099       14060.858       5.8627500     -0.16100000      0.31300000       341.58800       1.9817608     0.010546084
       3034.0000       289.00062       98878.248       14095.627       5.0440000      -1.2492500     -0.65600000       341.65900       2.0433037     0.013785834
       3039.0000       289.00085       98871.473       14095.376       4.1977500     -0.87500010      0.73450010       341.95800       1.8886373     0.012187447
       3044.0000       288.99991       98865.758       14101.811       5.5662500     -0.40025000     -0.66075000       341.40700       1.9791683    0.0088224210
       3049.0000       288.99979       98869.735       14095.741       5.5025000      -2.7057500     -0.55775000       341.50200       1.8873168     0.019235758
       3054.0000       289.01282       98890.861       14051.748       6.0602500       1.2742500     -0.24325000       341.73200       1.9713285    0.0098550906
       3059.0000       288.99913       98893.438       14033.092       4.5220000      -1.8862500      0.44200000       341.75200       1.9388373     0.010307923
       3064.0000       288.97479       98889.220       14039.121       4.7720000     -0.47850000     -0.33150000       341.52900       1.9195639     0.010859566
       3069.0000       288.94130       98891.818       14022.660       4.5012500      -2.2960000       1.4657500       341.32500       1.9861932     0.010574822
       3074.0000       288.86723       98882.417       13997.890       6.3025000     -0.23800000     -0.47150000       341.12600       2.0034107     0.019124041
       3079.0000       288.83124       98883.231       13975.758       6.2400000     -0.93225000    -0.052000000       341.25600       1.8165602     0.019394481
       3084.0000       288.80519       98906.684       13948.868       3.6285000      -2.0785000     -0.16925000       341.75000       1.9168117     0.014917876
       3089.0000       288.78901       98909.461       13914.047       4.8382500      -2.2242500     0.052250000       341.27500       1.9141544     0.013374628
       3094.0000       288.79999       98899.702       13872.616       5.2190000      -1.3215000      0.38700000       341.19900       1.8101430     0.018342358
       3099.0000       288.80003       98893.995       13840.042       2.6845000      0.57850000      0.76075010       341.71200       2.0311441     0.013898208
       3104.0000       288.78684       98872.676       13777.789       5.4885000     0.011250000     -0.50175010       341.24800       1.8933349     0.016051139
       3110.0000       288.80457       98871.867       13767.886       4.4702500     0.095250000     -0.19150000       341.57200       1.9118237     0.011796773
       3115.0000       288.84215       98888.260       13794.981       3.7770000     -0.18625000      0.65450000       341.70600       1.9245443     0.010745649
       3120.0000       288.86206       98893.223       13828.678       6.1900000      -1.1265000     0.081000000       341.22200       1.8783451     0.012058673
       3125.0000       288.89942       98909.508       13901.422       4.6522500      -1.1130000       1.0600000       341.40600       1.9442796     0.011600529
       3130.0000       288.91303       98908.034       13954.278       4.4075000      0.40350000     -0.28675000       341.57200       2.0203879     0.012091165
       3135.0000       288.89996       98884.745       14015.904       5.9412500     -0.11925000     -0.15850000       341.58000       1.9929006    0.0098912771
       3140.0000       288.89996       98882.370       14056.476       6.9682500     -0.71475010     -0.54325000       341.25200       2.0601690     0.011269794
       3145.0000       288.90015       98882.207       14095.302       5.3335000     -0.56825000     -0.11900000       341.41700       1.9428626     0.010411633
       3150.0000       288.90031       98885.710       14109.295       4.6012500      0.68075000     -0.44600000       341.39000       1.9999005     0.012478977
       3155.0000       288.91118       98907.835       14109.520       4.3192500      -1.3355000     -0.16025000       341.57800       2.0162013     0.010538715
       3160.0000       288.89502       98909.094       14083.169       3.2480000      -1.3905000      0.47750000       341.72200       1.9252780     0.011982845
       3165.0000       288.84670       98897.795       14001.585       3.9055000      0.52025000    -0.039000000       341.71100       1.8844133     0.010360842
       3170.0000       288.84276       98893.276       13982.517       2.8410000      -1.1977500    -0.071250010       341.77500       2.0222465     0.014647520
       3175.0000       288.84224       98877.150       13968.310       2.3237500     -0.67275010      0.20525000       341.75300       1.9284150     0.010029534
       3180.0000       288.84876       98878.027       13966.508       1.9952500     -0.10325000      0.50800000       342.04100       2.0069262     0.011214192
       3185.0000       288.89890       98896.272       14006.350       3.1105000     -0.27125000     -0.42225000       341.91700       1.9189671    0.0083304303
       3190.0000       288.91297       98897.474       14034.191       3.0250000      0.21775000      0.79100000       341.85500       1.9691470     0.011949566
       3196.0000       288.89998       98898.055       14060.795       3.0250000      0.29000000      0.28875000       342.02400       1.8997831     0.011049937
       3201.0000       288.90004       98893.597       14080.109       2.9822500     -0.86925010      0.68525000       341.97600       2.0481228     0.013326008
       3206.0000       288.90903       98871.273       14125.330       5.3715000      -1.8730000    -0.080500010       341.24500       1.9685979     0.013957339
       3211.0000       288.89051       98873.406       14118.453       3.4187500      -1.0800000      0.84400000       341.64000       1.9718567    0.0085191563
       3216.0000       288.84495       98888.901       14061.346       4.9045000     -0.25675000     -0.30225000       341.35400       2.0914252     0.017626474
       3221.0000       288.84348       98893.908       14059.283       6.0440000     -0.43850000      0.17425000       341.37300       1.9374818     0.011744478
       3226.0000       288.83436       98909.324       14050.322       4.9265000      -1.4227500     0.080250000       341.37600       2.0284454     0.015733860
       3231.0000       288.86187       98906.188       14072.379       6.6565000      -1.3420000     0.038000000       341.22200       2.0233488     0.012071053
       3236.0000       288.96826       98882.332       14163.212       3.9687500     -0.66875000      0.90400000       341.45800       1.9041677     0.010325928
       3241.0000       288.96225       98882.694       14160.886       4.6897500      0.26825000     -0.16425000       341.68100       1.9891304     0.010341633
       3246.0000       288.91088       98888.891       14126.259       5.6990000      -1.2775000     -0.25450000       341.13000       1.9133943     0.017940392
       3251.0000       288.88224       98891.689       14091.043       3.9807500     -0.53800000      0.37900000       341.70500       1.9290475     0.010735425
       3256.0000       288.78517       98909.588       13991.190       4.4980000     -0.74950000      0.56725000       341.65800       1.9513182    0.0095629238
       3261.0000       288.78112       98906.576       13974.042       3.6790000     -0.29350000      0.67125000       341.81500       1.9482004     0.010779487
       3266.0000       288.84483       98882.659       14002.973       4.0287500     -0.88150010      0.44925000       341.71700       1.9187180     0.011857361
       3271.0000       288.86483       98883.045       13995.031       3.0622500      -1.0867500     -0.47250000       341.61200       1.9669224     0.010594082
       3276.0000       288.90223       98887.594       14003.201       2.8992500      -2.3002500     -0.44650000       341.47500       1.9213537     0.010155221
       3281.0000       288.91358       98892.088       13999.313       5.1072500     -0.49800000     -0.12550000       341.75100       1.9414259     0.010189321
       3287.0000       288.88752       98915.461       13952.258       3.6102500      0.25125000      -1.0975000       341.35500       1.7841947     0.018140017
       3292.0000       288.96059       98892.193       14016.519       3.8507500     -0.32400000      0.70225000       341.89100       1.9804213     0.012962581
       3297.0000       289.00040       98887.713       14067.174       4.0087500      -1.9735000      0.52900000       341.79500       1.9048206     0.011171586
       3302.0000       289.04022       98888.149       14128.829       4.5337500   -0.0020000000     -0.34800000       341.74700       1.9401138     0.010396846
       3307.0000       289.11942       98887.404       14225.497       4.5380000     -0.41500000     -0.59450000       341.41200       1.8874385     0.010923216
       3312.0000       289.11496       98892.046       14284.383       4.2047500     -0.12850000     -0.12750000       341.63500       1.9455650    0.0095737262
       3317.0000       289.05538       98914.973       14331.854       4.5367500    -0.028000000     -0.32725000       341.64900       1.9415136     0.010464749
       3322.0000       288.99886       98893.461       14365.115       3.8135000      0.23125000     -0.27250000       341.75100       1.9631172     0.012287790
       3327.0000       288.94858       98887.900       14353.359       2.5622500     -0.76100000      0.46850000       342.11200       1.9705518     0.010131439
       3332.0000       288.86932       98885.292       14250.060       3.2900000     -0.79125010      0.22950000       341.78300       1.8688452     0.011202850
       3337.0000       288.83732       98882.901       14192.809       3.0660000      -1.5800000      0.29450000       341.94300       1.8193080     0.016333909
       3342.0000       288.84500       98900.390       14136.684       2.8797500     -0.45075000      0.30575000       341.95700       1.9919142     0.011669516
       3347.0000       288.84375       98904.177       14078.213       4.2985000      -1.7307500     -0.13600000       341.59600       1.8777417    0.0097161965
       3352.0000       288.85478       98900.589       14029.737       5.7512500      -1.0172500     -0.74575000       341.16800       2.0569844     0.013590153
       3357.0000       288.91271       98883.774       14015.942       3.6167500     -0.14475000     -0.22075000       341.88700       1.8537393     0.011494235
       3362.0000       288.89976       98884.239       13968.068       4.2215000      -1.9527500     0.045250000       341.32100       1.9857352    0.0089877292
       3367.0000       288.84943       98883.586       13890.555       4.9237500     -0.62350000      0.38725000       341.79400       2.0132941     0.013325095
       3372.0000       288.81492       98900.167       13868.707       3.9805000      -2.0045000      0.51275000       341.45000       1.9314389    0.0092024785
       3378.0000       288.79054       98903.957       13852.878       3.7500000     -0.69975000      0.18100000       341.76300       1.9954231    0.0098131377
       3383.0000       288.80011       98885.870       13864.387       4.3112500      -2.1695000     0.028250000       341.64400       2.0263893     0.013347603
       3388.0000       288.80008       98883.294       13882.164       4.5092500     -0.40050000    0.0035000000       341.27200       2.0335213     0.012415052
       3393.0000       288.78573       98881.744       13897.187       3.4472500      -2.1930000      0.48100000       341.84600       1.9590607     0.011223989
       3398.0000       288.79725       98883.302       13937.727       4.9267500     -0.19225000      0.36825000       341.44600       1.9516503     0.010469091
       3403.0000       288.84833       98906.461       14027.709       4.2247500    -0.036000000      0.42325000       341.43200       1.8769997     0.013563699
       3408.0000       288.85713       98909.651       14078.226       4.1740000     -0.42350000      0.18175000       341.65400       1.9213674    0.0084552490
       3413.0000       288.87025       98891.113       14146.505       4.9020000      -1.0580000     -0.11150000       341.47300       1.9104975     0.010916278
       3418.0000       288.85792       98888.208       14168.412       4.8930000      -1.9972500     -0.42625000       341.39500       1.9214496     0.012295209
       3423.0000       288.77498       98884.224       14121.383       3.9542500      -1.8925000     -0.23125000       341.70600       1.8841569    0.0091917977
       3428.0000       288.73671       98882.761       14101.450       4.2152500      -2.2872500     0.086000000       341.76500       1.7999674     0.021314021
       3433.0000       288.70967       98901.540       14064.112       3.7887500     -0.92925010     -0.51675000       341.85200       1.9795529     0.010494654
       3438.0000       288.69085       98903.737       14038.886       3.8115000     -0.41800000      0.56375000       341.95600       1.8960823    0.0087705973
       3443.0000       288.71450       98884.457       14054.038       3.8202500      -1.0955000    -0.052750000       341.68700       1.9522305    0.0094896670
       3448.0000       288.70301       98882.971       14024.651       3.9635000      -1.4112500     -0.80175010       341.82000       1.9533427     0.010821570
       3453.0000       288.65211       98886.990       13943.818       3.9867500      -1.7722500      0.45450000       341.45200       1.9223154     0.010665878
       3458.0000       288.64347       98889.407       13909.895       3.2817500     -0.75750010     -0.75825010       341.73400       1.9238210    0.0097475290
       3463.0000       288.64465       98912.122       13873.189       5.0672500      0.42450000      0.25175000       341.59000       1.8325904     0.012923570
       3469.0000       288.64756       98914.795       13848.275       4.5840000      -1.3920000      0.46500000       341.68000       1.9937422     0.011301564
       3474.0000       288.70825       98891.115       13894.703       3.5852500      -1.2872500     -0.24625000       341.68200       1.9857099     0.010338540
       3479.0000       288.71091       98887.257       13888.080       5.3552500      -2.2287500     -0.23450000       341.34600       1.9560989    0.0093196838
       3484.0000       288.64941       98881.978       13825.798       5.4420000      -2.4402500      0.85300000       341.41400       1.9200124     0.010423371
       3489.0000       288.64329       98882.945       13822.326       6.4610000      -2.4030000     0.091500010       341.57200       1.9534907    0.0093784674
       3494.0000       288.63097       98907.800       13814.195       3.8502500      -4.0987500      0.96075000       341.45300       1.9337438     0.012211452
       3499.0000       288.64874       98909.237       13847.496       3.8290000      -1.3375000     -0.10825000       341.26400       2.0009974     0.013594837
       3504.0000       288.70826       98890.324       13940.491       5.0612500      -3.7420000      0.38200000       341.24300       1.9595400     0.011175589
       3509.0000       288.77207       98887.963       14024.728       4.3645000    -0.032250000      0.49000000       341.67100       1.9093402     0.013415231
       3514.0000       288.85901       98882.381       14124.763       3.9945000      0.11625000      0.31575000       341.73300       2.0412005     0.017743317
       3519.0000       288.92846       98883.294       14225.763       5.6087500      -1.2002500   0.00025000000       341.22400       1.9449967     0.010710391
       3524.0000       289.04110       98907.569       14383.097       5.3157500     -0.14875000      0.33500000       341.20300       1.9525114     0.010625604
       3529.0000       289.07999       98908.909       14448.942       3.4895000      -1.1390000      0.24900000       341.57300       1.9123900    0.0097425989
       3534.0000       289.04440       98890.882       14468.793       3.6910000      -2.2965000     -0.43625000       341.50100       1.9230852    0.0095500989
       3539.0000       289.05445       98888.625       14483.058       4.0482500     -0.84250000      0.54425000       341.79500       1.8992165     0.010352774
       3544.0000       289.01762       98882.631       14404.553       5.0392500     0.033250000      0.43175000       341.63700       1.9309432    0.0088605293
       3549.0000       289.04886       98883.495       14398.702       3.1442500     -0.49025000      0.22025000       341.66900       2.0242095     0.014202580
       3554.0000       289.19824       98907.904       14461.443       4.1655000     -0.31075000      0.19075000       341.57200       1.9584758     0.010017695
       3560.0000       289.22905       98908.713       14456.676       3.8502500      0.30150000      0.91325000       341.81300       1.9103238    0.0099399899
       3565.0000       289.20293       98888.860       14444.345       3.4820000     -0.63925000      0.22775000       341.57400       1.9742990     0.011372981
       3570.0000       289.20650       98888.727       14417.794       3.8135000      0.56800000   -0.0067500000       341.71000       1.8794875     0.011473978
       3575.0000       289.14252       98886.928       14334.261       4.5402500       3.0177500     -0.37775000       341.41900       1.9896590     0.010664637
       3580.0000       289.13554       98889.542       14295.839       6.5205000     -0.41650000     -0.53800000       341.39000       2.0239236     0.013386140
       3585.0000       289.17705       98914.353       14265.130       3.9905000     -0.73825000      0.46525000       341.78500       1.9658111     0.015414961
       3590.0000       289.22377       98913.371       14264.267       4.0422500     -0.42625000     -0.21775000       341.78100       2.0953296     0.013699426
       3595.0000       289.28573       98888.658       14277.778       4.1992500     -0.81550000     -0.57950000       341.70500       1.9302662    0.0078559421
       3600.0000       289.32589       98887.120       14315.422       3.7320000     -0.58075000     0.067250010       341.75300       2.0806347     0.013523530
       3605.0000       289.39904       98888.607       14399.671       2.5810000      0.17825000      0.41000000       342.06000       1.9344059    0.0098459845
       3610.0000       289.42604       98889.555       14457.841       5.5530000      0.69275000     -0.48575000       341.34700       2.0019105     0.019859759
       3615.0000       289.41170       98909.202       14542.172       7.2400000      -1.0345000     -0.30750000       341.50100       1.9262594    0.0092461704
       3620.0000       289.39586       98907.927       14573.821       5.2967500       1.5530000     -0.36800000       341.43900       2.0081594     0.012475969
       3625.0000       289.34718       98883.240       14563.990       4.7645000     0.037500000     -0.32750000       341.24000       1.8202898     0.015318158
       3630.0000       289.34354       98882.351       14578.363       4.6737500    -0.073500000      0.62650000       341.80900       1.8964847     0.011630262
       3635.0000       289.34346       98890.553       14578.311       3.9342500     0.027500000     0.097750010       341.96900       2.0118189     0.019652864
       3640.0000       289.34981       98889.427       14576.561       2.6262500      0.81900010      0.10350000       342.03000       1.9072220    0.0098089034
       3645.0000       289.39964       98894.840       14593.500       5.3390000       1.0300000     -0.31925000       341.25700       2.0007933     0.010574341
       3651.0000       289.41493       98897.797       14582.675       7.0610000       1.2177500    -0.081750010       341.17100       2.0494588     0.018933663
       3656.0000       289.39074       98887.781       14537.889       4.8657500      0.19425000     0.094500010       341.52800       1.8964136     0.010318753
       3661.0000       289.40907       98890.256       14522.807       5.0885000       1.3212500      0.46375000       341.74400       1.9805545     0.011828111
       3666.0000       289.43682       98909.297       14496.644       2.3907500     -0.10925000      0.91550000       342.78200       1.9050457     0.011674629
       3671.0000       289.47625       98905.940       14528.786       3.8810000     -0.16000000      0.57625000       342.67600       1.9672708    0.0093794575
       3676.0000       289.58387       98888.546       14620.590       3.2345000      0.27050000      0.58450000       342.94900       1.8614945     0.011247663
       3681.0000       289.53976       98889.192       14624.105       3.8722500       1.3675000      0.48150000       342.34000       2.0521020     0.014400851
       3686.0000       289.41603       98887.682       14643.023       3.6185000      0.90875010     -0.13800000       342.04600       1.9607210     0.014843072
       3691.0000       289.34739       98891.172       14594.545       3.3330000     -0.34950000     -0.15475000       342.07600       1.9614741     0.011232898
       3696.0000       289.18759       98915.171       14441.863       3.1967500      0.29675000     -0.15475000       342.36000       1.9403254     0.010505657
       3701.0000       289.14337       98912.170       14370.536       2.5165000      0.16275000     -0.19750000       342.52700       1.9899294     0.012655499
       3706.0000       289.19097       98888.493       14301.131       3.8095000     -0.15925000     -0.15375000       341.77000       1.8959405     0.013819871
       3711.0000       289.20939       98888.013       14266.122       3.8847500       2.8747500     -0.27850000       341.48000       1.9504935     0.010856024
       3716.0000       289.23618       98890.027       14248.769       4.1110000      -1.3820000     0.045500000       342.34900       2.0475425     0.021102524
       3721.0000       289.27545       98887.959       14266.568       4.2297500     -0.94900010    -0.053750000       342.59700       1.9309542    0.0098948720
       3726.0000       289.35726       98898.449       14329.508       2.8632500     -0.97000000      0.41425000       341.94700       1.9906627     0.011399507
       3731.0000       289.36995       98895.153       14362.387       2.8117500      0.15950000     -0.22200000       342.59100       1.8502144     0.013584862
       3737.0000       289.36176       98870.673       14430.259       3.0695000      0.76750000      0.40700000       342.75900       1.8924331     0.011085381
       3742.0000       289.23987       98888.372       14375.130       2.9147500      0.24175000      0.48450000       342.54600       1.9099728     0.011366796
       3747.0000       289.22521       98891.590       14378.818       1.8417500     -0.97325000     -0.69025000       342.33200       1.9494136     0.016318628
       3752.0000       289.25976       98892.350       14400.646       3.9585000     -0.21150000     -0.14600000       342.50600       1.9002218    0.0098447741
       3757.0000       289.33495       98897.056       14420.424       3.1830000    -0.047500000     -0.29125000       342.38300       1.8287853     0.020756219
       3762.0000       289.40887       98898.824       14467.564       3.6437500      -1.3777500     -0.15625000       342.38100       1.9275269     0.011127186
       3767.0000       289.57357       98887.741       14563.831       5.2567500      0.29325000     -0.72600000       341.15400       2.0063319     0.011660112
       3772.0000       289.55449       98906.327       14645.147       3.5472500      0.35950000      0.22650000       341.57000       1.9393431     0.011538464
       3777.0000       289.55562       98909.211       14695.251       3.8797500     -0.11675000     -0.22000000       342.10700       2.0302983     0.013683708
       3782.0000       289.51474       98890.680       14750.737       6.1025000     -0.31125000     0.080000010       342.20500       1.8796810     0.010021393
       3787.0000       289.49405       98888.371       14773.373       3.8947500     -0.93600000      0.22775000       341.67500       1.9878216    0.0099936200
       3792.0000       289.53011       98889.869       14736.370       3.6292500     -0.59025000      0.31800000       342.08600       1.9067017     0.012194921
       3797.0000       289.51283       98888.532       14712.342       3.8715000     -0.60775010      0.25825000       341.97200       2.0198407     0.016236134
       3802.0000       289.47096       98890.904       14683.476       4.5992500      0.10825000      0.21475000       341.86600       1.9332394     0.013249752
       3807.0000       289.40195       98909.304       14652.069       4.9125000      0.31250000    -0.029250000       341.67200       2.0035674    0.0099876122
       3812.0000       289.36152       98906.470       14585.359       5.9392500      0.68775000     0.075500000       341.35400       2.0456847     0.021810671
       3817.0000       289.30691       98887.773       14518.534       5.5430000       1.1257500     -0.27750000       341.40100       1.9333060    0.0083110743
       3822.0000       289.17840       98898.264       14343.042       4.0672500      0.40475000      0.19700000       342.26600       1.8341067     0.011970698
       3828.0000       289.12874       98895.933       14195.165       4.3330000     0.022250000     0.099750000       341.96200       1.9280668     0.011141529
       3833.0000       289.09699       98889.484       14068.848       5.8425000    0.0067500000    -0.076750000       341.65600       1.9554324     0.012329329
       3838.0000       289.08088       98890.491       13973.005       4.2215000     -0.83825000     -0.20050000       341.36100       1.8773059     0.010136933
       3843.0000       289.18106       98884.136       13905.505       3.7365000      0.50475000    -0.062500000       341.78300       2.1363169     0.024325222
       3848.0000       289.21830       98882.693       13868.980       3.0565000     -0.71900000      0.56600000       341.99800       1.8511760     0.015752471
       3853.0000       289.17210       98901.581       13834.110       2.2347500      -1.6072500     -0.26250000       342.36100       1.8754411     0.012731260
       3858.0000       289.19501       98903.869       13862.497       2.0202500     -0.10550000      0.64000000       342.70700       2.0276734    0.0096479642
       3863.0000       289.26957       98884.205       13977.187       2.7317500     -0.43125000      0.13250000       342.47000       1.7573648     0.017953335
       3868.0000       289.31008       98882.614       14069.161       1.6052500      -1.0730000    -0.054000000       342.21800       1.9408718    0.0099405140
       3873.0000       289.38135       98892.602       14214.833       3.2995000     -0.29625000      0.20225000       342.21000       1.9236486     0.010511564
       3878.0000       289.41833       98890.490       14318.161       3.9897500     -0.36725000      0.78850000       341.98800       1.9882836     0.010090869
       3883.0000       289.38584       98888.497       14377.771       2.0542500      -1.0645000      0.83550010       342.31700       1.9334140    0.0096702529
       3888.0000       289.39700       98891.362       14457.167       3.2072500      -1.3425000     -0.14100000       341.91700       1.8491212     0.019044182
       3893.0000       289.46204       98884.137       14587.722       2.5675000    -0.087500010     -0.47450000       341.88000       1.8730681     0.011266702
       3898.0000       289.45915       98882.670       14619.612       1.8072500     -0.10325000      0.55450000       342.37000       1.9773731     0.010814640
       3903.0000       289.40809       98899.969       14593.877      0.99675010    -0.064500000     0.076250000       342.66900       1.9492962     0.010514962
       3908.0000       289.39837       98903.383       14573.425       3.5502500     -0.68500010     -0.17700000       341.49700       1.9625744     0.012012774
       3913.0000       289.35344       98889.144       14452.226       3.2365000      -1.9655000     -0.15525000       341.91000       1.8335492     0.014626813
       3919.0000       289.33469       98888.726       14379.803       3.7087500      -1.1710000      0.91625010       341.73600       1.9679493     0.019571022
       3924.0000       289.39507       98897.857       14371.193       3.8722500      -2.4490000     -0.17075000       341.91500       1.9488838     0.011006363
       3929.0000       289.41122       98895.114       14354.184       4.5310000      -1.3092500     -0.71075000       341.44300       1.9137887     0.011122498
       3934.0000       289.38687       98889.781       14322.466       4.6112500     -0.88575010     -0.17125000       341.21300       1.9614515     0.010330713
       3939.0000       289.40093       98890.680       14342.602       3.9917500      -1.3412500      0.25300000       341.87200       1.9910907     0.010500275
       3944.0000       289.43819       98883.820       14411.288       2.2490000      -1.0745000      0.14950000       342.24600       2.0171832     0.014819202
       3949.0000       289.45833       98883.307       14457.546       2.5892500      0.39775000      0.22025000       342.42700       1.9780593     0.011448529
       3954.0000       289.50832       98902.681       14554.376       4.8790000      -1.3295000     0.084750000       341.45500       1.9631269     0.010563075
       3959.0000       289.51120       98903.503       14589.818       3.3300000     -0.96775010      -1.0980000       341.61800       1.9648226     0.012326660
       3964.0000       289.46200       98883.744       14570.662       3.3792500      -2.0100000     -0.40975000       341.82600       1.9681264     0.016076405
       3969.0000       289.44216       98883.326       14568.966       3.8660000      -1.4277500    -0.025000000       341.53100       1.9622830     0.010360990
       3974.0000       289.40507       98892.246       14540.368       3.0792500      -2.0562500     0.031000000       342.09100       1.9831744     0.011656354
       3979.0000       289.38899       98889.927       14531.823       1.8720000      -2.1067500     -0.35200000       342.11600       1.9692547     0.011820966
       3984.0000       289.42722       98889.299       14555.806       2.1805000      -1.3837500     -0.30650000       341.91500       1.9128661     0.012345174
       3989.0000       289.39957       98891.848       14537.394       3.4785000      -2.0420000     -0.48950000       341.92600       1.9278473     0.012905534
       3994.0000       289.32399       98883.844       14498.988       3.6067500      -2.4022500     -0.49075000       341.97800       1.8336583     0.019432527
       3999.0000       289.28383       98883.292       14462.348       3.9555000      -4.6747500     -0.50225000       341.80000       2.0320283     0.010740367
       4004.0000       289.20961       98901.347       14402.549       3.5535000      -2.5022500     -0.32975000       341.98400       1.9035948     0.010517299
       4010.0000       289.17301       98903.247       14333.304       3.5570000      -1.4305000      0.53375000       342.32100       1.8652825     0.018397483
       4015.0000       289.19983       98888.642       14270.704       3.5317500      -1.2197500     -0.32450000       342.46000       2.0962913     0.014599806
       4020.0000       289.19971       98889.531       14226.935       4.1752500      0.37575000      0.48175000       341.59800       1.8220879     0.014368861
       4025.0000       289.18817       98897.318       14150.256       2.4177500     -0.33400000      0.14675000       342.35700       1.8188397     0.017083660
       4030.0000       289.20448       98893.976       14156.937       5.4625000       1.4767500     -0.12650000       341.50500       1.9054280     0.011050986
       4035.0000       289.26396       98889.777       14258.103       1.7892500     -0.72575000      0.30725000       342.42700       1.9603046    0.0097683853
       4040.0000       289.25123       98890.827       14265.798       5.0615000      -1.1435000      0.12050000       341.96100       1.9519552     0.011063835
       4045.0000       289.20284       98883.328       14263.107       3.6732500      -2.6830000     -0.15550000       341.62500       1.9043396     0.010787857
       4050.0000       289.19262       98883.809       14276.681       2.5892500     -0.25350000      0.21850000       342.54100       1.8892832     0.011376624
       4055.0000       289.14279       98903.328       14219.173       4.1775000      0.16150000      0.46775000       342.38500       1.8670812     0.015389684
       4060.0000       289.13529       98902.468       14246.938       4.0860000     -0.42400000      0.77375000       342.22900       1.9374206     0.010720392
       4065.0000       289.21054       98883.297       14397.702       4.1272500     -0.91200010     0.065250000       341.58900       1.8883178     0.014079271
       4070.0000       289.20814       98883.786       14415.541       2.4845000      0.81600000      0.13250000       342.30900       1.9566517     0.010151296
       4075.0000       289.14710       98891.499       14379.370       4.0582500     0.070500000      0.13500000       341.63400       1.9934067    0.0097552670
       4080.0000       289.14324       98888.849       14371.599       4.0677500     -0.31075000     -0.23600000       341.77500       1.8921610     0.012784893
       4085.0000       289.13208       98888.437       14294.340       2.6955000     -0.27050000     0.027750000       341.99300       1.8533569     0.012461412
       4090.0000       289.15455       98892.467       14290.725       1.6847500     -0.73850010      0.56475000       342.34500       1.9703833     0.010882340
       4095.0000       289.26440       98892.097       14368.551       3.2000000     -0.45125000      0.38775000       341.88700       1.9588578     0.010407569
       4101.0000       289.26200       98887.296       14384.364       3.9842500      -1.0995000    -0.050000000       341.81500       2.0059217     0.016062538
       4106.0000       289.21165       98892.309       14385.676       2.7762500      -2.2772500     0.018750000       342.30900       1.8936452    0.0099956661
       4111.0000       289.18342       98890.708       14380.300       2.1325000      -3.0192500      0.72150000       342.12400       2.0574371     0.025785224
       4116.0000       289.09372       98870.842       14360.781       2.8152500      -2.0995000     -0.78300010       341.88000       1.9090677    0.0095920948
       4121.0000       289.07146       98874.160       14318.078       3.2210000     -0.10300000     -0.17425000       342.05900       1.8231111     0.016144357
       4126.0000       289.09999       98897.893       14252.059       3.1050000      -1.7000000      0.26200000       341.88100       1.9422936     0.010569489
       4131.0000       289.10005       98897.523       14219.578       4.5292500      0.60900000      0.55050000       341.79800       2.0149427     0.011945542
       4136.0000       289.09123       98889.062       14154.029       1.8405000      -2.2722500      0.62400000       342.17800       1.9229269    0.0086093917
       4141.0000       289.10988       98891.906       14165.879       4.4897500      -3.2400000      0.29425000       341.94600       1.9332851    0.0095667998
       4146.0000       289.15531       98891.111       14263.660       4.8057500      -2.3260000      0.34075000       341.97500       1.9020465    0.0098739423
       4151.0000       289.15660       98887.153       14271.727       3.1640000      -1.4132500      -1.5160000       341.86500       1.9866315     0.010383052
       4156.0000       289.16647       98889.486       14288.511       3.6537500      -3.0160000       1.0072500       341.66200       1.9550868     0.010915995
       4161.0000       289.13952       98893.457       14254.899       4.4772500      -2.6537500     -0.37225000       341.67500       1.9383225    0.0087062612
       4166.0000       289.05220       98888.069       14143.390       3.5350000     -0.64225000     -0.63000010       341.53900       1.9323344     0.010137204
       4171.0000       289.02093       98889.781       14095.625       2.5802500      -1.0757500       1.0472500       341.89400       1.9482411     0.010664578
       4176.0000       288.99762       98908.585       14055.855       3.2657500      -1.2142500      0.95475010       341.98200       1.9964527     0.010407070
       4181.0000       288.98634       98907.432       14019.865       3.1722500     -0.27475000      0.32250000       341.83200       1.8628202     0.014749373
       4186.0000       288.99110       98887.926       13995.909       4.4022500      -2.0820000     0.088500000       341.50500       1.8361779     0.013837580
       4192.0000       289.04537       98898.204       13960.263       2.8540000    -0.080750000      0.52450000       342.00500       1.8454866     0.013947944
       4197.0000       289.05673       98896.444       13963.494       3.2042500     -0.59225000      0.18525000       342.02900       1.9564692     0.012610721
       4202.0000       289.05585       98892.226       13992.981       2.2785000      -1.1305000      0.45200000       342.21900       1.8796519     0.011148395
       4207.0000       289.06378       98889.663       14076.400       3.2605000     -0.33425000      0.13525000       342.15200       1.8364245     0.020234873
       4212.0000       289.03049       98892.676       14062.115       3.9032500      0.11750000      0.55625000       341.91700       1.9233239     0.010910395
       4217.0000       288.94465       98890.291       14040.587       3.5430000      -2.4900000     -0.16025000       341.60400       1.9944680     0.012338788
       4222.0000       288.89992       98886.101       13922.211       5.3147500     -0.61500000      0.11775000       341.38800       1.8721534     0.012943667
       4227.0000       288.88699       98890.019       13862.381       4.0427500      -1.1950000     -0.56475000       341.75200       1.8941833     0.010191147
       4232.0000       288.90033       98892.866       13834.553       2.3810000     -0.82500000      0.36775000       342.01500       1.9667612     0.014127272
       4237.0000       288.93769       98889.833       13834.659       4.8277500      -1.3885000    -0.098500010       341.70800       2.0123345     0.013866553
       4242.0000       289.04507       98892.155       13884.086       4.9857500      -1.3120000     -0.52025000       341.29900       1.9374152     0.014691230
       4247.0000       289.10590       98896.340       13930.311       4.3887500      -1.3680000     0.077250000       341.36800       1.9699190    0.0091355249
       4252.0000       289.15439       98898.068       13989.102       2.5477500      -1.5890000      0.45475000       341.84500       2.1424737     0.023871875
       4257.0000       289.21234       98889.430       14069.528       2.0052500     -0.90250000      0.83275000       342.00600       2.0903462     0.026065883
       4262.0000       289.22952       98886.546       14154.178       2.5235000      -1.6775000      0.27950000       341.69600       1.9471517     0.011906413
       4267.0000       289.20643       98892.102       14251.772       3.5255000      -1.9300000      0.44625000       341.95000       1.9221325    0.0093967354
       4272.0000       289.13988       98874.248       14309.262       5.5010000      -3.1035000     -0.53675000       341.59100       1.9460806     0.010905870
       4277.0000       289.13663       98871.290       14376.760       4.0947500      -1.8547500     -0.16725000       341.58000       1.8886458     0.010399702
       4283.0000       289.22028       98890.567       14499.642       4.8337500      0.14750000     0.044250000       341.43400       1.8510456     0.010812308
       4288.0000       289.20769       98892.157       14495.750       5.1440000      -1.5402500     -0.18975000       341.36400       2.0268446     0.019566587
       4293.0000       289.16654       98887.300       14411.718       2.0730000      -1.5717500       1.0145000       341.72900       2.0113546     0.010762623
       4298.0000       289.15516       98891.334       14363.477       2.7535000      -1.9417500     -0.12175000       341.82000       1.8561210     0.013293686
       4303.0000       289.06433       98889.365       14223.086       2.1875000      -1.4850000    -0.025500000       341.81200       2.0041898     0.015213566
       4308.0000       289.02778       98888.714       14134.472       2.5690000     -0.49550000      0.41225000       341.97300       2.0786554     0.017251910
       4313.0000       289.07628       98902.883       14108.706       2.5487500     -0.89575000     -0.17800000       341.67300       1.9649036     0.010157250
       4318.0000       289.10631       98908.389       14086.695       3.0530000      -2.0265000     -0.41775000       341.63200       2.0213749    0.0095569233
       4323.0000       289.10598       98899.962       14019.373       4.2305000     -0.78650000     -0.41550000       341.46500       2.0995638     0.014680362
       4328.0000       289.14841       98899.308       14038.921       4.5067500     -0.72500000     -0.40750000       341.52300       1.9225757     0.010819366
       4333.0000       289.25837       98907.876       14164.911       3.2047500      -2.1580000      0.50375000       341.73200       1.9210009    0.0093149970
       4338.0000       289.31688       98906.477       14245.091       4.0780000    0.0022500000      0.62325000       342.10500       2.0531176     0.011281861
       4343.0000       289.37991       98894.898       14356.912       1.7412500     -0.27700000      0.74400000       342.37800       1.9262774     0.012968537
       4348.0000       289.41704       98894.166       14454.152       3.0342500     -0.84775010     -0.10775000       342.12200       1.9005154     0.014649735
       4353.0000       289.42815       98899.267       14538.904       2.0562500      0.17025000      0.31775000       341.98200       2.0548601     0.016807136
       4358.0000       289.40555       98895.141       14592.501       2.9030000      0.38425000     -0.22550000       341.98500       1.9874764     0.012697786
       4363.0000       289.34508       98887.851       14682.248       3.2365000      0.10750000      0.28050000       341.91500       1.8797514     0.010783905
       4368.0000       289.29375       98889.887       14679.361       2.3002500     -0.21100000      0.31625000       342.07900       1.9206576     0.010049008
       4374.0000       289.15868       98891.529       14528.947       3.3355000     -0.59450000     -0.13800000       341.41600       2.1115577     0.021223873
       4379.0000       289.12024       98888.981       14467.145       2.4117500      0.34550000    -0.044000000       341.78700       1.9369875    0.0094912116
       4384.0000       289.11581       98893.250       14350.820       3.7252500    0.0070000000     0.060500000       341.75800       1.9085302    0.0094430392
       4389.0000       289.14794       98897.866       14320.128       3.6620000     0.035500000     -0.45025000       341.65400       1.8293923     0.011867936
       4394.0000       289.29638       98894.480       14416.080       1.9562500      -1.2900000      0.40675000       342.17100       1.9280464     0.010833399
       4399.0000       289.32500       98894.166       14411.889       3.6530000     -0.54725000     -0.48550000       341.46700       1.8558540     0.011853936
       4404.0000       289.29969       98907.503       14397.845       3.3542500      -1.3132500      0.15250000       341.60800       2.0946468     0.017273473
       4409.0000       289.30575       98907.656       14359.607       3.8207500     -0.85750000   -0.0065000000       341.71400       1.9570852    0.0098477238
       4414.0000       289.22228       98890.665       14198.398       2.7662500     -0.82400010      0.99700000       342.50300       1.8635127     0.010169786
       4419.0000       289.23777       98887.926       14178.216       3.6027500      -2.0077500     -0.58900000       342.39800       1.9004928     0.014357369
       4424.0000       289.35796       98891.612       14234.655       5.5460000      -2.7992500      0.46750000       341.95600       1.9214292    0.0091122301
       4429.0000       289.42741       98889.657       14274.253       3.0872500      -1.3217500   -0.0070000000       342.21300       1.8470596     0.011310115
       4434.0000       289.51365       98887.837       14360.190       3.9090000     -0.26975000    -0.062750000       341.93800       1.9533083     0.010935237
       4439.0000       289.57987       98891.226       14473.071       4.0220000      -1.3760000     -0.18650000       341.60200       1.9782060     0.013533533
       4444.0000       289.63273       98897.882       14602.746       4.3960000      -1.3507500     -0.23775000       341.40700       1.8456716     0.011921493
       4449.0000       289.66938       98895.097       14718.987       3.6067500     -0.87125000     -0.22400000       341.36100       1.8895951     0.010625398
       4454.0000       289.70855       98888.150       14930.149       4.4345000     -0.83925000      0.36625000       341.53900       2.0052606     0.015238074
       4460.0000       289.70935       98891.082       15032.717       2.8997500     -0.43650000    -0.069000010       342.39700       1.9323707     0.012059911
       4465.0000       289.65834       98891.936       15039.304       3.3272500      -1.8455000      0.39450000       341.84500       1.9692891     0.011685921
       4470.0000       289.63872       98888.009       15012.173       2.8985000      -1.5992500      0.24600000       342.44100       1.9480815    0.0087614940
       4475.0000       289.57746       98888.808       14889.433       1.7650000     -0.66125010      0.36450000       342.74800       1.9553833    0.0092608327
       4480.0000       289.59703       98892.782       14827.302       3.1825000     -0.99875000      0.79050000       341.61400       1.9296686     0.010009665
       4485.0000       289.69529       98890.817       14738.890       2.6925000      -2.4457500     -0.90475000       341.75800       1.9355433     0.010943209
       4490.0000       289.71905       98888.401       14685.288       2.3967500      -2.4872500     -0.10250000       341.64800       1.9841210     0.011678359
       4495.0000       289.74458       98893.914       14662.038       1.4717500      -1.6042500      0.37925000       342.02100       1.8951927     0.010273513
       4500.0000       289.76814       98898.274       14648.521       2.0655000      -2.0937500    -0.026500000       342.08800       1.8324248     0.018942407
       4505.0000       289.73189       98896.476       14649.842       2.2417500      -3.0147500     -0.53775000       341.40400       1.9415328    0.0094903217
       4510.0000       289.75454       98893.513       14650.632       2.4945000      -1.1567500      0.29975000       342.13300       2.0303038     0.015231363
       4515.0000       289.81884       98894.088       14646.675       3.0197500      -1.5782500     -0.35575000       342.14900       1.9671761     0.011110761
       4520.0000       289.88462       98897.051       14699.235       3.4812500      -1.8120000      0.56900000       342.16800       1.9068945    0.0099121829
       4525.0000       289.99318       98896.471       14766.816       3.7042500      -1.7882500     -0.30775000       342.37200       1.9161881     0.011375418
       4530.0000       290.03075       98893.548       14865.356       1.5285000     -0.82775000      0.11825000       343.42400       2.0055582     0.014976345
       4535.0000       290.06645       98895.032       15054.862       3.9117500     -0.42950000      0.44225000       342.72700       1.8708862     0.010567361
       4540.0000       290.05793       98896.462       15161.592       1.9890000     -0.44275000      0.91525010       343.30100       1.9743276     0.010395008
       4545.0000       289.98014       98888.822       15285.245       5.1650000      -1.1522500     -0.37950000       341.73600       1.9181478     0.010142712
       4551.0000       289.89918       98889.000       15288.360       3.7340000     -0.20575000     0.018250000       342.74000       1.8642356     0.012105367
       4556.0000       289.79609       98901.044       15207.124       3.6847500      0.34750000      0.33475000       342.44000       1.9488036     0.017303372
       4561.0000       289.76379       98903.350       15122.969       3.3047500     -0.84725000      -1.1160000       341.96200       1.8007825     0.022550521
       4566.0000       289.74855       98900.299       14948.278       3.4722500      0.13525000    -0.066000000       342.23500       2.0618119     0.018902625
       4571.0000       289.72758       98900.265       14837.193       3.2235000     -0.60975000      0.17050000       342.49000       1.9221208     0.012672636
       4576.0000       289.74791       98903.026       14726.172       1.7050000     -0.40600000      0.40175000       343.53700       2.0010398     0.014727071
       4581.0000       289.75803       98897.389       14655.175       2.0405000     -0.44925000      0.10925000       343.01600       1.9201133     0.011423146
       4586.0000       289.75230       98882.633       14612.582       3.7310000  -0.00025000000     -0.37075000       342.10300       1.8905749     0.010542424
       4591.0000       289.74221       98884.127       14556.854       2.9432500      -1.3692500      0.44575000       342.82500       1.9210082     0.012419228
       4596.0000       289.76594       98891.485       14535.217       2.2717500     -0.57125000     0.087250000       343.06000       1.8020956     0.015510171
       4601.0000       289.73848       98888.623       14472.187       3.1725000       1.4467500     0.056750000       342.58500       1.8517990     0.012940602
       4606.0000       289.65160       98889.462       14364.525       1.5595000     0.020000000      0.42850000       343.10400       1.9225189     0.014791864
       4611.0000       289.62067       98893.466       14322.605       3.0817500    -0.054250000      0.61600010       341.96700       1.9784085     0.012470876
       4616.0000       289.60704       98890.894       14291.572       5.0280000      0.88675000     -0.25200000       341.42600       1.9597460     0.011963225
       4621.0000       289.57710       98886.918       14282.127       3.8852500      0.11250000      0.20350000       342.00300       1.9208386     0.010356570
       4626.0000       289.57194       98889.243       14336.162       2.3200000      -1.3060000     -0.15200000       342.52500       1.9627604     0.015380275
       4631.0000       289.51436       98893.273       14309.813       3.0387500     -0.96950010      0.66950010       342.61200       1.9427578     0.011447314
