MIRICO/SHELL project - Processed LDS file generated on
Sun Jul 23 20:56:41 2017
Time stamp for record start
05/12/2017  12:01:13.0000
Nb of points in the record
         918
Beam position index
       3.0000000
Beam angle (degrees)
     -0.96000000
Open Path length (m)
       44.550000
****************** Temporal data record ************************
Elapsedtime_sec Temp_K Press_Pa Humidity_ppmv WindX_m/s WindY_m/s WindZ_m/s Speedofsound_m/s CH4vmr_ppmv CH4vmrerror_ppmv  
      0.00000000       287.84666       98879.470       14135.906       3.6197500      0.76450000      0.36950000       340.93700       2.1034123     0.013788071
       6.0000077       287.81311       98867.755       14066.607       3.8602500     -0.52750000     0.015250000       341.14200       2.1329818     0.024902168
       10.999981       287.85202       98855.204       14022.686       3.9905000     -0.69600000     -0.20725000       341.13500       2.0440978     0.014070812
       15.999994       287.84218       98850.002       13955.956       3.3412500      0.56975000      0.59300010       341.06400       1.9552725     0.011076865
       21.000007       287.85719       98841.283       13901.698       4.4515000    -0.040250000      0.35325000       341.04800       2.0653163     0.015973326
       26.000020       287.84866       98845.364       13845.818       3.2640000      -1.3382500     -0.12200000       341.32800       1.9699010     0.011125848
       30.999993       287.78829       98864.129       13740.442       4.4982500     -0.92725000      0.30150000       341.14600       2.0502407     0.017103584
       36.000006       287.79616       98871.304       13725.788       4.9610000      0.57125000     -0.32225000       340.97200       1.9160097     0.015763310
       41.000019       287.84578       98881.877       13769.905       3.8305000      -1.1955000     -0.35975000       341.15300       1.9929754     0.014070066
       45.999992       287.86581       98883.378       13791.826       6.4715000     -0.45700000     -0.52950000       340.97800       2.0575316     0.016299452
       51.000005       287.91157       98874.703       13854.779       4.7662500      -1.1382500      0.23325000       341.07900       2.1581942     0.021271022
       56.000018       287.90414       98874.587       13870.015       5.4840000       1.1640000      0.32250000       341.04100       2.0832345     0.014386766
       60.999991       287.84518       98875.621       13851.856       5.2707500       1.2407500     0.068250000       340.77300       1.9310701     0.012490899
       66.000004       287.84384       98874.639       13868.460       4.6632500      -1.3795000      0.49350000       340.90500       2.1632380     0.022265970
       71.000017       287.84196       98878.137       13890.424       2.9337500     -0.74925010      0.77325000       341.19000       2.0644602     0.015383900
       75.999990       287.85105       98873.465       13900.413       4.7315000     -0.94075010     -0.87400000       341.08100       2.0110992     0.018155825
       81.000003       287.90276       98858.945       13931.578       2.9722500      -1.1127500      0.23375000       341.12200       1.9563346     0.010070721
       86.000016       287.91412       98857.543       13925.210       5.8710000     -0.37650000    -0.072750000       340.83600       1.9599748     0.013200088
       90.999989       287.89134       98858.054       13875.370       5.7272500      -1.8302500     -0.25200000       340.87300       1.9544288     0.014962610
       96.999997       287.91533       98867.350       13857.907       4.5230000      0.31975000      0.52550000       341.04600       2.0192654     0.018974293
       102.00001       287.94402       98875.255       13867.975       4.4915000     -0.79000000    0.0045000000       341.08600       2.1325803     0.027719890
       106.99998       288.03035       98884.811       13943.640       5.6642500     -0.17450000     0.066250000       340.75400       1.9652766     0.013129799
       112.00000       288.06283       98890.886       13974.988       5.7297500     -0.26475000      0.44125000       340.97100       2.0251454     0.015596605
       117.00001       288.07073       98895.725       13992.775       5.7500000     -0.91175000     0.014500000       340.78100       2.0710082     0.012447237
       121.99998       288.05736       98902.999       14006.256       4.9787500      -1.0210000      0.15025000       340.99400       2.0249781     0.013110189
       127.00000       288.04572       98900.470       14017.482       4.3690000      -1.4515000     0.064000000       340.92300       2.0776535     0.014164242
       132.00001       287.98792       98890.997       13990.025       3.9197500     -0.43225000      0.30000000       340.94100       2.0082530     0.011967136
       136.99998       288.04581       98883.258       14068.247       5.7390000      -2.3712500      0.20800000       340.94700       1.9886957     0.013371478
       141.99999       288.05772       98875.219       14101.925       4.4935000      -1.4767500     -0.45150000       340.99300       2.0233960     0.013670541
       147.00001       288.04010       98865.595       14108.607       4.5870000     -0.24525000     -0.27150000       340.93600       2.0856205     0.018310077
       152.00002       288.05004       98859.459       14133.062       4.8202500     0.054750000     -0.23325000       340.92200       2.0406314     0.010200597
       156.99999       288.05991       98854.531       14152.977       4.5527500     -0.82500000     0.070750010       340.99800       2.0593287     0.013905297
       162.00001       288.03636       98847.728       14133.967       3.7900000     -0.74975000     -0.17875000       340.97000       2.1305247     0.020893830
       167.00002       288.06957       98850.357       14186.348       4.8150000      -1.2985000     -0.19125000       340.80800       2.0294836     0.018912934
       171.99999       288.15637       98859.898       14289.463       4.3557500     -0.11425000     -0.64025000       340.92800       1.9310879     0.010337521
       177.00001       288.18512       98867.390       14359.440       4.8102500     -0.36550000     -0.35500000       341.06400       2.0969580     0.017289147
       182.00002       288.20665       98875.394       14404.815       5.3425000     -0.13700000     -0.36600000       340.95100       1.9772377     0.014708000
       187.99999       288.17160       98886.294       14373.384       3.2442500     0.066250000      0.39525000       341.15300       1.9111315     0.011282682
       193.00000       288.19408       98892.141       14404.231       3.4622500      0.66700010      0.46400000       341.06800       2.0705895     0.020632806
       198.00001       288.28241       98901.095       14475.743       4.0270000      0.19400000   -0.0072500000       341.20500       1.9517963     0.011827984
       202.99999       288.31103       98902.540       14525.624       3.9565000      -1.9117500     -0.62925000       340.90000       2.1492391     0.028358605
       208.00000       288.37680       98894.994       14665.185       3.3357500      -1.4055000       1.0080000       341.19400       2.1492233     0.023061480
       213.00001       288.37168       98889.791       14688.459       4.2517500      -1.4032500     -0.34550000       340.79100       2.0382553     0.010312027
       217.99998       288.22866       98881.800       14580.659       2.9762500     -0.31050000      0.33025000       341.13500       2.0471223     0.016924004
       223.00000       288.18106       98873.779       14545.262       5.1745000     -0.39875000    -0.066750000       341.24900       2.0765527     0.013805273
       228.00001       288.14016       98865.734       14471.329       5.5112500     -0.43450000     -0.38350000       340.93400       1.9635613     0.013736388
       232.99998       288.13344       98858.708       14433.588       4.4537500     -0.38575000     -0.23675000       341.04300       1.9567274     0.011542589
       238.00000       288.23889       98847.517       14496.754       3.5552500     -0.49075000     -0.18150000       341.09400       1.9579231     0.012145474
       243.00001       288.26614       98842.964       14489.304       2.4520000      -1.2610000      0.14650000       341.17600       2.0163177     0.014319913
       247.99998       288.25740       98841.779       14431.120       3.4427500      -1.5105000     -0.13050000       341.09600       1.9441354     0.012949706
       253.00000       288.25608       98844.261       14394.768       2.2855000     -0.80650000     0.024250000       341.30600       2.0610518     0.014113641
       258.00001       288.22406       98854.537       14332.408       1.7400000     -0.25725000      0.12525000       341.41400       2.0859492     0.020469134
       262.99998       288.19373       98861.508       14291.938       3.5360000     -0.77200000      0.10825000       341.31100       1.9597577     0.012782308
       267.99999       288.17919       98868.997       14286.394       4.0782500      -1.0412500      0.90125010       341.17800       2.1261379     0.020219643
       273.00001       288.14784       98876.987       14261.999       3.0592500      -1.7987500      0.22450000       341.33800       1.8790204     0.015373823
       279.00002       288.05337       98890.203       14215.624       2.8922500      -1.6220000     -0.18800000       341.11500       2.0395109     0.017942883
       283.99999       288.03112       98893.061       14194.388       2.9290000      -1.3250000      0.24750000       341.36800       2.1011348     0.023073957
       289.00000       288.02973       98891.675       14158.870       4.4990000      -1.2292500     -0.38200000       341.62400       2.0712926     0.016124412
       294.00001       288.04682       98890.966       14162.564       3.6647500      -1.1232500       1.4250000       341.44300       1.9054033     0.014332080
       298.99999       288.14547       98881.405       14227.105       2.5562500      -1.4517500      0.44925000       341.46400       2.0091141     0.017269431
       304.00000       288.16786       98878.208       14237.593       2.2142500     -0.50600000      0.39775000       341.43200       1.9544548     0.012260889
       309.00001       288.15695       98881.550       14250.267       3.1105000      -1.5050000     -0.76075010       341.54500       2.0857718     0.017609014
       313.99999       288.15350       98880.156       14242.822       3.7245000     -0.97150000     0.078500000       341.31400       1.9896118     0.016506945
       319.00000       288.09193       98878.918       14170.806       2.0157500      -1.3850000      0.26200000       341.42000       2.1280701     0.022279122
       324.00001       288.08901       98874.179       14150.928       2.9745000     -0.40550000     0.047250000       341.53700       1.9389881     0.011100909
       328.99999       288.12519       98864.530       14158.111       3.9437500     -0.77200000     -0.43125000       341.46600       2.0362357     0.018050768
       334.00000       288.15874       98857.597       14158.916       2.3207500     -0.28725000      0.82275000       341.51400       2.0251582     0.018217395
       339.00001       288.23282       98846.241       14180.346       5.6487500      -1.6570000     -0.68425010       341.12600       1.9978870     0.013165345
       343.99998       288.26915       98842.392       14190.518       4.5390000     -0.51300000     -0.44650000       341.16400       2.0671490     0.021102970
       349.00000       288.26931       98844.658       14171.863      -65.536000      -65.536000      -65.536000       307.23200       2.1582043     0.024724471
       354.00001       288.31352       98845.077       14199.186       4.1815000      -2.1665000     -0.17925000       341.37700       2.1845951     0.027538013
       358.99998       288.36445       98847.196       14246.705       3.4292500      -2.1440000      -1.1300000       340.86400       1.9922806     0.013605986
       364.99999       288.43044       98852.585       14319.203       4.2690000     -0.24800000     -0.72525000       341.15600       2.0633408     0.017207281
       370.00000       288.55275       98857.704       14424.621       2.8502500      -2.0665000     -0.35675000       341.19800       1.9137989     0.010784993
       375.00002       288.58367       98863.353       14503.344       3.3900000      -1.4150000     -0.80775000       341.13300       1.8445342     0.014314607
       379.99999       288.54582       98874.432       14570.219       4.8605000      -1.1555000      0.64025000       341.24900       2.0023817     0.015525915
       385.00000       288.55565       98879.173       14653.389       3.9887500      -1.1872500    -0.085500000       341.06700       2.0495149     0.016286213
       390.00002       288.54273       98880.368       14764.152       2.7532500      -1.1772500     -0.89625010       341.18500       1.9997661     0.015177964
       394.99999       288.54954       98881.782       14818.895       4.8442500      -1.9362500     -0.79850010       341.16100       1.9873923     0.016566904
       400.00000       288.61010       98880.384       14880.739       4.8302500      -1.1800000     -0.90925000       341.28400       1.9978303     0.015632962
       405.00002       288.60787       98880.427       14877.575       3.9067500     -0.48800000      0.23275000       341.46100       2.0224309     0.018227436
       409.99999       288.55722       98880.243       14788.731       4.5075000     0.016500000       1.3617500       341.94800       1.9980580     0.013996923
       415.00000       288.53717       98880.243       14741.666       3.3090000      -2.2785000    -0.060250000       341.30500       2.1169472     0.025845540
       420.00002       288.50092       98880.434       14679.081       4.1025000      -1.4270000     -0.14575000       341.29600       2.0533786     0.017187280
       424.99999       288.48735       98880.521       14623.802       3.3397500      -1.2970000     -0.43100000       341.34100       2.0982945     0.021197055
       430.00000       288.49970       98881.396       14579.653       4.0130000     -0.41700000    -0.041500000       341.16000       1.9265723     0.013422883
       435.00001       288.49958       98879.762       14529.374       2.8940000     -0.69575010     0.037000000       341.67900       2.1414708     0.026044613
       439.99999       288.48919       98878.248       14445.719       3.9647500     -0.20650000    -0.023750000       341.74400       2.0207116     0.015576275
       445.00000       288.50565       98872.963       14429.201       6.6112500      -1.3962500     -0.24500000       340.97500       1.9636922     0.014657314
       450.00001       288.54280       98859.581       14444.949       5.7075000      -2.3860000     -0.20025000       341.37500       2.0363144     0.021265562
       455.99998       288.56689       98857.467       14477.636       4.8422500      -1.6087500     0.011500000       341.15100       2.0120909     0.018517748
       460.99999       288.61197       98861.657       14561.577       4.6767500      -1.5655000     -0.41975000       341.12700       1.8980600     0.011801386
       466.00001       288.60430       98857.834       14598.944       4.0605000      -2.9440000     0.034500000       340.98700       1.9976006     0.013777389
       471.00002       288.55393       98857.273       14621.597       4.3127500      -1.5222500     -0.57900010       340.95100       2.0307471     0.014513872
       475.99999       288.53402       98853.625       14652.200       3.3792500     -0.91225000      0.32300000       341.52800       1.9755296     0.012382668
       481.00001       288.48774       98838.528       14674.145       3.9145000      -1.5562500     -0.27550000       341.64100       1.9065501     0.012415368
       486.00002       288.49552       98837.095       14703.780       3.6272500     -0.54475000      0.50175010       341.49200       2.0124863     0.012524617
       490.99999       288.53785       98844.952       14763.009       2.8187500      0.46400000      0.89675000       341.52400       2.0010573     0.012628201
       496.00001       288.57716       98847.000       14749.974       3.8502500      -1.6632500      -1.2205000       340.93800       2.0259809     0.016476133
       501.00002       288.64146       98848.758       14691.834       4.3462500     -0.32325000    -0.092750010       341.32000       1.8856567     0.013419965
       505.99999       288.69171       98853.614       14669.593       3.5492500    -0.083250000      0.34000000       341.57100       1.9798702     0.017319030
       511.00000       288.73107       98859.773       14589.541       3.0877500     -0.60200010      0.52850000       341.37900       1.9096981     0.015014926
       516.00002       288.79924       98863.849       14615.092       3.5025000      -2.7797500     -0.68050000       341.28100       2.1050405     0.025244002
       520.99999       288.89236       98869.975       14739.176       3.2107500      -2.7435000     -0.93550000       341.64000       1.9863607     0.011109381
       526.00000       288.96538       98874.077       14799.386       5.4910000      -1.7340000     -0.32825000       340.96100       2.0571720     0.016901603
       531.00002       288.95185       98874.869       14749.719       3.9050000      -2.1857500     -0.27300000       341.40100       2.0115103     0.014732709
       535.99999       288.98225       98876.883       14758.122       4.0265000      -2.0237500      0.38175000       341.66900       2.1027174     0.024025188
       541.00000       289.01231       98880.363       14766.206       4.3460000      -2.1502500      0.26800000       341.44900       2.0647203     0.021197423
       547.00001       289.04796       98880.277       14776.427       4.5482500      -1.2870000     -0.11325000       340.79300       2.0362867     0.014792704
       551.99998       289.07731       98880.241       14784.834       1.9950000      -1.2985000      0.18950000       341.15300       1.9865274     0.014501556
       557.00000       289.10632       98880.394       14793.119       3.3835000     0.090000000     -0.46525000       341.45800       2.0863782     0.020079033
       562.00001       289.13501       98880.465       14801.324       1.8400000     -0.79150000     0.075250010       342.32500       1.9439561     0.011618923
       566.99998       289.16336       98880.563       14809.433       2.5937500      -1.0710000      0.28100000       342.56000       1.9758067     0.017721348
       572.00000       289.19139       98880.295       14817.508       4.0607500      -1.9397500     -0.13225000       340.95000       2.0492432     0.011724216
       577.00001       289.21909       98880.255       14825.457       3.3870000      -1.7927500     -0.76225010       341.36000       2.0534488     0.020554651
       581.99998       289.24646       98880.087       14833.338       3.9067500      -1.9685000     -0.20600000       341.61600       1.9511169     0.012002529
       586.99999       289.27350       98884.600       14840.417       3.0700000      -1.3290000      0.28975000       342.24500       1.9225442     0.011229634
       592.00001       289.30021       98881.995       14848.493       3.2917500      -1.7832500     -0.73825000       341.74200       1.9718160     0.010234790
       596.99998       289.32659       98868.171       14858.195       3.4275000      -1.3035000      0.48575000       342.45300       1.9945067     0.017540095
       601.99999       289.35264       98863.910       14866.355       4.5612500      -1.6157500      0.42050000       342.12800       1.9505952     0.016012685
       607.00001       289.37836       98862.094       14874.058       4.1325000     -0.22225000      0.31925000       342.37100       1.8707180     0.013995015
       612.00002       289.40376       98858.324       14881.976       4.3187500      -1.3515000     -0.18025000       341.34000       2.0222164     0.018076786
       616.99999       289.42882       98859.816       14889.008       3.0685000     -0.79000000      0.35075000       342.18300       1.9391027     0.012565141
       622.00001       289.45356       98872.561       14894.238       3.6570000      -2.8247500     -0.47225000       342.59400       1.9603954     0.015784113
       627.00002       289.47796       98865.583       14902.402       2.7492500      -1.5735000      0.20425000       341.99400       1.9806234     0.014772994
       631.99999       289.50204       98860.636       14910.176       4.6792500     -0.40950000      0.26375000       342.10200       2.1142053     0.035107357
       638.00000       289.53050       98843.222       14921.161       4.4707500      -2.2797500     -0.52400000       341.56600       2.0578842     0.019013409
       643.00001       289.55385       98842.095       14928.179       5.5602500      -3.2112500     0.087250000       342.13700       2.0511615     0.022754689
       647.99999       289.57687       98854.881       14932.988       3.4377500      -2.7622500      0.23300000       341.77700       2.0499997     0.019558759
       653.00000       289.59957       98860.947       14938.749       3.7302500      -3.0220000      0.48575000       341.61700       1.9942859     0.019609172
       658.00001       289.62193       98882.229       14942.100       2.9855000      -2.7775000      0.14825000       341.62500       2.1524323     0.018837377
       662.99998       289.64397       98885.165       14948.189       3.8327500      -3.4485000     -0.42425000       341.84400       1.9912401     0.016823420
       668.00000       289.66567       98865.337       14957.698       2.7717500      -1.9677500      0.31225000       341.98400       1.8710531     0.012872548
       673.00001       289.68705       98858.462       14965.147       3.7122500      -2.8017500     -0.57675000       341.72100       1.9948642     0.012623476
       677.99998       289.70810       98847.540       14973.148       2.8842500      -2.2627500     0.097500000       342.02500       2.2629605     0.037832544
       683.00000       289.72882       98841.950       14980.258       2.0425000      -1.7225000       1.0275000       342.88000       2.0609425     0.017302616
       688.00001       289.74921       98849.416       14985.288       3.2027500      -2.5547500     0.023750000       341.94400       2.2730378     0.029354618
       692.99998       289.76927       98851.323       14991.104       4.1240000      -1.9627500     -0.97200010       341.11100       1.9823379     0.013206004
       698.00000       289.78900       98850.305       14997.300       2.3855000      -2.0585000     0.096250010       342.57000       1.9501633     0.018251374
       703.00001       289.80840       98850.289       15003.273       3.1190000      -1.6677500      0.44825000       342.30800       1.9616682     0.011326528
       707.99998       289.82747       98850.243       15009.182       3.4067500      -3.2730000      0.22725000       342.16700       2.0550403     0.025651591
       713.00000       289.84621       98850.260       15015.015       3.2420000      -2.8132500     0.050000000       341.38600       2.1030372     0.023035342
       718.00001       289.86463       98847.554       15021.201       3.5442500      0.33875000     -0.24650000       342.32700       2.1307672     0.029357086
       722.99998       289.88271       98849.800       15026.556       2.5050000      -1.7560000      0.24300000       343.31700       1.9958676     0.017347025
       728.99999       289.90398       98860.397       15031.677       3.9337500      -1.1980000      0.37575000       341.48900       2.0197219     0.016443917
       734.00000       289.92134       98861.563       15037.056       3.9802500      -1.2752500      0.29450000       341.44700       2.0179141     0.022639164
       739.00001       289.93837       98861.777       15042.518       3.5132500      -1.0332500      0.43475000       342.26100       1.9614794     0.013657175
       743.99999       289.95508       98861.086       15048.056       3.2252500     -0.34900000    -0.073000010       341.42200       2.0559578     0.018088403
       749.00000       289.97145       98847.157       15055.577       2.9777500     -0.68800000     -0.52950000       341.96600       2.0988815     0.018126982
       754.00001       289.98749       98848.048       15060.747       3.2600000      -1.2687500     -0.48050000       342.05500       1.8856792     0.011690428
       758.99999       290.00321       98862.921       15063.692       3.4980000     -0.61500000     -0.14175000       342.13800       2.1073083     0.027242244
       764.00000       290.01859       98867.553       15068.159       3.9867500    -0.077750000     0.073500000       341.91300       2.1092026     0.024907239
       769.00001       290.03365       98873.705       15072.329       2.9840000     -0.10475000      0.14700000       341.50900       1.9983274     0.021340965
       773.99999       290.04838       98878.009       15076.726       2.3320000      -1.6750000     0.065750000       342.96000       1.8865830     0.013674408
       779.00000       290.06277       98874.505       15082.271       3.4855000     -0.44250000     -0.24850000       341.72500       2.0839327     0.018751967
       784.00001       290.07684       98874.861       15087.160       3.4040000      -2.1977500     -0.38400000       341.52600       2.0940892     0.023074264
       788.99999       290.09058       98879.809       15091.279       4.0447500      0.25525000      0.84700010       342.51200       1.9350831     0.015765022
       794.00000       290.10399       98881.407       15095.859       4.7357500     -0.21300000     -0.26825000       342.19600       1.9106821     0.012375741
       799.00001       290.11707       98880.346       15100.794       3.3572500    -0.066500000     0.057500000       343.15800       1.9164632     0.017214129
       803.99998       290.12982       98880.386       15105.501       4.0160000       1.0517500      0.53900000       342.16000       2.0549250     0.016081238
       809.00000       290.14225       98880.243       15110.179       3.6197500     -0.52150010     -0.53450000       341.42500       2.0704100     0.011864414
       814.00001       290.15434       98880.243       15114.780       3.1717500     -0.61550000     -0.54250000       342.06100       2.0002069     0.015364813
       820.00002       290.16842       98880.306       15120.217       3.1667500     0.067500000      0.43475000       342.66700       1.9964522     0.011818820
       824.99999       290.17979       98880.306       15124.695       3.3390000     -0.29475000       1.1437500       343.57200       2.0642386     0.018210266
       830.00000       290.19082       98880.119       15129.147       3.7292500      0.13725000     -0.51750000       341.77300       2.1514985     0.019405747
       835.00002       290.20154       98880.060       15133.525       4.3497500      0.85775010    -0.032250000       341.97100       2.0679475     0.010595967
       839.99999       290.21192       98880.306       15137.801       2.6590000    -0.050750000      0.30250000       342.36200       2.1702344     0.021075163
       845.00000       290.22197       98880.306       15142.062       2.6325000     -0.62550000      0.21150000       342.93500       2.2468015     0.023862430
       850.00002       290.23169       98880.353       15146.262       2.9142500     -0.80500010      0.38100000       343.05800       2.2073802     0.027257159
       854.99999       290.24108       98880.396       15150.409       3.4852500      -1.0442500     0.094250000       341.92200       1.9411363     0.010867816
       860.00000       290.25015       98880.303       15154.525       3.7845000      -2.1440000     -0.12425000       341.61300       2.0861624     0.019622831
       865.00002       290.25888       98880.276       15158.577       2.8947500     -0.68125000      0.40750000       342.16700       2.0119704     0.013613480
       869.99999       290.26729       98877.995       15162.928       4.0347500      0.57400000      0.22600000       341.35300       2.0004116     0.017253404
       875.00000       290.27537       98881.186       15166.375       3.4562500     -0.11775000     -0.28125000       342.48400       2.0436599     0.016419968
       880.00001       290.28311       98890.844       15168.762       3.6895000     -0.73850010     -0.30700000       342.52200       1.9239551     0.013294152
       884.99999       290.29053       98891.575       15172.488       4.7182500    -0.084500010     -0.30975000       341.62800       2.0575322     0.016328327
       890.00000       290.29762       98889.341       15176.624       3.7497500      0.35075000      0.39725000       342.37100       2.1157592     0.023977767
       895.00001       290.30438       98891.355       15180.047       4.4972500       1.0587500     -0.52850000       341.81100       2.3168370     0.029589248
       899.99999       290.31081       98891.065       15183.777       3.2767500     -0.82100000      0.80850010       342.49600       1.8817542     0.014130010
       905.99999       290.31809       98888.665       15188.507       3.2510000     -0.11350000      0.12275000       341.88900       2.0333100     0.014681795
       911.00001       290.32380       98891.604       15191.621       3.3612500     -0.41675000     -0.29600000       342.38200       1.9478237     0.012410679
       916.00002       290.32918       98889.814       15195.423       2.9860000     -0.84275000      0.10300000       342.21100       1.9802120     0.014780394
       920.99999       290.33423       98879.540       15200.498       4.1525000     -0.23575000     0.012000000       341.97800       2.0637389     0.020721450
       926.00001       290.33894       98877.249       15204.277       3.6420000     -0.27775000      0.48575000       342.14100       2.0382562     0.018647363
       931.00002       290.34333       98880.306       15207.171       3.0282500     -0.66725000     -0.17575000       342.20100       2.0052958     0.011266912
       935.99999       290.34739       98880.306       15210.491       3.4325000      -2.0862500    -0.045500000       341.63100       1.9412471     0.017763425
       941.00001       290.35113       98878.864       15213.986       2.9415000      -1.1347500      0.32875000       342.16900       1.9348255     0.012885453
       946.00002       290.35453       98882.783       15216.593       4.0202500      -1.1205000     -0.15325000       341.65100       2.0972574     0.014341601
       950.99999       290.35760       98889.479       15218.716       3.4647500     -0.32650000    -0.023500000       342.06400       1.8692770     0.013869380
       956.00000       290.36034       98893.443       15221.215       3.8867500      -2.0952500    -0.086000000       341.74000       1.9855938     0.017704242
       961.00002       290.36276       98902.682       15222.838       2.7555000      -1.0365000      0.15975000       342.18000       1.9387965     0.016073474
       965.99999       290.36484       98901.167       15226.092       1.7540000     -0.82625000      0.12200000       342.18100       2.0824032     0.021279727
       971.00000       290.36660       98891.379       15230.588       2.7792500     -0.11750000      0.19550000       342.29600       1.9848096     0.011496825
       976.00002       290.36802       98887.434       15234.120       2.4475000     -0.74325000     0.031250000       342.11200       1.9965132    0.0098612887
       980.99999       290.36912       98879.914       15238.162       4.2820000     -0.23350000     0.041750000       342.18400       2.0902273     0.017903604
       986.00000       290.36989       98877.703       15241.322       4.3442500      -2.2545000     -0.39950000       341.90800       2.0655626     0.016513380
       991.00002       290.37033       98880.243       15243.687       2.6240000      -1.1797500    0.0052500000       342.03200       2.0464071     0.020747088
       996.99998       290.37042       98880.395       15246.912       3.5057500     -0.90150000     -0.53750000       341.50300       1.9595599     0.015971396
       1002.0000       290.37014       98880.466       15249.551       3.7822500      -1.7540000      0.28325000       342.12200       1.9651024     0.012202106
       1007.0000       290.36952       98880.306       15252.174       5.9140010      -3.1172500     -0.43800000       341.42700       1.9597879     0.010327692
       1012.0000       290.36858       98880.306       15254.721       4.6130000      -1.6442500      0.76175000       341.84600       2.2082226     0.026189668
       1017.0000       290.36730       98880.306       15257.216       5.1555000     -0.89200000     0.038250000       341.80400       1.9635026     0.012836746
       1022.0000       290.36570       98880.452       15259.635       4.3632500      -1.6502500       1.2282500       341.52000       1.9835118     0.018546591
       1027.0000       290.36377       98880.511       15262.016       5.2322500      -1.7255000     -0.46650000       341.07200       2.0599693     0.014765728
       1032.0000       290.36151       98879.123       15264.571       5.4767500      -2.6712500     -0.21950000       341.41700       2.0700720     0.017169349
       1037.0000       290.35892       98889.319       15265.257       5.7502500      -2.7347500    -0.085500000       341.45000       1.8300150     0.016515783
       1042.0000       290.35600       98891.662       15267.120       3.8977500      -1.4697500     -0.11275000       341.71700       1.9792943     0.013615973
       1047.0000       290.35275       98891.256       15269.361       5.5240000     -0.26775000     -0.83775000       341.26500       1.9217428     0.012153169
       1052.0000       290.34917       98891.451       15271.453       5.2935000      -1.3372500     -0.17150000       341.29100       2.0533770     0.022194986
       1057.0000       290.34527       98889.189       15273.876       3.0372500      -1.1485000      0.89000000       341.59500       2.0960154     0.012664834
       1062.0000       290.34103       98879.308       15277.440       3.5245000     -0.54325000      0.60300000       341.83800       2.0702221     0.018125936
       1067.0000       290.33647       98877.699       15279.652       4.4355000     -0.91825000      0.18600000       341.34900       2.0280135     0.012689978
       1072.0000       290.33157       98880.400       15281.132       2.6395000      -1.8407500      0.16525000       341.96800       2.0328346     0.013753308
       1077.0000       290.32635       98880.243       15283.004       4.7787500      -3.6927500     -0.48000000       341.36000       2.0058828     0.013546927
       1082.0000       290.32079       98880.243       15284.796       3.1725000      -1.3455000     -0.58750000       341.72400       2.1331739     0.019730365
       1088.0000       290.31370       98880.407       15286.845       4.2447500    -0.024000000    -0.050250000       341.75800       2.1191911     0.016391654
       1093.0000       290.30742       98880.484       15288.499       4.4787500      -2.0572500     0.032250000       341.59600       2.0869698     0.016656700
       1098.0000       290.30081       98880.306       15290.135       4.7765000      -1.8377500     -0.84050010       341.70000       2.1112663     0.026563363
       1103.0000       290.29388       98880.306       15291.685       4.6167500      -2.0145000     -0.30625000       341.43400       2.0051876     0.011727157
       1108.0000       290.28661       98880.405       15293.161       4.9440000      -2.9905000    -0.077500000       341.73600       1.9606763     0.014896613
       1113.0000       290.27902       98880.464       15294.584       4.5095000      -1.1357500     -0.10975000       341.32400       2.0407748     0.011822511
       1118.0000       290.27109       98880.370       15295.971       5.3382500      -2.8067500     -0.40825000       341.14800       2.0411708     0.021566334
       1123.0000       290.26284       98880.408       15297.278       2.9642500      -1.2075000       1.6055000       342.29200       2.0258222     0.013938078
       1128.0000       290.25426       98881.654       15298.333       3.6395000      -3.1170000     -0.69700000       341.60500       2.1087834     0.020043203
       1133.0000       290.24535       98880.549       15299.697       4.6572500      -1.9915000      0.25500000       342.23300       1.9305759     0.015054042
       1138.0000       290.23611       98876.925       15301.394       3.8895000     -0.67400000      0.70400010       342.06700       1.9912614     0.016617873
       1143.0000       290.22654       98874.970       15302.766       2.8587500      -2.2865000      0.74825000       342.62800       2.1018095     0.024090234
       1148.0000       290.21664       98875.740       15303.647       3.0570000      -2.3732500      0.89350000       342.14500       2.0598510     0.017037190
       1153.0000       290.20641       98870.498       15305.409       4.0177500      -3.3627500     -0.58975010       341.44800       2.0412636     0.019115378
       1158.0000       290.19586       98858.530       15308.163       3.8870000      -2.1890000       1.6410000       342.04000       2.1294415     0.018275758
       1163.0000       290.18497       98853.582       15309.750       3.1732500      -3.4757500      0.53025000       341.69600       2.1082598     0.023283106
       1168.0000       290.17376       98846.456       15311.613       3.6450000      -2.1692500       1.1010000       341.68500       2.1240223     0.018600443
       1173.0000       290.16221       98842.760       15312.870       1.6967500      -1.7085000      0.52900000       341.85300       2.0915023     0.020416557
       1179.0000       290.14792       98849.914       15312.467       2.4125000      -2.3817500      0.39075000       341.90000       2.0666112     0.010156750
       1184.0000       290.13565       98851.564       15312.734       4.7602500     -0.67950000      0.18775000       341.66200       2.0383150     0.016427319
       1189.0000       290.12306       98851.536       15313.196       2.3870000      -1.2090000     0.046750000       341.97400       2.0656758     0.016412828
       1194.0000       290.11013       98850.165       15313.800       5.4515000      -1.5120000     -0.16050000       341.74000       2.1310703     0.019197405
       1199.0000       290.09687       98846.572       15314.683       4.0880000      -1.0745000     -0.54475000       341.74800       2.0868498     0.021796611
       1204.0000       290.08329       98844.575       15315.243       3.8712500     -0.70975010      0.18150000       342.06100       2.1520851     0.022854019
       1209.0000       290.06937       98841.036       15315.975       4.6742500     -0.87125000       1.7455000       341.86200       2.1361996     0.022365662
       1214.0000       290.05513       98839.486       15316.320       2.7727500     -0.77300010      0.16000000       342.20200       2.2989833     0.011425744
       1219.0000       290.04055       98838.877       15316.444       3.4330000     -0.38600000       1.0440000       341.99900       4.0880878     0.018703878
       1224.0000       290.02565       98840.192       15316.191       7.1917510      -1.2585000     -0.43550000       341.23400       4.9319515     0.024018025
       1229.0000       290.01042       98844.158       15315.446       4.9400000      -2.0010000      0.13825000       341.48900       3.1408867     0.015213607
       1234.0000       289.99486       98846.173       15314.931       4.0585000    -0.076500010     -0.20400000       342.00800       3.2715906     0.024912188
       1239.0000       289.97897       98845.722       15314.727       4.6925000      0.83675000      0.44950000       341.99000       3.7545572     0.015041377
       1244.0000       289.96275       98851.497       15313.466       4.1282500      -1.5812500     -0.33475000       341.67500       6.8323255     0.015287425
       1249.0000       289.94620       98861.551       15311.454       6.1095000     -0.58100000      0.18125000       341.62100       6.1145707     0.016485951
       1254.0000       289.92932       98867.495       15310.008       4.7310000      -1.2007500      0.54225000       341.72400       4.7659585     0.015401200
       1259.0000       289.91211       98876.176       15308.052       2.6462500     -0.11375000     -0.37450000       342.43900       2.8709222     0.018025615
       1264.0000       289.89458       98883.778       15306.185       4.9370000      -1.8232500     -0.36800000       341.74600       5.5214266     0.018926898
       1270.0000       289.98989       98891.015       15401.221       4.4660000      -3.5597500     -0.32925000       341.56900       5.3685676     0.023303901
       1275.0000       289.98834       98891.746       15399.202       4.8077500      -1.5847500     0.070750010       341.71000       2.8421904     0.019255268
       1280.0000       290.15722       98889.514       15611.431       6.0882500      -1.5232500      0.68975000       341.91500       2.1864290     0.033050282
       1285.0000       290.15104       98891.529       15592.279       5.3835000      -1.3892500     -0.39900000       341.60800       2.0881983     0.017908178
       1290.0000       290.10073       98891.118       15497.750       3.3175000      -1.1647500     -0.80925010       342.33200       2.0496262     0.015339768
       1295.0000       290.08697       98889.175       15432.774       5.0110000      -1.5250000      0.19425000       341.58900       2.0221589     0.013128993
       1300.0000       290.12200       98889.415       15406.713       4.0230000     -0.65875010    -0.019000000       342.05800       1.9961065     0.014448871
       1305.0000       290.08934       98891.402       15318.946       2.7065000     -0.45150000     -0.38825000       342.63500       2.1118260     0.018353318
       1310.0000       290.01459       98891.066       15168.748       5.2305000     -0.55225000     -0.62575000       341.69200       2.3734065     0.020173266
       1315.0000       289.97448       98889.024       15066.337       3.6212500      -1.9967500      0.27400000       342.67200       2.0741291     0.014159179
       1320.0000       289.91286       98891.899       14960.454       2.8237500     -0.61850010      0.50775000       342.76700       2.0392715     0.016751062
       1325.0000       289.86954       98890.695       14864.573       3.1065000     -0.27400000    -0.071750000       342.73400       2.4073111     0.022857873
       1330.0000       289.85849       98880.375       14777.935       4.1320000      -1.6557500     -0.24350000       342.56100       3.4617427     0.017216577
       1335.0000       289.83803       98877.613       14720.183       3.2705000      0.17800000     0.028000000       342.24600       4.6852151     0.015916361
       1340.0000       289.79070       98881.364       14657.667       3.9007500       2.6185000    -0.037750000       342.27100       7.4211048     0.030835577
       1345.0000       289.79364       98879.707       14643.833       5.1565000      0.13450000      0.20200000       342.53300       6.7718045     0.027354148
       1350.0000       289.84326       98878.315       14687.389       6.2162500     0.043000000     -0.52725010       342.11000       3.9352909     0.017750107
       1355.0000       289.86337       98873.097       14716.094       5.1910000     -0.91800000      0.29200000       342.24200       3.8302114     0.016029714
       1361.0000       289.89422       98860.544       14752.568       5.8287500    -0.083000000    0.0055000000       341.62800       7.9317691     0.027263189
       1366.0000       289.92390       98855.384       14836.065       4.6590000      0.37350000      0.28275000       341.87200       4.7024462     0.017389500
       1371.0000       289.94554       98849.953       14956.243       4.4775000       2.0237500      0.24600000       342.45400       3.3385015     0.013542044
       1376.0000       289.96522       98847.794       15053.946       4.9752500     -0.18400000      0.14325000       342.45100       6.1987759     0.020362037
       1381.0000       290.02159       98850.299       15234.736       4.6687500      0.42025000     -0.34375000       341.94900       4.8766923     0.026412565
       1386.0000       289.99472       98850.265       15249.834       2.5212500    -0.060250000     0.017750000       342.16700       8.1488203     0.024965396
       1391.0000       289.90823       98851.113       15176.475       4.3692500      0.53500000     -0.17750000       341.87900       3.8257727     0.014403868
       1396.0000       289.86818       98849.213       15115.389       7.1940000    -0.017000000     -0.11875000       341.91600       4.7445699     0.014254659
       1401.0000       289.80227       98845.483       14965.044       4.5832500       1.6760000     0.030500000       341.91900       3.0556574     0.016145370
       1406.0000       289.76078       98843.474       14880.018       3.7997500      0.58500000      0.36775000       342.18100       7.4490222     0.024551961
       1411.0000       289.75368       98838.934       14818.095       2.8690000     -0.33800000      0.60200010       342.23500       4.0945155     0.016504738
       1416.0000       289.73359       98839.592       14757.080       2.8050000    -0.067250010      0.45050000       342.08400       5.4960773     0.021831360
       1421.0000       289.69721       98842.983       14689.796       2.7315000      0.41850000      0.75075010       342.19200       6.8593060     0.026022785
       1426.0000       289.68623       98848.820       14659.913       1.9445000     0.014500000      0.65150000       342.54200       5.0509345     0.032928143
       1431.0000       289.70901       98859.129       14662.735       4.7605000       1.6432500     -0.29775000       341.66600       4.0542866     0.016126511
       1436.0000       289.69035       98866.240       14646.495       3.0567500     -0.96575000      0.18075000       342.39400       2.7150845     0.015838432
       1441.0000       289.65355       98875.715       14644.633       4.9795000     -0.48300000     0.059250000       341.89000       6.4853768     0.027508753
       1446.0000       289.63362       98879.989       14631.526       3.9142500      0.58800000      0.91300000       341.89600       3.8976578     0.022027199
       1452.0000       289.59381       98880.789       14584.104       4.3825000     -0.50925000  -0.00025000000       342.17300       4.2040543     0.029548169
       1457.0000       289.62980       98880.277       14681.761       5.7402500       1.1030000     -0.29675000       340.94400       5.4005306     0.029975946
       1462.0000       289.61237       98880.242       14714.282       4.5907500     -0.31950000       1.0525000       341.86200       5.8390801     0.028400714
       1467.0000       289.57031       98880.192       14735.216       3.8715000      0.20050000      0.30025000       341.77800       4.2664190     0.019934536
       1472.0000       289.52196       98880.295       14799.955       4.0282500      0.45975000     -0.17575000       341.74900       4.6367694     0.016344850
       1477.0000       289.41689       98880.255       14747.702       2.9072500      0.32450000      0.29325000       341.95700       4.2821472     0.018153987
       1482.0000       289.23873       98880.368       14601.656       2.7367500     -0.13075000    0.0090000010       342.05400       3.4481019     0.015393440
       1487.0000       289.16004       98881.758       14512.669       4.0885000       1.9965000       1.1955000       341.61600       4.9964680     0.021106188
       1492.0000       289.08678       98880.890       14411.216       3.0330000      -1.1552500      0.40275000       341.64400       4.2671316     0.018790473
       1497.0000       289.06957       98877.225       14286.800       2.9605000      0.58850000      0.44625000       341.91800       4.4454790     0.021114110
       1502.0000       289.04966       98875.234       14198.544       3.2905000     -0.46325000      0.90300010       341.73400       4.0638605     0.021928636
       1507.0000       289.02976       98873.229       14122.047       4.7522500       1.1837500     -0.38475000       341.68800       5.8618854     0.020507942
       1512.0000       288.98738       98870.758       14025.327       5.0077500      0.30875000      0.17600000       341.74900       5.8812928     0.023534038
       1517.0000       289.00053       98865.513       14012.288       4.3350000     -0.60675000     -0.52100000       341.44300       7.9439514     0.018090647
       1522.0000       289.05055       98860.312       14060.894       3.5737500     -0.14350000     0.042250000       341.74900       7.8661540     0.020971990
       1527.0000       289.08510       98853.278       14096.631       3.6420000     -0.84250000     -0.20375000       341.92400       6.5884175     0.032666065
       1532.0000       289.10649       98848.965       14132.616       4.1055000      -1.7060000   0.00075000000       341.92200       5.0509196     0.020246510
       1538.0000       289.10016       98850.407       14158.315       5.0375000      -1.3577500     0.042750000       341.80500       3.1865307     0.016247480
       1543.0000       289.10016       98850.466       14201.020       3.5757500      -2.3397500     -0.16075000       341.61500       2.6644801     0.014429805
       1548.0000       289.11461       98847.333       14295.693       4.0367500      -2.5822500     -0.13375000       341.61500       2.2784783     0.015648440
       1553.0000       289.10368       98849.544       14336.991       3.1292500      -1.3680000     -0.33125000       341.53700       2.1129809     0.015044623
       1558.0000       289.05200       98855.456       14350.986       3.2022500     -0.26500000      0.16775000       341.99000       1.8164155     0.017425517
       1563.0000       289.04323       98860.600       14375.574       2.9250000     -0.38725000    -0.034500000       342.08600       1.9916421     0.011188623
       1568.0000       289.04432       98868.816       14373.989       3.8150000     -0.96925000     -0.86125000       341.53500       2.9232539     0.024190350
       1573.0000       289.04553       98876.913       14373.010       4.2007500      -1.2785000     0.021500000       341.28900       2.9215402     0.012910619
       1578.0000       289.09019       98886.035       14389.198       3.9960000     -0.19625000      0.31050000       341.55800       2.1977581     0.016257771
       1583.0000       289.10915       98891.896       14394.819       4.7735000      0.73375000    -0.021000000       341.55000       2.1243743     0.016080853
       1588.0000       289.08576       98898.453       14352.331       3.0365000      -1.2962500    -0.041750000       341.62600       2.3452910     0.024288454
       1593.0000       289.09690       98902.187       14361.476       5.5877500     -0.93700000      0.14050000       341.24200       2.3826190     0.024464576
       1598.0000       289.13368       98903.217       14416.838       5.1287500     -0.42900000     -0.30200000       341.20700       3.3687911     0.017580250
       1603.0000       289.15378       98900.934       14449.502       4.4960000     -0.24000000      0.53925000       341.67600       2.9061766     0.013411627
       1608.0000       289.21790       98894.937       14527.857       4.0390000      -1.8350000     -0.32550000       341.35500       3.0900352     0.028243193
       1613.0000       289.21386       98889.794       14548.054       4.1522500     -0.50875000     0.088250000       341.46000       2.2165197     0.017975956
       1618.0000       289.11642       98881.421       14485.143       4.4282500      -2.1695000     -0.21000000       341.37700       2.1274302     0.015673361
       1623.0000       289.08725       98873.350       14479.857       3.7352500     -0.95500000      0.75400000       341.56300       2.0641868     0.010611918
       1629.0000       289.06087       98863.092       14493.008       4.0450000      -1.2815000     -0.27725000       341.44600       1.8766389     0.018838756
       1634.0000       289.03503       98857.531       14485.330       3.4350000      -1.3377500    -0.092750010       341.56600       2.0963679     0.016100417
       1639.0000       289.05676       98852.552       14497.548       4.8362500      -1.4160000      0.71875010       341.62100       1.8826866     0.019276688
       1644.0000       289.05309       98847.938       14505.480       3.7977500     -0.60775010    -0.055000000       341.58500       2.1945531     0.022121755
       1649.0000       289.00495       98845.205       14476.622       3.1410000      -1.1932500     -0.17075000       341.69200       2.0289750     0.017155169
       1654.0000       288.98873       98844.583       14475.358       2.7970000     -0.61575000     0.097750010       341.40800       1.9934162     0.012408269
       1659.0000       289.01322       98841.965       14524.440       3.5662500     -0.84675000      0.11525000       341.58000       2.0903350     0.021532101
       1664.0000       288.99964       98845.059       14526.785       2.2067500     -0.34475000      0.41725000       341.73500       2.1855187     0.027056173
       1669.0000       288.97444       98856.158       14516.504       3.1042500      -1.2437500     -0.24000000       341.74200       2.3138203     0.026755066
       1674.0000       288.94086       98863.146       14483.087       3.2132500      -1.4850000    0.0080000000       341.55200       2.4595077     0.016202849
       1679.0000       288.86689       98870.626       14408.343       3.5730000      -1.5300000     -0.49050000       341.65500       2.2939406     0.016438942
       1684.0000       288.83100       98878.608       14352.906       1.8787500      -1.2105000    -0.072250000       341.62200       2.0647660     0.021011167
       1689.0000       288.83230       98890.070       14305.754       3.8972500     -0.41600000     0.052500000       341.61100       2.0120603     0.018283853
       1694.0000       288.78848       98892.935       14226.896       3.8805000      -1.2737500     -0.31150000       341.42400       1.9022358     0.015090160
       1699.0000       288.72416       98891.785       14125.891       4.5582500     -0.95300010      0.81950000       341.63800       2.1300255     0.015335576
       1704.0000       288.68415       98891.114       14044.238       4.3575000     -0.43275000     -0.11975000       341.43800       1.9236346     0.017306915
       1709.0000       288.60933       98882.397       13926.058       4.4105000      -1.3095000      0.47400000       341.56500       2.1630425     0.012910579
       1714.0000       288.57654       98877.699       13855.622       4.2177500      0.44125000      0.84175000       341.58800       3.5454253     0.015230630
       1720.0000       288.60028       98878.342       13816.420       5.4512500      0.59725000      0.10450000       341.45600       2.4959653     0.018776910
       1725.0000       288.60040       98873.132       13794.538       4.6707500     -0.92125000      0.24200000       341.34500       3.6961562     0.022735952
       1730.0000       288.59979       98863.199       13793.989       2.9335000     -0.53950000      0.50125000       341.43600       2.2860949    0.0098400446
       1735.0000       288.59962       98856.266       13793.841       4.6810000   -0.0037500000     -0.15575000       341.43200       2.7359861     0.019640174
       1740.0000       288.60034       98845.211       13808.047       3.0660000     -0.17250000      0.51975000       341.39800       2.4349615     0.015842673
       1745.0000       288.60051       98842.082       13826.799       3.4915000       1.0290000      0.57175000       341.45800       4.0527799     0.015892895
       1750.0000       288.61130       98841.216       13860.257       2.7452500     -0.19100000     -0.11750000       341.61600       8.2266114     0.024293115
       1755.0000       288.59517       98846.709       13874.045       3.6480000     -0.22200000      0.55250000       341.49700       9.9691994     0.038628744
       1760.0000       288.54629       98860.771       13876.071       3.0755000     -0.80375000      0.44450000       341.36900       8.8453706     0.022895376
       1765.0000       288.54228       98871.416       13901.541       3.2927500      0.56200000     -0.49975000       341.45700       7.1990313     0.033832166
       1770.0000       288.53161       98890.912       13913.287       2.4182500      0.34550000     -0.38200000       341.49200       10.678861     0.024205371
       1775.0000       288.55389       98895.810       13958.729       2.9190000     -0.20000000    -0.065750000       341.59500       8.3855090     0.023399888
       1780.0000       288.65230       98891.995       14075.270       2.6892500      -1.0257500      0.43375000       341.45900       5.9905949     0.018462796
       1785.0000       288.66950       98890.761       14104.222       3.8747500      -1.3572500      0.10400000       341.57800       4.7744478     0.016709135
       1790.0000       288.65756       98880.486       14099.904       3.8532500      -2.3047500    -0.032000000       341.26600       2.9794294     0.016078024
       1795.0000       288.65163       98877.728       14104.830       3.8137500      -2.9027500    -0.074000000       341.17200       2.1853648     0.015598341
       1800.0000       288.59961       98881.474       14062.458       4.5880000      -2.3377500     -0.77900000       341.18200       2.1232357     0.018326308
       1805.0000       288.58536       98879.924       14045.581       5.0570000      -3.5060000     -0.20375000       341.28600       2.0922474     0.022985409
       1811.0000       288.60907       98877.497       14063.878       3.0202500      -1.8220000      0.48400000       341.38400       2.1771098     0.018136104
       1816.0000       288.59045       98871.795       14037.450       3.3755000     -0.80800000      0.45075000       341.42400       1.8474591     0.014563050
       1821.0000       288.55393       98860.810       13972.167       4.5205000      -1.1147500     -0.17200000       341.25400       1.9949153     0.010781201
       1826.0000       288.53402       98855.724       13948.401       3.9305000     -0.73250000     0.071000000       341.41700       2.0574204     0.019203728
       1831.0000       288.49774       98847.966       13920.618       3.8037500      -2.2435000      0.50250000       341.37000       1.9960756     0.013268614
       1836.0000       288.48684       98849.589       13919.022       3.8615000      -1.3025000      0.32325000       341.46000       3.3227485     0.013901724
       1841.0000       288.50934       98861.246       13960.297       3.1602500      -1.2842500      0.66800000       341.46100       2.7391221     0.014892297
       1846.0000       288.49078       98861.542       13952.742       3.5152500     -0.43275000      0.11150000       341.49300       2.0731230     0.022913936
       1851.0000       288.43555       98858.796       13912.329       2.3890000      -1.0257500     -0.22575000       341.35300       2.0770796     0.014676054
       1856.0000       288.45278       98862.604       13934.912       3.4587500      -2.5760000     -0.36775000       341.35800       2.1593867     0.016500040
       1861.0000       288.48929       98863.525       13962.711       4.1692500      -3.0502500      -1.1312500       341.27200       2.0739309     0.022762952
       1866.0000       288.51794       98867.252       14005.354       3.4222500      -1.1855000      0.24775000       341.42100       2.0959614     0.017426877
       1871.0000       288.61597       98883.921       14123.728       5.6617500      -1.6047500     -0.33225000       341.26300       2.0158371     0.018345672
       1876.0000       288.61920       98881.479       14147.318       5.6257500      -1.4947500      0.26500000       341.26100       2.2100128     0.025379126
       1881.0000       288.55337       98866.446       14123.342       5.9125000      -1.1657500      0.26625000       341.29900       2.0625489     0.018607789
       1886.0000       288.53312       98860.415       14110.596       3.6710000      -1.4170000     0.043000000       341.23000       2.0887961     0.015773375
       1891.0000       288.49669       98849.119       14062.109       6.9692500      -1.5745000    -0.091250000       341.16400       2.0180654     0.015802065
       1896.0000       288.48543       98845.695       14047.105       4.1070000      -2.1557500      0.38400000       341.25400       2.1750026     0.029162366
       1902.0000       288.49946       98849.309       14041.307       3.4432500      -1.9720000     -0.26000000       341.28500       2.0715751     0.019364871
       1907.0000       288.50023       98854.839       14044.670       5.8985000      -3.0910000     -0.46525000       341.19100       2.0807541     0.025534329
       1912.0000       288.50035       98859.727       14050.821       2.7055000     -0.11525000      0.70650010       341.36200       2.0325650     0.029324910
       1917.0000       288.50046       98865.851       14061.259       3.9825000      -1.3670000      0.68800000       341.28400       4.7210533     0.024232849
       1922.0000       288.50693       98874.931       14077.681       4.4455000      -2.0715000     0.020250000       341.31000       5.1148276     0.021069641
       1927.0000       288.48560       98882.900       14089.252       4.5142500      -2.7725000      0.69250010       341.22900       2.5312381     0.019526770
       1932.0000       288.44996       98890.711       14108.372       5.8297500      -1.5997500     -0.18750000       341.17600       2.1938429     0.027041916
       1937.0000       288.42969       98900.252       14116.637       4.2685000      -2.5110000    -0.031500000       341.32200       1.9719581     0.013157861
       1942.0000       288.39952       98902.883       14086.508       2.7812500      0.43600000      0.33475000       341.44200       2.1200505     0.019212408
       1947.0000       288.35494       98895.707       13969.000       3.1722500      -1.2137500      0.30150000       341.43300       1.9953360     0.017532009
       1952.0000       288.34381       98890.809       13919.538       3.4270000     -0.51025000      0.25125000       341.40400       2.0569701     0.020395238
       1957.0000       288.34492       98884.675       13890.220       3.3402500     -0.65050010      0.21625000       341.37700       1.8715537     0.010781068
       1962.0000       288.34360       98875.480       13854.098       5.5727500      0.63425000     -0.57200000       341.17800       2.5401797     0.017815282
       1967.0000       288.35543       98867.421       13859.067       5.6510000     -0.26325000     -0.53000000       341.19900       3.6133385     0.017089901
       1972.0000       288.40595       98858.448       13927.910       5.7720000       1.2902500       1.7450000       341.27700       2.5188928     0.020524095
       1977.0000       288.41461       98854.916       13946.363       4.0880000      -1.8467500     -0.59125000       341.41600       7.2679195     0.025573638
       1982.0000       288.40596       98857.272       13962.321       2.5400000      -2.2887500      0.15250000       341.46800       4.4598532     0.015600797
       1987.0000       288.36982       98876.496       13999.685       4.5632500      -1.7817500     -0.19225000       341.31600       2.4482452     0.021430451
       1993.0000       288.34607       98888.359       14001.713       5.3487500      -1.9587500     -0.89650010       341.20000       2.1156702     0.019717786
       1998.0000       288.29560       98897.469       13966.556       2.8682500      -2.5117500      0.29400000       341.37100       2.4387121     0.015076687
       2003.0000       288.28809       98903.118       13943.774       5.8712500     -0.49700000     -0.61325000       341.06000       2.1479993     0.021683575
       2008.0000       288.30368       98903.291       13869.118       3.8362500      -1.2705000     0.098000000       341.32500       2.4546704     0.015153939
       2013.0000       288.34631       98901.048       13858.734       4.7337500     -0.88075010     -0.14775000       341.17000       2.0284539     0.017965540
       2018.0000       288.45742       98899.153       13896.845       4.4795000      -1.0415000     -0.36950000       341.11900       1.9841854     0.013584719
       2023.0000       288.51640       98890.634       13930.476       3.8492500      -1.8107500     -0.13950000       341.22300       2.0421777     0.014857578
       2028.0000       288.59506       98866.989       14034.595       2.0967500     -0.77250000      0.64850000       341.47400       2.0033721     0.016049666
       2033.0000       288.62235       98856.208       14074.609       3.4350000      -2.0625000      0.11225000       341.36000       1.9122292     0.015472716
       2038.0000       288.56629       98843.294       14067.871       5.5085000      -2.3407500      0.17550000       341.16400       1.9693298     0.012926910
       2043.0000       288.54661       98841.170       14070.677       2.9330000      0.76950000    -0.034000000       341.50200       1.9535205    0.0098871884
       2048.0000       288.49449       98859.332       14021.542       3.2412500      -1.8805000     -0.63225000       341.35300       2.6761217     0.014598941
       2053.0000       288.48715       98867.197       14015.012       4.0612500     -0.43025000     0.030750000       341.29500       3.9223274     0.021545448
       2058.0000       288.53394       98874.716       14053.347       4.8490000      -1.3845000      0.36875000       341.39400       2.6347793     0.016068410
       2063.0000       288.55400       98882.804       14062.736       3.4202500      -2.7265000      0.47850000       341.32900       3.3154781     0.022804816
       2068.0000       288.59102       98890.048       14075.377       4.3175000      -2.6385000     -0.62000000       341.05500       1.9850253     0.013745582
       2073.0000       288.61023       98891.843       14081.888       4.2712500      -2.0800000   -0.0045000000       341.21400       2.0390161     0.020642873
       2078.0000       288.58607       98895.781       14037.573       3.6382500      -1.4762500      0.51125000       341.35000       2.0028304     0.014251899
       2084.0000       288.60131       98890.660       14055.668       3.7875000     -0.94300000      0.35250000       341.36900       1.8856576     0.011235743
       2089.0000       288.65093       98869.965       14135.412       5.1170000      -2.4445000     -0.28000000       341.34700       2.0047443     0.020708797
       2094.0000       288.65718       98860.777       14157.034       3.1267500    -0.015750000      0.57125000       341.34800       1.9646618     0.015572461
       2099.0000       288.65804       98849.108       14186.771       4.9665000     -0.72675000     -0.26250000       341.21500       2.2423423     0.016001248
       2104.0000       288.65417       98847.013       14195.353       5.0425000     -0.32550000     -0.34750000       341.12900       2.2865928     0.018406694
       2109.0000       288.60596       98854.092       14146.433       4.8352500     -0.37175000     -0.63925000       341.19200       2.4898854     0.014899208
       2114.0000       288.58977       98862.323       14125.301       6.1682500      -1.8217500     -0.37300000       341.23100       2.6676122     0.014984941
       2119.0000       288.60058       98880.933       14125.881       4.5815000    -0.097500000      0.45475000       341.18200       2.1677782     0.023355502
       2124.0000       288.60082       98890.267       14109.964       5.3350000      -2.5605000     -0.37625000       341.24300       2.0387420     0.011413602
       2129.0000       288.58732       98901.354       14064.595       3.9432500     -0.33525000      0.92750010       341.58000       2.0491910     0.018842923
       2134.0000       288.60115       98903.412       14057.731       2.5025000      -1.4457500      0.91250000       341.42500       1.9014711     0.018046670
       2139.0000       288.62406       98894.022       14044.810       4.3595000      -1.0042500    -0.019750000       341.28900       2.0417917     0.014941819
       2144.0000       288.65822       98888.541       14077.114       5.1562500      0.92150000     0.048500000       341.37500       1.9532431     0.015636690
       2149.0000       288.74593       98880.131       14190.378       4.3187500      0.16200000      0.19975000       341.40800       2.0042950     0.024858254
       2154.0000       288.76859       98872.112       14230.538       3.6367500      -1.2675000     -0.22050000       341.36400       1.9982592     0.017223155
       2159.0000       288.75626       98860.269       14252.303       5.7495000     -0.25425000     -0.19850000       341.26400       2.0864145     0.025997919
       2164.0000       288.75247       98857.293       14280.668       5.0955000     -0.57825010     -0.15725000       341.28300       2.1218483     0.028482108
       2170.0000       288.68932       98855.522       14255.084       5.3810000     -0.52350000     -0.47675000       341.38500       2.1695182     0.021647546
       2175.0000       288.69195       98861.636       14280.319       4.6662500      -2.1057500     -0.48925000       341.44100       2.0733163     0.024308893
       2180.0000       288.73095       98882.494       14354.153       4.6492500    -0.087750000     -0.12325000       341.43700       2.1258162     0.031991728
       2185.0000       288.76693       98891.131       14399.904       4.5470000     -0.34150000     -0.52550000       341.47700       2.0165491     0.019039134
       2190.0000       288.85184       98899.893       14473.030       4.2752500     -0.81300000    -0.067250010       341.58500       1.9921392     0.013786545
       2195.0000       288.86912       98903.942       14478.347       2.3627500      -1.0152500      0.49850000       341.87500       1.9656140     0.018553356
       2200.0000       288.84554       98905.894       14421.747       2.7857500      -1.0107500     -0.13025000       341.57200       1.8770281     0.011728409
       2205.0000       288.85567       98897.773       14424.758       3.0895000      -1.6547500     -0.24875000       341.46800       1.9587454     0.012141633
       2210.0000       288.84307       98878.884       14411.102       3.2140000      -1.1692500      0.43100000       341.67200       1.9675346     0.016505677
       2215.0000       288.84895       98868.810       14417.782       4.7710000      -3.1712500      0.27875000       341.31500       1.9890593     0.018285088
       2220.0000       288.89940       98847.339       14495.632       5.6717500      -1.8542500     -0.66975000       341.20000       2.1402403     0.033997266
       2225.0000       288.91303       98845.389       14504.834       4.1602500      -1.8792500      0.18975000       341.42800       2.1721995     0.017444212
       2230.0000       288.89947       98860.210       14473.417       3.7055000      -1.0252500      0.36825000       341.58400       2.1505348     0.032405710
       2235.0000       288.89919       98869.528       14448.226       5.4505000      -2.3512500    -0.064750000       341.34600       2.0301614     0.015672381
       2240.0000       288.87816       98888.234       14385.238       4.1065000      -1.0392500     -0.27225000       341.44300       1.9964434     0.016986967
       2245.0000       288.91102       98896.399       14379.836       6.4732500      -2.0710000     -0.10500000       341.34000       1.9269292     0.010546170
       2250.0000       288.98538       98902.289       14399.690       5.5567500      -2.7962500     -0.48975000       341.27000       1.9326311     0.010394507
       2255.0000       289.02542       98901.770       14411.772       5.8640000     -0.77300010     -0.29950000       341.22600       2.0482629     0.021748667
       2261.0000       289.10630       98893.742       14470.202       4.6787500      -2.9727500     -0.80500010       341.20400       1.9393131     0.012903245
       2266.0000       289.12838       98884.159       14480.436       3.0560000     -0.30200000      0.61850010       341.68600       2.1389802     0.029578547
       2271.0000       289.10953       98864.163       14452.525       4.5367500      -1.9135000    -0.081750010       341.39300       2.1359776     0.021885048
       2276.0000       289.09123       98859.666       14467.133       4.5497500      -2.0830000      0.95725010       341.59800       2.1345506     0.026935682
       2281.0000       289.05498       98857.454       14506.082       6.2470000    -0.033750000     -0.90925000       341.47500       2.1206207     0.025399346
       2286.0000       289.03479       98860.045       14497.647       3.7495000     -0.28300000       1.1017500       341.66200       2.1887166     0.032878748
       2291.0000       288.99762       98873.672       14500.232       5.7575000      -1.3840000     -0.39900000       341.10300       1.7012083     0.030168826
       2296.0000       288.98634       98881.778       14451.763       5.4837500      -1.6962500     -0.42375000       341.15100       1.9733336     0.022999747
       2301.0000       288.98228       98891.685       14319.826       4.7575000      -1.2322500     -0.31900000       341.68100       2.0555230     0.016014364
       2306.0000       289.01950       98893.125       14284.551       3.2975000     -0.73725000      0.61750000       341.46400       1.9604618     0.018471857
       2311.0000       289.06523       98892.595       14250.555       4.9987500      -1.9135000     -0.49375000       341.98000       2.0998360     0.033288446
       2316.0000       289.16066       98889.014       14283.856       4.5672500      -3.4640000    -0.089250010       341.57800       1.9960993     0.014045865
       2321.0000       289.35140       98877.206       14396.062       3.4502500      -3.0575000     -0.44450000       341.65100       1.8435409     0.020906840
       2326.0000       289.41507       98869.244       14472.353       5.1590000      -1.8647500     -0.21075000       341.25700       1.9159055     0.010921749
       2331.0000       289.44481       98858.148       14567.003       4.4110000      -1.8037500      0.48700000       341.66000       2.1176988     0.023179548
       2336.0000       289.49663       98858.656       14668.328       3.8885000     -0.24425000     -0.66350000       341.87600       2.0143958     0.022549843
       2341.0000       289.48979       98861.877       14781.899       4.0172500      -1.2275000     0.051750000       341.49400       1.9634643     0.015719948
       2346.0000       289.51822       98869.351       14860.683       3.4732500      0.28825000    -0.085750010       341.76400       2.1615940     0.031653260
       2352.0000       289.61924       98893.653       14974.313       3.5117500      -1.6560000     -0.21700000       342.28500       1.9247132     0.011618333
       2357.0000       289.54004       98895.856       14941.985       3.1442500     -0.87975000     0.044750000       342.20500       1.9895548     0.018033882
       2362.0000       289.53744       98893.532       14935.380       1.3860000      -1.6145000       1.1255000       342.77600       2.1235900     0.040341736
       2367.0000       289.55948       98885.056       14922.423       4.8855000     0.080500010      0.41750000       342.49600       2.0350185     0.016976507
       2372.0000       289.57923       98864.562       14884.305       3.0970000      0.85500000     -0.52300000       342.20800       1.9149048     0.013109170
       2377.0000       289.65432       98856.879       14867.819       3.8980000       1.7985000     -0.91100010       342.09900       1.9783930     0.016286763
       2382.0000       289.80590       98846.755       14853.082       3.5880000      0.21675000     0.020000000       342.09400       2.1208067     0.019389318
       2387.0000       289.90054       98856.475       14893.421       4.9795000      0.18525000     -0.43600000       341.43400       1.8294667     0.017058317
       2392.0000       289.96400       98864.274       14937.753       3.4790000       1.0962500      0.19925000       341.65900       2.1752083     0.027945193
       2397.0000       290.00025       98881.970       15072.091       5.3957500      0.68675010      0.19350000       341.95000       1.9519029     0.012701456
       2402.0000       290.01251       98892.261       15138.959       2.9305000       1.8337500      0.26225000       341.76000       1.9557660     0.010325284
       2407.0000       290.00019       98898.857       15172.587       4.6147500      -2.6295000      -1.4215000       341.21700       1.9051763     0.015795682
       2412.0000       289.95771       98903.762       15173.156       3.0902500     -0.28800000      0.94275000       342.96200       2.0684570     0.031651450
       2417.0000       289.91602       98899.070       15165.998       6.4957500      -1.2230000     -0.99275000       341.12600       2.1102757     0.029140092
       2422.0000       289.84400       98885.232       15107.925       3.8345000      -1.0887500     -0.37325000       341.69000       2.0747965     0.026226420
       2427.0000       289.84413       98873.101       15169.080       4.4215000     -0.58150010     -0.28375000       341.40400       1.9200801     0.018247153
       2432.0000       289.80519       98867.463       15153.808       3.0930000      0.39725000      0.12650000       341.98100       2.1113212     0.028424115
       2437.0000       289.72451       98873.340       15086.356       4.2002500     -0.58350000     -0.24875000       341.53500       1.9714924     0.010900911
       2443.0000       289.68885       98875.731       15036.967       3.6962500     -0.10175000     -0.58400010       342.04000       2.0205367     0.021546931
       2448.0000       289.66773       98883.726       14956.084       5.2292500     -0.15150000     -0.11375000       341.47000       1.9049946     0.014904043
       2453.0000       289.63907       98882.306       14875.608       2.7027500     0.074500000      0.88650010       342.37000       1.8487204     0.015953075
       2458.0000       289.65738       98870.427       14815.338       1.9782500      0.80450000       1.6652500       342.64500       2.0663465     0.020912621
       2463.0000       289.65617       98864.489       14761.326       4.5627500      0.98575000     -0.14800000       341.93200       2.0671638     0.021897194
       2468.0000       289.62414       98849.177       14679.016       3.8670000       1.0640000    -0.035250000       341.97800       1.9938606     0.010568245
       2473.0000       289.59388       98846.904       14617.046       4.2812500      0.31000000      0.16600000       341.49500       2.1112646     0.033105061
       2478.0000       289.57910       98857.841       14574.368       4.0022500      0.17200000     -0.36875000       341.76800       1.9439106     0.012042740
       2483.0000       289.54761       98866.124       14555.431       2.3522500     -0.48750000      0.55500000       342.52800       2.1123156     0.021819122
       2488.0000       289.46157       98887.230       14575.455       3.0247500     -0.55450000     -0.27375000       342.50100       1.9354294     0.014636905
       2493.0000       289.43443       98894.589       14555.189       2.9467500     -0.84575000      0.13025000       342.38300       2.2432647     0.029832298
       2498.0000       289.47232       98893.184       14523.600       4.2340000     -0.88075010     0.034500000       342.06300       2.0539954     0.020882808
       2503.0000       289.45091       98891.731       14516.668       1.8840000     -0.10850000      0.28225000       342.70600       1.9642583     0.018598531
       2508.0000       289.40731       98877.440       14473.851       4.1607500      0.44400000      0.38825000       342.66100       2.0428161     0.019318929
       2513.0000       289.39721       98872.765       14469.789       3.6712500      0.69875000      0.10950000       342.44000       2.0800267     0.019648496
       2518.0000       289.36775       98871.797       14554.877       4.5507500      0.91450010     -0.63875000       342.13900       2.2728906     0.037291813
       2523.0000       289.33899       98874.129       14574.395       2.8995000       1.2447500      0.31600000       342.58000       2.0130150     0.027923576
       2528.0000       289.38441       98886.228       14564.130       5.9465000      0.10450000      -1.5065000       342.05100       2.0236759     0.015930829
       2534.0000       289.35100       98893.049       14547.833       6.9277500      0.76700000      -1.3097500       341.82900       1.9014071     0.011571875
       2539.0000       289.22938       98901.862       14491.403       5.2382500     -0.92850010      0.22025000       341.84600       1.8629770     0.014234042
       2544.0000       289.17356       98902.400       14457.616       3.8962500      0.72300000      0.19625000       342.56700       2.1938799     0.023764131
       2549.0000       289.12353       98896.880       14445.152       6.4805000      -3.0030000      0.59775000       341.76400       2.1068431     0.026797780
       2554.0000       289.07740       98888.718       14407.988       7.0787500     -0.57600000      0.16525000       341.38800       1.9197465     0.011589363
       2559.0000       289.07513       98867.663       14356.694       6.0740000      -1.2397500      -1.1270000       341.39800       2.0771628     0.015580034
       2564.0000       289.04132       98861.225       14312.003       4.4110000       1.7457500     0.062500000       341.71500       2.0283527     0.016972027
       2569.0000       288.95337       98855.617       14232.998       5.2435000      0.73475000     -0.95550010       341.45800       2.2405766     0.036553422
       2574.0000       288.93038       98858.781       14206.375       4.8760000      0.66425000    -0.015500000       341.78100       1.9033837     0.017839070
       2579.0000       288.94338       98880.842       14212.054       5.8587500      0.73600010     -0.37050000       341.39000       1.9518097     0.012893873
       2584.0000       288.94731       98890.069       14221.285       5.4075000      0.17525000     -0.11475000       341.56600       2.0810734     0.021993384
       2589.0000       288.99569       98901.514       14263.229       4.7052500       1.7207500    -0.063500000       341.75300       2.0824314     0.013892439
       2594.0000       289.01188       98903.559       14299.285       5.5525000     -0.54975000     -0.25325000       341.61800       1.7955270     0.018955012
       2599.0000       288.98721       98896.415       14321.347       2.7462500     -0.22950000     -0.34250000       341.82400       2.1110023     0.025511940
       2604.0000       289.00117       98888.194       14379.168       2.6332500     -0.42650000     -0.79525010       341.54800       1.9086579     0.013629686
       2609.0000       289.05184       98865.707       14484.127       3.4620000     -0.48600000      0.27800000       341.57400       1.9771246     0.012826041
       2614.0000       289.05839       98860.506       14547.220       4.2345000     -0.84325000     -0.14150000       341.46700       2.1009908     0.022933268
       2619.0000       289.05658       98859.409       14627.463       4.7812500      -1.2762500     -0.15550000       341.48200       2.0775764     0.018726424
       2625.0000       289.05033       98866.634       14668.443       3.8102500     -0.14350000      0.27200000       341.58100       1.9860989     0.016171096
       2630.0000       288.98970       98896.142       14635.650       3.2342500      0.43800000    -0.070750010       341.77100       2.1633830     0.026359499
       2635.0000       288.99199       98901.489       14648.346       3.4662500     -0.41000000     -0.33825000       341.66600       2.0518296     0.018199864
       2640.0000       289.05273       98899.005       14680.100       1.8870000    0.0010000000      0.34125000       341.92500       1.9362539     0.019109603
       2645.0000       289.05642       98895.453       14671.624       4.1662500     -0.39675000    -0.087500010       341.49700       1.9734168     0.015557663
       2650.0000       289.03501       98873.138       14646.319       2.5622500      0.36550000      0.70650010       341.77400       2.0917840     0.019458079
       2655.0000       289.06150       98871.883       14646.165       3.3935000      -1.5565000      0.40700000       341.76700       1.9987231     0.017983675
       2660.0000       289.05188       98882.087       14605.468       4.0250000      -1.9362500     -0.34475000       341.63500       1.8965710     0.018814788
       2665.0000       289.12614       98888.358       14626.497       4.7597500     0.047750000     -0.12525000       341.49600       2.0846661     0.027889681
       2670.0000       289.33595       98905.610       14722.176       2.0105000      0.22925000     0.092500000       341.78300       2.0751265     0.019847279
       2675.0000       289.40653       98910.119       14766.930       4.1812500       1.2067500      -1.3615000       341.42000       2.0450915     0.023690956
       2680.0000       289.45697       98909.529       14798.819       6.7915000      0.72775010     0.023500000       341.35200       2.0435737     0.020178511
       2685.0000       289.47756       98903.890       14854.375       3.4992500       1.1845000      0.18900000       341.66200       2.1266071     0.026990306
       2690.0000       289.37957       98887.840       14891.378       5.0640000     -0.19950000     -0.67125000       341.31500       1.9052391    0.0079812879
       2695.0000       289.39884       98880.518       14973.956       4.1010000      0.96750000     -0.17775000       341.58600       1.9790607     0.019622687
       2700.0000       289.49688       98865.832       15141.303       5.7992500      0.33125000     -0.22125000       341.38900       2.0417344     0.018030387
       2705.0000       289.52073       98868.050       15200.236       4.1877500      0.67750000     -0.89575000       341.47500       2.0189507     0.024600767
       2711.0000       289.55144       98889.540       15232.109       3.0167500      -1.9120000     -0.51925000       341.68300       1.9752349     0.017152665
       2716.0000       289.57245       98895.602       15247.439       2.7780000      -1.1112500      0.20875000       341.91000       2.1687036     0.036742197
       2721.0000       289.53403       98908.672       15187.098       3.3642500     -0.79050000    -0.063500000       341.83900       2.1006392     0.021120226
       2726.0000       289.56096       98907.473       15184.215       3.9960000     -0.28950000     -0.17000000       341.74800       2.1429074     0.026472959
       2731.0000       289.64786       98893.918       15224.375       3.6982500      -1.1740000     -0.59600000       341.79700       2.0482027     0.020410303
       2736.0000       289.67906       98883.070       15211.881       2.3215000      -2.7367500      0.14650000       342.27500       2.0501766     0.014964396
       2741.0000       289.69377       98861.518       15172.507       2.5240000     -0.92725000     0.072750000       341.96000       1.9704365     0.015342725
       2746.0000       289.72391       98862.582       15156.143       2.0767500      -1.2957500   -0.0027500000       342.03200       2.0530272     0.027542318
       2751.0000       289.73781       98872.775       15127.033       2.8335000      -1.9002500     0.036000000       342.04600       2.0241541     0.014938431
       2756.0000       289.77647       98879.423       15114.761       3.5980000      -1.7162500     0.093250010       341.80100       2.0131137     0.015307278
       2761.0000       289.83084       98903.735       15110.209       1.2642500      -1.4080000      0.34625000       341.96700       2.0058578     0.013899703
       2766.0000       289.89889       98905.645       15136.448       4.2800000     -0.85250000      0.24425000       341.96600       2.0187594     0.020416415
       2771.0000       289.98426       98892.100       15152.215       3.9595000      -2.2925000     -0.17150000       341.81400       1.9894400     0.011373742
       2776.0000       290.05467       98886.099       15246.514       3.0565000      0.48475000      0.40950000       342.26900       2.1436606     0.024261020
       2781.0000       290.16009       98872.475       15435.825       3.8695000      -1.1255000     -0.26600000       341.73200       1.9964951     0.014302534
       2786.0000       290.18381       98873.886       15518.697       3.9357500   -0.0017500000      0.48650000       341.88100       2.0150970     0.019016866
       2791.0000       290.15673       98884.017       15617.580       3.1140000      0.12650000      0.51400000       342.18000       1.9694961     0.016928181
       2796.0000       290.14799       98888.857       15647.867       4.4427500      0.19575000     0.061250000       341.84500       2.0041121     0.016472076
       2802.0000       290.09423       98903.340       15589.393       2.6875000      0.11225000      0.36375000       342.39200       2.1545084     0.032912551
       2807.0000       290.10022       98898.942       15543.872       3.5077500      0.24525000      0.15800000       342.30900       2.0180737     0.016861889
       2812.0000       290.10020       98892.456       15498.216       4.3590000     -0.36600000      0.20950000       343.19500       1.9824323     0.016575743
       2817.0000       290.10012       98882.262       15440.697       3.2572500      0.20450000     -0.31675000       341.48700       1.9588302     0.014336690
       2822.0000       290.09973       98860.367       15353.032       4.2162500     -0.64875000     -0.58950000       341.83200       1.9528123     0.031998400
       2827.0000       290.09954       98865.425       15292.024       4.2470000     -0.71100000     -0.64575000       341.76800       1.9226251     0.012341442
       2832.0000       290.08849       98878.519       15219.883       2.2545000     -0.49775000      0.92750010       342.92000       1.8719266     0.017474098
       2837.0000       290.20564       98907.275       15315.330       4.6322500      0.61850010     -0.22075000       342.00900       1.7856357     0.017830637
       2842.0000       290.22057       98916.870       15324.177       2.9465000      0.80925010     -0.68425010       342.61600       2.0425803     0.016424459
       2847.0000       290.19471       98896.796       15333.353       5.0997500      -1.2930000      0.28675000       342.76800       1.9825160     0.018064542
       2852.0000       290.16843       98889.783       15343.931       3.6282500      0.24325000       1.1015000       342.26500       2.0329609     0.016609088
       2857.0000       290.10527       98884.006       15325.262       5.3017500       1.0167500     -0.32875000       341.70600       2.1123457     0.023195889
       2862.0000       289.93192       98870.619       15213.758       5.6297500      0.14500000    -0.060500000       341.97800       2.1341677     0.027132053
       2867.0000       289.88611       98875.648       15188.756       4.3127500      -1.4110000      0.28550000       341.83300       1.9902745     0.017074501
       2872.0000       289.90087       98895.992       15224.269       3.8712500      -1.3945000     -0.41375000       341.91700       2.0785670     0.018226002
       2877.0000       289.86930       98911.682       15145.133       3.8792500      -1.4067500     -0.15225000       342.50600       1.9890115     0.015855298
       2882.0000       289.84907       98914.636       15106.086       4.3507500      -1.8397500     0.040500000       342.25200       1.8586924     0.016467055
       2887.0000       289.81468       98893.659       15053.429       4.4665000      -1.2997500     -0.15350000       342.90900       1.9236184     0.013057575
       2893.0000       289.79100       98887.762       15031.576       4.3830000       1.4067500     0.030750000       343.13000       1.9016909     0.013144977
       2898.0000       289.84306       98882.898       15130.303       5.7542500      -1.3240000    -0.066000000       342.40100       1.9907136     0.012331223
       2903.0000       289.80990       98882.482       15113.021       6.4857500      -1.9835000     -0.38200000       342.01400       2.0549469     0.023242780
       2908.0000       289.70099       98902.173       15031.136       6.2320000      -1.5235000     -0.24200000       341.56700       2.0946615     0.019403469
       2913.0000       289.64114       98908.663       14967.891       6.4577500     -0.25525000     -0.18050000       341.71900       2.1241484     0.015206012
       2918.0000       289.53094       98910.056       14820.505       5.8220010     -0.32825000     -0.58500000       342.14000       2.0579514     0.012060190
       2923.0000       289.47421       98906.530       14726.943       4.3652500    -0.066750000      0.58525000       342.46900       2.1488626     0.022463380
       2928.0000       289.52786       98886.623       14711.305       4.8110000     -0.30425000      0.75550000       342.23300       1.9273004     0.011756422
       2933.0000       289.50563       98881.969       14644.707       6.9725000      0.12875000     -0.53875010       341.49800       2.0408817     0.020156280
       2938.0000       289.46027       98882.005       14555.189       6.4605000      -1.8510000    0.0092500000       341.71400       2.0913894     0.020822083
       2943.0000       289.39817       98883.486       14467.569       6.2212500     -0.35000000    -0.021750000       341.31400       1.9799483     0.013649507
       2948.0000       289.25279       98905.287       14355.976       3.9280000     -0.71800010     -0.30000000       341.96200       1.9944395     0.015397461
       2953.0000       289.17572       98909.513       14253.033       5.5927500     -0.39300000     -0.60450010       341.15100       1.9352007     0.011284474
       2958.0000       289.13405       98900.515       14157.658       5.3162500     0.034750000      0.88475010       341.58200       1.9106794     0.014410339
       2963.0000       289.08492       98895.282       14058.965       4.2962500     -0.48450000     -0.17225000       341.57900       2.0908902     0.020373048
       2968.0000       289.05131       98873.991       13908.793       5.4630000      0.77875010      0.32800000       341.38400       2.2601450     0.028407753
       2973.0000       289.04233       98870.725       13843.485       4.1247500    -0.050250000      0.16850000       341.58500       1.9599854     0.013664763
       2978.0000       289.04368       98886.482       13825.134       4.1107500      0.61850010      0.83800010       341.77400       1.9358230     0.014335603
       2984.0000       289.04670       98892.503       13823.898       2.1302500     -0.33275000      0.76800000       341.88600       2.0980669     0.022707267
       2989.0000       289.10828       98908.422       13921.721       4.4162500      -1.1675000     0.090750000       341.41700       2.0742577     0.021603778
       2994.0000       289.11114       98908.872       13955.529       5.5747500     0.093750010     0.081750010       341.57600       1.9239612     0.015437518
       2999.0000       289.04925       98888.384       13938.599       3.7257500      -1.4300000     -0.70900010       341.58900       2.0342364     0.019056930
       3004.0000       289.04297       98882.157       13976.639       4.5550000      -1.1570000     -0.30575000       341.30400       2.2132013     0.038502421
       3009.0000       289.05659       98871.860       14050.084       4.6615000      0.84500000      0.33625000       341.57400       1.9185483     0.012461536
       3014.0000       289.04668       98873.111       14078.434       4.5025000     -0.31725000     -0.38075000       341.65200       2.0101133     0.014156732
       3019.0000       289.05650       98895.338       14129.817       5.6477500     -0.38300000    -0.011750000       341.33600       2.0895621     0.017283418
       3024.0000       289.05292       98899.004       14143.290       4.7577500      0.15300000      0.54700010       341.58200       1.9338312     0.013232984
       3029.0000       289.00495       98898.622       14069.417       4.7735000      -1.4082500      0.24925000       341.44400       2.0550999     0.018533068
       3034.0000       288.98881       98896.099       14060.858       4.9715000     -0.81075010     -0.16075000       341.44200       1.9920510     0.014084627
       3039.0000       289.00062       98878.248       14095.627       5.5637500      -1.5135000     0.077250000       341.55400       2.0010839     0.012079746
       3044.0000       289.00085       98871.473       14095.376       3.1675000     -0.94225010      0.44275000       341.69800       1.9927896     0.012463198
       3049.0000       288.99991       98865.758       14101.811       5.3782500      -1.2135000    -0.055500000       341.45200       2.0796789     0.015011080
       3054.0000       288.99979       98869.735       14095.741       6.0732500     -0.81475000      0.11750000       341.46500       2.0061439     0.014565835
       3059.0000       289.01282       98890.861       14051.748       3.9157500    -0.034750000       1.2435000       341.84700       2.0832320     0.022643264
       3064.0000       288.99913       98893.438       14033.092       5.2672500      -1.2572500     0.079250000       341.61600       2.0674576     0.013149027
       3069.0000       288.97479       98889.220       14039.121       4.9142500      0.22750000      0.28775000       341.71800       2.0198239     0.016277170
       3075.0000       288.93313       98892.189       14018.597       7.0610000      -1.7637500      0.23400000       341.13100       1.9608186     0.015572442
       3080.0000       288.85904       98882.087       13993.731       5.5270000     -0.37625000    -0.094500010       341.18400       2.0401736     0.018041637
       3085.0000       288.82552       98884.132       13970.933       5.9482500     -0.55225000     0.036000000       341.31700       2.0592847     0.012519172
       3090.0000       288.80094       98907.843       13942.221       5.0642500     -0.87500010     -0.33350000       341.71600       2.1037267     0.022517334
       3095.0000       288.78729       98909.111       13906.606       4.9052500     -0.55725000     -0.56950000       341.34500       1.9584930     0.014787388
       3100.0000       288.79999       98898.758       13866.069       4.1387500      -1.1202500       1.0305000       341.39900       1.9440335     0.014329003
       3105.0000       288.80005       98892.556       13833.575       3.9947500       1.5042500      0.13125000       341.33900       2.0784119     0.021706854
       3110.0000       288.78853       98871.653       13773.485       5.8115000      0.13500000      0.62000000       341.30200       2.0907198     0.016814291
       3115.0000       288.80457       98871.867       13767.886       4.7892500      0.15300000      0.16325000       341.31100       2.0510465     0.019469296
       3120.0000       288.84215       98888.260       13794.981       3.5782500     -0.30950000      0.31850000       341.79300       2.0056075     0.013372724
       3125.0000       288.86206       98893.223       13828.678       5.2687500      0.43350000      0.34850000       341.17200       1.9694741     0.016677331
       3130.0000       288.89942       98909.508       13901.422       6.6547500      -1.3107500     -0.21250000       341.32100       1.9751660     0.014046437
       3135.0000       288.91303       98908.034       13954.278       5.0632500      0.78750000     -0.10950000       341.80900       1.9842299     0.014065690
       3140.0000       288.89996       98884.745       14015.904       5.8750000      -1.5925000      -1.2622500       341.52600       1.8401425     0.017795344
       3145.0000       288.89996       98882.370       14056.476       6.2405000     -0.23225000      0.81875000       341.51700       1.9784537     0.016634464
       3150.0000       288.90015       98882.207       14095.302       4.0490000     -0.22150000     -0.38050000       341.39800       2.0877295     0.028139793
       3155.0000       288.90031       98885.710       14109.295       4.8367500      0.84325000     0.048500000       341.48600       2.0926773     0.027148364
       3160.0000       288.91118       98907.835       14109.520       5.1170000      -2.0602500     -0.11250000       341.35200       2.1218233     0.030108007
       3166.0000       288.89032       98908.461       14075.311       3.7587500      -1.4305000      0.21575000       341.43500       2.0815011     0.019792558
       3171.0000       288.84493       98896.989       13996.498       3.0900000     -0.58425000     -0.15200000       341.72200       1.9420194     0.016301688
       3176.0000       288.84344       98892.226       13980.612       3.9262500      -1.4310000      0.38475000       341.67000       1.9385175     0.016244623
       3181.0000       288.84251       98876.718       13966.542       2.6135000      0.14650000      0.26875000       341.79600       2.0296160     0.022061520
       3186.0000       288.85161       98879.112       13968.259       2.4937500      -1.4652500      0.46400000       341.84800       1.9282875     0.015202283
       3191.0000       288.90270       98896.811       14011.842       2.9507500     -0.68225000     -0.14925000       341.97300       1.7173801     0.020297551
       3196.0000       288.91429       98897.268       14039.872       2.8485000      0.36050000      0.43600000       341.91100       2.0275922     0.016669707
       3201.0000       288.89998       98898.055       14060.795       1.8555000      0.19300000      0.91975000       342.06900       1.9792845     0.011322245
       3206.0000       288.90004       98893.597       14080.109       4.2025000      -1.4100000      0.26450000       341.26600       2.0706475     0.017252522
       3211.0000       288.90903       98871.273       14125.330       4.1685000     -0.11975000      0.62650000       341.54600       1.9700163     0.015306560
       3216.0000       288.89051       98873.406       14118.453       3.2712500     -0.36350000      0.60225000       341.79700       2.0697081     0.023793829
       3221.0000       288.84495       98888.901       14061.346       3.7950000     -0.13025000      0.71100000       341.67400       2.0162792     0.014609017
       3226.0000       288.84348       98893.908       14059.283       6.5262500     -0.31050000      0.46950000       341.45100       2.0184621     0.017044942
       3231.0000       288.83436       98909.324       14050.322       5.3195000     -0.67175000      0.33600000       341.44900       2.0169809     0.016885980
       3236.0000       288.86187       98906.188       14072.379       5.8700000     -0.75825010     -0.50450000       341.27000       1.9836757     0.015830805
       3241.0000       288.96826       98882.332       14163.212       3.3042500      0.50575000      0.49125000       341.79400       2.0782277     0.019492430
       3246.0000       288.96225       98882.694       14160.886       5.3820000     -0.45975000      0.16450000       341.56400       2.0167358     0.020095640
       3251.0000       288.91088       98888.891       14126.259       4.9295000      -1.1455000     -0.57675000       341.51000       2.0892360     0.022838199
       3257.0000       288.81500       98905.798       14025.101       4.8282500      0.27800000     0.074000000       341.23500       2.0412319     0.020488481
       3262.0000       288.78141       98909.675       13985.521       3.0492500     -0.94975010     -0.13925000       341.63300       2.2672907     0.025949692
       3267.0000       288.78474       98904.940       13973.967       3.0012500      -1.0922500       1.0642500       341.73600       2.0606048     0.016131895
       3272.0000       288.84881       98882.238       14001.452       3.3477500     -0.77250000     -0.23400000       341.67200       1.9518475     0.013281031
       3277.0000       288.86887       98883.869       13993.341       2.7695000      -1.2960000      0.33700000       341.72600       1.9499911     0.015396594
       3282.0000       288.90550       98888.193       14003.005       2.8315000      -1.3315000      0.30400000       341.53600       2.0317316     0.017556830
       3287.0000       288.87038       98910.233       13949.768       4.8620000      0.96525010     -0.21225000       341.85400       2.0044453     0.016368546
       3292.0000       288.88752       98915.461       13952.258       4.0842500    -0.057750000      0.23850000       341.74800       1.9340855    0.0097408498
       3297.0000       288.96059       98892.193       14016.519       3.9490000      -1.2375000   -0.0097500000       341.80700       2.0974415     0.024587713
       3302.0000       289.00040       98887.713       14067.174       3.0535000     -0.53725000      0.46275000       341.96700       1.9651218     0.011854088
       3307.0000       289.04022       98888.149       14128.829       3.9325000       1.4057500      0.35250000       341.78100       2.0965168     0.029464753
       3312.0000       289.11942       98887.404       14225.497       4.4900000     -0.57425000      0.18550000       341.46000       1.8677991     0.013352394
       3317.0000       289.11496       98892.046       14284.383       3.3887500     -0.24975000     -0.38050000       341.59700       1.8204994     0.015851425
       3322.0000       289.05538       98914.973       14331.854       4.5800000     0.022750000     -0.16550000       341.46200       2.0921062     0.021101098
       3327.0000       288.99886       98893.461       14365.115       5.0210000      -1.0760000     -0.30625000       341.79900       2.0086021     0.015558248
       3332.0000       288.94858       98887.900       14353.359       2.9200000     -0.82825010      0.17775000       341.63700       2.0253279     0.019896988
       3337.0000       288.86932       98885.292       14250.060       2.2132500     -0.57275000    -0.099250000       341.87700       2.0519080     0.022860879
       3343.0000       288.83387       98883.015       14182.090       4.5687500      -1.4420000     -0.72900000       341.80800       1.8840170     0.014891688
       3348.0000       288.84376       98901.737       14124.183       3.3305000     -0.17925000      0.11825000       341.89800       2.0136646     0.018214304
       3353.0000       288.84497       98904.049       14067.723       5.5522500      -1.3572500     -0.91925010       341.63700       1.9624349     0.011485494
       3358.0000       288.90486       98886.082       14047.110       6.2867500      -1.0282500      0.20475000       341.31100       1.9831959     0.012278531
       3363.0000       288.91215       98883.569       14007.154       4.2190000      -1.0377500      0.59025000       341.89500       1.9900041     0.015507121
       3368.0000       288.86568       98883.590       13924.717       4.1635000     -0.82850000      0.77975000       341.69400       1.9876352     0.012907134
       3373.0000       288.84536       98883.959       13883.817       3.3555000     -0.61925010      0.47500000       341.85900       1.8935917     0.017334781
       3378.0000       288.80958       98901.557       13864.587       2.8442500     -0.62325000     -0.16700000       341.82300       2.0587800     0.023546019
       3383.0000       288.79054       98903.957       13852.878       4.2505000      -1.4000000      0.15075000       341.73900       1.9766317     0.015972255
       3388.0000       288.80011       98885.870       13864.387       5.2350000     -0.22950000      0.64225000       341.89600       2.0569180     0.018535334
       3393.0000       288.80008       98883.294       13882.164       4.1287500      0.22725000      0.16875000       341.26900       1.8511823     0.018385811
       3398.0000       288.78573       98881.744       13897.187       3.5012500      -2.5190000     0.085250010       341.64900       1.9997201     0.016667491
       3403.0000       288.79725       98883.302       13937.727       6.0710000      0.68075000     0.021250000       341.28300       1.8073465     0.017779225
       3408.0000       288.84833       98906.461       14027.709       3.7815000      -1.4050000    -0.080250000       341.30900       2.0325537     0.021960144
       3413.0000       288.85713       98909.651       14078.226       4.9747500      -1.5222500      0.17950000       341.71600       2.0721960     0.020846946
       3418.0000       288.87025       98891.113       14146.505       3.8005000      -2.6802500     -0.63850000       341.68200       1.9540458     0.016170389
       3423.0000       288.85792       98888.208       14168.412       4.7357500      -1.0685000    -0.095500010       341.49600       2.0012324     0.018195113
       3428.0000       288.77498       98884.224       14121.383       3.5982500      -1.2227500      0.48500000       341.54700       2.1106951     0.024117601
       3434.0000       288.73054       98883.060       14097.105       4.3192500      -2.1867500     -0.12400000       341.50200       2.0350567     0.020971664
       3439.0000       288.70492       98902.573       14058.441       3.5015000    -0.066000000     -0.39850000       341.78500       1.9687718     0.017896391
       3444.0000       288.68857       98903.287       14034.777       4.9210000    -0.047500000    -0.094500010       341.55900       2.1238247     0.019977069
       3449.0000       288.71322       98883.763       14049.721       3.8030000     -0.89250000      0.14100000       341.92600       2.2917229     0.026648044
       3454.0000       288.69918       98883.269       14016.437       3.0787500      -1.6685000      0.59275000       341.70800       1.9418706     0.013561556
       3459.0000       288.64938       98887.170       13936.163       4.5112500      -1.5237500     -0.28750000       341.41500       2.0512021     0.027381569
       3464.0000       288.64326       98890.345       13904.413       4.1852500      0.45425000      0.13225000       341.69700       2.1420649     0.030692416
       3469.0000       288.64390       98913.579       13867.074       3.1180000     -0.70350000      0.88675000       341.65700       2.0420267     0.024169788
       3474.0000       288.64756       98914.795       13848.275       3.7980000      0.39775000      0.20725000       341.90700       2.1189441     0.021847230
       3479.0000       288.70825       98891.115       13894.703       4.6880000      0.39525000     -0.26675000       341.70400       1.9359209     0.012530218
       3484.0000       288.71091       98887.257       13888.080       5.5555000      -2.1500000    -0.096500000       341.43900       1.9538970     0.017344071
       3489.0000       288.64941       98881.978       13825.798       3.8040000      -1.1492500    -0.046500000       341.57300       2.1329952     0.031108601
       3494.0000       288.64329       98882.945       13822.326       5.6140000      -3.2052500     0.044750000       341.03400       2.0136676     0.011804163
       3499.0000       288.63097       98907.800       13814.195       4.6362500      -2.9212500    -0.061250000       341.42900       2.1051165     0.026576676
       3504.0000       288.64874       98909.237       13847.496       3.2680000      -3.1950000      0.16725000       341.67500       1.9153340     0.013156757
       3509.0000       288.70826       98890.324       13940.491       4.6502500      -3.0120000     -0.61725000       341.25400       2.0144192     0.016512732
       3514.0000       288.77207       98887.963       14024.728       5.8757500     -0.80750010      0.73425000       341.54800       1.9856894     0.018779278
       3519.0000       288.85901       98882.381       14124.763       2.4897500     -0.22875000      0.18775000       341.87400       1.8923521     0.013115271
       3525.0000       288.94235       98884.215       14246.754       4.7407500      -1.0947500     -0.44700000       341.22300       1.9721792     0.013442372
       3530.0000       289.05183       98908.527       14399.455       5.7437500     -0.73425000     -0.62750010       341.24900       2.0395284     0.015712441
       3535.0000       289.08335       98908.142       14457.310       3.2792500     -0.60175000      0.52950000       341.62200       1.9865211     0.016964028
       3540.0000       289.04642       98890.236       14473.969       2.8462500      -2.8030000      0.15550000       341.71100       2.0931818     0.020330805
       3545.0000       289.05644       98888.465       14482.423       3.8407500     -0.14375000      0.81800000       341.87300       2.0222494     0.022154919
       3550.0000       289.02085       98882.302       14401.402       4.8147500      0.61550000      0.23075000       341.42400       1.9495782     0.021872423
       3555.0000       289.05962       98884.421       14400.497       3.4322500      -1.0000000      0.28300000       341.91800       2.1988025     0.024467306
       3560.0000       289.20723       98908.927       14462.423       4.1420000       2.2412500    0.0040000000       341.68700       2.0795118     0.025551384
       3565.0000       289.22905       98908.713       14456.676       3.8130000       1.0920000      0.39125000       341.85300       2.1739762     0.028690655
       3570.0000       289.20293       98888.860       14444.345       3.5192500     -0.63525000      0.44425000       341.72900       1.9706874     0.012181035
       3575.0000       289.20650       98888.727       14417.794       3.3605000     0.023500000     -0.13625000       341.84300       2.1035102     0.024812210
       3580.0000       289.14252       98886.928       14334.261       4.8490000      0.55200000     -0.28975000       341.20900       2.0019247     0.022654247
       3585.0000       289.13554       98889.542       14295.839       5.9172500      -1.4622500     -0.31475000       341.41500       2.0557059     0.021520998
       3590.0000       289.17705       98914.353       14265.130       4.6437500      -1.1387500     0.077250000       341.39000       2.0951463     0.017795978
       3595.0000       289.22377       98913.371       14264.267       3.7845000     -0.11050000     -0.25675000       341.76600       2.1027110     0.023167198
       3600.0000       289.28573       98888.658       14277.778       4.8970000     -0.98425010   -0.0037500000       341.37100       2.1356682     0.029045023
       3605.0000       289.32589       98887.120       14315.422       3.4215000     -0.25750000     -0.36825000       341.88400       2.1137728     0.026779313
       3610.0000       289.39904       98888.607       14399.671       4.4565000       1.3365000     -0.33100000       341.65600       2.0358899     0.013131850
       3616.0000       289.42849       98890.189       14469.505       5.3157500      0.52275000      0.68550000       341.63100       1.9528474     0.012149611
       3621.0000       289.40952       98909.637       14550.467       6.8115010      0.40900000     -0.32200000       341.54600       2.1018037     0.018897174
       3626.0000       289.39121       98906.637       14577.203       5.1182500      0.71650000      0.36825000       341.62900       2.2490849     0.026478141
       3631.0000       289.34546       98882.562       14567.149       4.8335000     -0.20325000      0.29675000       341.34500       2.0097350     0.023214626
       3636.0000       289.34431       98882.923       14580.812       4.6347500      0.14775000      0.42075000       341.75400       1.9748257     0.014171300
       3641.0000       289.34373       98890.327       14577.973       4.7202500     -0.36575000      0.52350000       342.08400       2.0737156     0.018676570
       3646.0000       289.35258       98889.201       14576.193       3.2642500      0.57925000      0.51600000       342.20100       2.0222268     0.019065004
       3651.0000       289.40346       98895.578       14593.078       5.1725000      0.21050000     -0.12575000       341.47900       2.0054659     0.013952395
       3656.0000       289.41493       98897.797       14582.675       6.0977500       1.4620000     -0.29200000       341.35900       1.9559789     0.017653940
       3661.0000       289.39074       98887.781       14537.889       4.6262500     -0.14550000      0.85375010       342.05300       1.9780918     0.017844856
       3666.0000       289.40907       98890.256       14522.807       4.6022500     0.012750000    -0.048500000       342.08000       2.0807159     0.022802713
       3671.0000       289.43682       98909.297       14496.644       2.3220000     -0.14425000      0.35625000       342.99400       1.9849350     0.013740762
       3676.0000       289.47625       98905.940       14528.786       3.2677500      0.83675000       1.5517500       342.72300       1.9372909     0.012774158
       3681.0000       289.58387       98888.546       14620.590       3.9032500      0.83100000     0.044750000       342.13800       1.9791981     0.016219439
       3686.0000       289.53976       98889.192       14624.105       4.0012500      0.55150000    -0.081250000       341.61800       2.0369098     0.019334337
       3691.0000       289.41603       98887.682       14643.023       3.2160000     -0.77200000     -0.12025000       342.39700       1.9600828     0.012511686
       3696.0000       289.34739       98891.172       14594.545       3.1347500     -0.47625000      0.44200000       342.41800       1.9393753     0.012378884
       3701.0000       289.18759       98915.171       14441.863       2.5670000      0.17100000      0.28275000       342.71300       1.9348494     0.013825325
       3707.0000       289.18508       98892.428       14345.159       2.3155000     -0.48275000      0.11175000       343.08800       1.9107260     0.011620109
       3712.0000       289.19367       98888.003       14292.351       2.7190000     -0.28925000     -0.76600000       342.24000       1.9887934     0.025479635
       3717.0000       289.21454       98888.508       14261.786       4.1812500       2.9052500     0.018250000       342.03700       2.0230987     0.019758726
       3722.0000       289.24299       98889.506       14250.057       4.7450000      -1.4507500      0.58325000       341.74600       2.0499851     0.016234731
       3727.0000       289.28487       98887.707       14273.542       4.6945000      0.10100000      0.27525000       342.35200       2.0220382     0.014967993
       3732.0000       289.36179       98898.288       14335.937       2.7015000     -0.15325000      0.70025000       342.45900       2.0680233     0.023714653
       3737.0000       289.36909       98875.786       14403.106       2.9142500      0.50425000      0.51875000       342.81800       1.9302579     0.012961998
       3742.0000       289.36176       98870.673       14430.259       3.0182500     0.036000000     0.038500000       342.69900       1.8278802     0.014197200
       3747.0000       289.23987       98888.372       14375.130       1.8522500      0.84250000     -0.12025000       342.50800       1.9241541     0.015838304
       3752.0000       289.22521       98891.590       14378.818       2.7177500      -1.5097500      0.51950000       342.44500       2.0521123     0.022475878
       3757.0000       289.25976       98892.350       14400.646       3.7847500      -1.2807500     -0.87200000       341.65800       1.8771085     0.012611596
       3762.0000       289.33495       98897.056       14420.424       3.4277500      0.29675000     -0.12550000       342.19400       2.0283521     0.023089728
       3767.0000       289.40887       98898.824       14467.564       3.5185000      -1.5980000      0.74900000       342.27800       2.2701746     0.039063296
       3772.0000       289.57357       98887.741       14563.831       5.4472500     0.078250010     -0.48275000       341.23600       2.0340106     0.020143484
       3777.0000       289.55449       98906.327       14645.147       3.4042500      0.13500000      0.53275000       341.97800       2.0265571     0.017276451
       3782.0000       289.55562       98909.211       14695.251       3.7457500      0.20050000      0.42500000       342.31300       2.1303224     0.018538008
       3787.0000       289.51474       98890.680       14750.737       5.7652500     -0.77225010     -0.42075000       341.90900       2.0466541     0.017637542
       3792.0000       289.49405       98888.371       14773.373       3.6077500     -0.62075000     0.072500010       341.58300       1.9900523     0.020372581
       3798.0000       289.52862       98889.305       14731.952       3.5875000     -0.55200000      0.95350000       341.80400       1.9888546     0.012507478
       3803.0000       289.50642       98888.710       14706.955       4.3400000      -1.0382500     -0.46750000       342.06000       1.9988278     0.022294425
       3808.0000       289.43385       98906.100       14692.157       5.0945000    -0.083500010      0.19400000       341.84400       2.1549688     0.025923487
       3813.0000       289.39391       98909.345       14640.199       4.7697500    -0.087500010     0.023500000       341.73600       2.0903947     0.021743908
       3818.0000       289.36320       98890.225       14589.491       4.9935000    -0.014250000     -0.22900000       341.16300       2.0878164     0.025620036
       3823.0000       289.29160       98887.663       14497.451       5.9747510       1.6555000     -0.66625010       341.35800       1.9910157     0.013513126
       3828.0000       289.16751       98898.131       14317.027       4.7812500    -0.033500000      0.14450000       341.78300       2.2208552     0.034278907
       3833.0000       289.12874       98895.933       14195.165       6.0485000     0.090750000     0.036500000       341.55600       2.0946658     0.025235638
       3838.0000       289.09699       98889.484       14068.848       5.1057500      0.27325000     -0.23425000       341.54400       1.9062483     0.013116381
       3843.0000       289.08088       98890.491       13973.005       4.4270000      -1.5325000     -0.60675000       341.34400       2.0646070     0.015389618
       3848.0000       289.18106       98884.136       13905.505       2.6185000     -0.38800000      0.60325000       341.88600       2.0021289     0.018487426
       3853.0000       289.21830       98882.693       13868.980       3.0272500      -1.0540000      0.37525000       341.70300       2.0947925     0.021700372
       3858.0000       289.17210       98901.581       13834.110       2.7342500      -1.2027500     -0.16875000       342.05300       2.0423356     0.018953225
       3863.0000       289.19501       98903.869       13862.497       2.7350000      -1.6485000      0.37500000       342.07600       1.9784519     0.015913861
       3868.0000       289.26957       98884.205       13977.187       2.7277500     -0.92425010     -0.71550010       341.79700       1.9563932     0.014247816
       3873.0000       289.31008       98882.614       14069.161       1.3297500     -0.95800010     -0.27650000       342.40600       1.8988751     0.013946717
       3878.0000       289.38135       98892.602       14214.833       2.9052500     -0.88250010      0.82800010       342.36400       2.0565705     0.021132341
       3884.0000       289.42277       98889.917       14336.442       4.3397500      -1.9207500      0.78350000       342.20900       1.9869854     0.025621856
       3889.0000       289.38709       98889.168       14393.657       3.0332500     -0.44725000     0.092250000       342.22300       2.1737862     0.028109172
       3894.0000       289.40071       98891.786       14473.043       3.2345000     -0.97425000     0.010500000       341.94000       2.1460360     0.028815864
       3899.0000       289.46347       98883.433       14597.785       2.5987500     0.052000000    -0.050500000       342.18700       2.1580678     0.017522828
       3904.0000       289.45556       98882.994       14620.458       1.9125000     -0.52625000      0.48375000       342.51500       2.0271395     0.018234861
       3909.0000       289.40614       98901.154       14592.216       1.5090000     -0.41000000    -0.091250000       342.60200       2.0769182     0.024820570
       3914.0000       289.39642       98903.312       14565.693       3.1305000      -1.7882500     -0.32900000       341.63200       2.0266453     0.018402297
       3919.0000       289.34780       98888.691       14437.555       4.0940000      -1.7342500     -0.27725000       341.98000       2.0513909     0.020715906
       3924.0000       289.33469       98888.726       14379.803       3.5562500      -2.1500000      0.24350000       342.08200       1.9735345     0.017985730
       3929.0000       289.39507       98897.857       14371.193       2.4732500     -0.92625000     -0.65350000       342.13600       2.1541107     0.031688525
       3934.0000       289.41122       98895.114       14354.184       4.8797500      -1.1585000     -0.10075000       341.70400       2.0101743     0.025870179
       3939.0000       289.38687       98889.781       14322.466       4.5555000     -0.73250000     -0.26550000       341.14200       2.1373850     0.028768218
       3944.0000       289.40093       98890.680       14342.602       3.4082500      -1.8322500      0.13350000       341.96900       2.1519004     0.024627515
       3949.0000       289.43819       98883.820       14411.288       2.4747500     -0.51450000      0.40575000       342.38400       2.0784128     0.021008289
       3954.0000       289.45833       98883.307       14457.546       3.1357500    0.0095000010     -0.21450000       341.95900       2.0811851     0.022249395
       3959.0000       289.50832       98902.681       14554.376       4.4517500      -1.4602500    -0.024500000       341.38200       1.9598953     0.012322477
       3964.0000       289.51120       98903.503       14589.818       3.3947500      -2.1785000     -0.11950000       341.75500       2.0406116     0.016224662
       3969.0000       289.46200       98883.744       14570.662       3.0645000      -2.1082500     -0.40675000       341.88100       2.0255532     0.010864702
       3975.0000       289.43818       98883.834       14567.676       3.0085000      -1.3810000     -0.19500000       341.57300       1.8845433     0.013940214
       3980.0000       289.40087       98891.880       14538.094       3.3187500      -1.5985000    -0.026500000       341.97600       2.0277732     0.016434864
       3985.0000       289.38725       98889.316       14530.962       2.0552500      -1.5222500     -0.32975000       342.24100       2.2447720     0.031694494
       3990.0000       289.42373       98889.917       14553.437       2.5232500      -1.2330000     -0.46225000       342.03600       1.9593756     0.012494432
       3995.0000       289.39098       98892.196       14531.743       2.7652500      -1.9952500     -0.47350000       342.19700       2.0672280     0.023003357
       4000.0000       289.31596       98883.334       14492.480       4.0950000      -1.3497500     -0.73600010       342.36700       2.0014564     0.024062656
       4005.0000       289.27580       98883.780       14453.794       4.1782500      -2.5627500     -0.48025000       341.98900       2.0581667     0.022596523
       4010.0000       289.20097       98902.298       14391.137       3.8425000      -1.7592500    -0.012500000       342.27400       1.9153308     0.012430164
       4015.0000       289.17301       98903.247       14333.304       4.9215000      -2.6012500    -0.070500000       341.97400       2.1011469     0.026898176
       4020.0000       289.19983       98888.642       14270.704       2.8550000     -0.16300000     -0.61775000       342.43300       1.9623732     0.013051500
       4025.0000       289.19971       98889.531       14226.935       4.3582500     -0.67750000     -0.23850000       341.97200       2.0828865     0.022112023
       4030.0000       289.18817       98897.318       14150.256       2.4062500      0.26325000      0.23125000       342.59900       1.9252123     0.020941151
       4035.0000       289.20448       98893.976       14156.937       5.0727500       1.1357500     -0.63500010       341.68400       1.9349819     0.014408721
       4040.0000       289.26396       98889.777       14258.103       1.2785000     -0.44700000       1.0487500       342.74400       2.0325455     0.016509102
       4045.0000       289.25123       98890.827       14265.798       4.3737500      -1.0410000    -0.073750000       342.07600       1.9681546     0.016568686
       4050.0000       289.20284       98883.328       14263.107       3.2340000     -0.68625000      0.16025000       342.34400       2.0531642     0.024810978
       4055.0000       289.19262       98883.809       14276.681       2.5542500     0.028750000      0.96625010       342.33000       2.1175682     0.020498383
       4060.0000       289.14279       98903.328       14219.173       4.7155000     -0.97750000      0.52050000       342.08900       1.8400901     0.012842678
       4066.0000       289.13674       98901.410       14257.295       5.5402500     -0.89850000     -0.31575000       341.76700       2.0598522     0.017111293
       4071.0000       289.21203       98883.000       14404.480       5.3155000      -1.1380000    -0.073250000       341.82600       2.1022528     0.018957226
       4076.0000       289.20469       98884.475       14414.291       3.5977500      0.89350000      -1.2002500       341.60000       2.0931702     0.020996299
       4081.0000       289.14534       98891.064       14378.812       3.9257500      0.40400000    -0.073000010       341.65400       2.0482259     0.016771918
       4086.0000       289.14395       98888.177       14368.550       4.0400000     0.040500000      0.51025000       342.02500       2.0929119     0.023444072
       4091.0000       289.13457       98889.243       14291.004       3.3512500     -0.30075000     -0.24150000       342.06300       2.0198940     0.017106009
       4096.0000       289.16205       98893.273       14293.922       1.5095000     -0.25300000     -0.23425000       342.31100       1.9470670     0.013640798
       4101.0000       289.26782       98891.305       14372.572       3.4262500     -0.85675000      0.14925000       342.08100       1.8733878     0.012526902
       4106.0000       289.26200       98887.296       14384.364       3.0012500     -0.28650000     -0.28725000       341.88700       1.9547680     0.012515961
       4111.0000       289.21165       98892.309       14385.676       4.3515000      -1.2110000      0.10575000       341.87500       2.1078530     0.026711263
       4116.0000       289.18342       98890.708       14380.300       2.8147500      -1.7335000    -0.016750000       341.83900       1.9272374     0.017016387
       4121.0000       289.09372       98870.842       14360.781       2.9720000      -2.3852500      0.93725000       341.85200       2.0126114     0.016337102
       4126.0000       289.07146       98874.160       14318.078       2.2805000      0.37475000     -0.34475000       341.63700       2.0868913     0.022250812
       4131.0000       289.09999       98897.893       14252.059       4.0685000      -2.2245000      0.62975000       342.03400       1.9471182     0.013236457
       4136.0000       289.10005       98897.523       14219.578       4.2787500      -1.1622500     -0.47950000       342.09000       2.0150879     0.014328842
       4141.0000       289.09123       98889.062       14154.029       3.4562500      -2.6415000      0.76375000       341.92500       2.1407999     0.029004402
       4146.0000       289.10988       98891.906       14165.879       4.4810000      -2.4797500      0.90125010       341.93400       1.9664744     0.015849300
       4151.0000       289.15531       98891.111       14263.660       4.6390000      -2.3055000     -0.33325000       342.00700       2.1606355     0.033041441
       4157.0000       289.17029       98886.310       14290.616       3.5722500      -1.7732500     -0.43550000       341.87900       2.0686992     0.022113383
       4162.0000       289.16305       98890.280       14284.539       5.1840000      -3.0652500     -0.80875000       341.86200       1.8810847     0.015223569
       4167.0000       289.13117       98894.251       14244.060       4.7887500      -2.0722500      0.12925000       341.62500       1.9493294     0.018014460
       4172.0000       289.04497       98888.101       14132.988       3.8330000      -1.0635000      0.18375000       341.66400       1.8304786     0.010079460
       4177.0000       289.01615       98890.589       14087.342       2.9452500     -0.84925000     -0.45600000       341.88100       1.9526958     0.018698884
       4182.0000       288.99436       98908.956       14048.025       2.7277500      -2.2440000     -0.13975000       341.75700       2.1590855     0.029251352
       4187.0000       288.98527       98891.257       14012.391       2.8350000      0.19800000      0.21800000       341.87100       2.0192841     0.017145887
       4192.0000       288.99381       98887.604       13992.642       4.1337500      -1.4860000    -0.024000000       341.66500       1.9273185     0.011795259
       4197.0000       289.04537       98898.204       13960.263       3.9770000     -0.22600000     -0.67175000       342.04400       2.1498830     0.015428243
       4202.0000       289.05673       98896.444       13963.494       3.3610000     -0.39100000      0.78450010       341.91600       1.8918327     0.020379119
       4207.0000       289.05585       98892.226       13992.981       3.4002500      -1.0412500     -0.26775000       342.21400       1.9502380     0.016286827
       4212.0000       289.06378       98889.663       14076.400       3.4070000     -0.30750000     -0.14825000       342.25800       2.0201757     0.019473457
       4217.0000       289.03049       98892.676       14062.115       2.7247500       1.3080000     0.060500000       342.02200       1.9816307     0.014569653
       4222.0000       288.94465       98890.291       14040.587       2.9930000      -1.3332500       1.0417500       341.94900       2.1292873     0.027083337
       4227.0000       288.89992       98886.101       13922.211       4.6877500      -1.8925000     -0.40725000       341.62500       1.9301887     0.012189792
       4232.0000       288.88699       98890.019       13862.381       4.6667500      -1.6785000     -0.32050000       341.79500       1.9451989     0.019867600
       4237.0000       288.90033       98892.866       13834.553       2.6875000      -1.2237500      0.37400000       342.01700       2.1309263     0.026539600
       4242.0000       288.93769       98889.833       13834.659       4.8067500      -1.0922500     -0.26175000       341.65300       2.0542126     0.021549750
       4248.0000       289.05822       98893.188       13892.333       5.0150000      -1.5560000    -0.080500010       341.66200       1.9396192     0.020756256
       4253.0000       289.11659       98896.882       13941.059       4.0855000      -1.4420000     0.016250000       341.50200       1.9558587     0.012747095
       4258.0000       289.18047       98892.668       14008.166       3.2295000     -0.46550000    -0.040500000       341.91000       2.0594674     0.024425441
       4263.0000       289.21779       98888.750       14085.757       1.8885000      -1.0557500      0.76075010       342.12700       1.9154032     0.022246808
       4268.0000       289.21433       98892.857       14193.251       2.9667500      -1.1757500      0.43725000       341.90700       1.9025182     0.011905073
       4273.0000       289.20321       98891.540       14265.293       1.8892500      -2.3970000      0.94600000       342.12100       2.3775412     0.053629615
       4278.0000       289.13720       98873.048       14323.300       4.6125000      -3.8462500     -0.39975000       341.51800       1.9981536     0.014356519
       4283.0000       289.13903       98871.612       14389.466       5.4537500      -1.5130000     -0.14000000       341.60700       2.0515631     0.024496061
       4288.0000       289.22028       98890.567       14499.642       4.7512500      -1.8952500      0.28650000       341.64400       2.0904053     0.022732560
       4293.0000       289.20769       98892.157       14495.750       4.1570000      -2.0165000     -0.37050000       341.21700       2.0933066     0.011702800
       4298.0000       289.16654       98887.300       14411.718       3.3177500      -1.9545000      0.31225000       341.68600       1.9562383     0.012761869
       4303.0000       289.15516       98891.334       14363.477       2.2900000      -1.6837500    -0.045250000       341.76800       2.1608703     0.030648606
       4308.0000       289.06433       98889.365       14223.086       1.7375000      -1.1327500      0.17950000       341.75800       1.8442589     0.013395423
       4313.0000       289.02778       98888.714       14134.472       2.1225000      -1.2107500      0.40550000       342.15400       2.0153963     0.013454171
       4318.0000       289.07628       98902.883       14108.706       2.8530000      -1.3952500     0.061000000       341.81800       2.0534998     0.022631000
       4323.0000       289.10631       98908.389       14086.695       3.7325000      -1.0092500     -0.39200000       341.76400       2.0929525     0.028169620
       4328.0000       289.10598       98899.962       14019.373       3.6225000      -1.9632500      -1.1510000       341.40200       1.9590278     0.014714076
       4333.0000       289.14841       98899.308       14038.921       4.0305000      -1.2237500     -0.17875000       341.56100       2.0324620     0.014770662
       4339.0000       289.27105       98907.894       14180.463       3.3390000      -1.2235000      0.43500000       341.87300       1.9596209     0.012827268
       4344.0000       289.32711       98905.751       14261.854       3.4442500     -0.31150000      0.27125000       341.98600       1.9651196     0.020990955
       4349.0000       289.38935       98894.554       14377.410       3.8147500     -0.78800000     -0.47225000       341.62500       2.0074828     0.013638526
       4354.0000       289.42145       98894.316       14472.010       3.0657500     -0.88600000      0.16925000       342.19800       1.9664474     0.013213512
       4359.0000       289.42563       98898.542       14550.928       1.3885000      0.31400000      0.34925000       342.08800       2.0228224     0.020973743
       4364.0000       289.39803       98894.166       14601.252       2.6735000     -0.47650000      0.38125000       341.99600       1.9532167     0.015206329
       4369.0000       289.33576       98888.150       14686.518       2.8592500     -0.26125000     -0.15125000       341.96100       1.9158069     0.012492073
       4374.0000       289.28206       98890.457       14671.532       2.3795000    -0.081000000     0.073250000       342.17000       1.7298888     0.019256178
       4379.0000       289.15868       98891.529       14528.947       3.1202500    -0.050750000     0.071000000       341.69800       1.9203420     0.012259442
       4384.0000       289.12024       98888.981       14467.145       2.1375000      0.49425000     -0.15600000       341.97600       1.9597774     0.013950833
       4389.0000       289.11581       98893.250       14350.820       3.2435000     -0.53475000     -0.21250000       341.88400       1.7623085     0.016656143
       4394.0000       289.14794       98897.866       14320.128       3.3442500      0.30200000      0.19425000       342.04400       2.0307736     0.014692213
       4399.0000       289.29638       98894.480       14416.080       2.7920000     -0.84100000    0.0010000000       342.22300       2.0833391     0.022576090
       4404.0000       289.32500       98894.166       14411.889       3.3315000    -0.055000000      0.10850000       341.85900       2.1294529     0.021774548
       4409.0000       289.29969       98907.503       14397.845       3.3887500      -1.3370000    -0.087500010       341.80200       1.9403166     0.011586732
       4414.0000       289.30575       98907.656       14359.607       3.7707500     -0.82250010     0.025500000       341.81200       2.0730195     0.026224914
       4419.0000       289.22228       98890.665       14198.398       2.8695000      -1.0180000      0.32000000       342.05500       2.0610725     0.024511291
       4424.0000       289.23777       98887.926       14178.216       2.8995000      -1.3612500      0.51050000       342.32200       1.9990527     0.025437868
       4430.0000       289.37185       98891.221       14240.495       5.4292500      -2.8240000     0.095500010       341.70300       2.0910311     0.020437573
       4435.0000       289.44130       98889.266       14285.306       3.4087500     -0.13400000     -0.11375000       342.31800       2.0349351     0.016662438
       4440.0000       289.52786       98888.415       14381.261       3.7512500     -0.29000000     0.045500000       342.00800       2.1998350     0.031021963
       4445.0000       289.59166       98892.053       14497.910       3.2062500      -1.7115000     -0.54925000       341.56400       1.9524937     0.016485998
       4450.0000       289.64105       98897.524       14625.105       3.8197500      -1.4505000     -0.53075000       341.64400       2.0173050     0.014730249
       4455.0000       289.67521       98894.242       14743.566       3.2720000     -0.69425000      0.27475000       341.76200       2.0429041     0.018824836
       4460.0000       289.71120       98888.502       14953.247       3.9352500     -0.74125000      0.26850000       341.53200       1.9518423     0.011351302
       4465.0000       289.70935       98891.082       15032.717       2.0155000      -1.4202500      0.59525000       342.38800       1.9951404     0.017499512
       4470.0000       289.65834       98891.936       15039.304       3.6010000      -2.0672500      0.10200000       341.85300       2.0946263     0.022939940
       4475.0000       289.63872       98888.009       15012.173       2.2957500      -2.6017500     -0.14975000       342.28700       2.0639919     0.028665383
       4480.0000       289.57746       98888.808       14889.433       2.4785000     -0.48700000      0.20600000       342.33400       2.0136697     0.014915506
       4485.0000       289.59703       98892.782       14827.302       1.6727500      -2.4385000      0.77000000       342.51900       1.8726313     0.012034236
       4490.0000       289.69529       98890.817       14738.890       2.5202500      -3.1745000      0.58075000       341.78400       1.8681759     0.013383555
       4495.0000       289.71905       98888.401       14685.288       1.6975000      -2.5585000     -0.19600000       341.86800       1.9750447     0.011862987
       4500.0000       289.74458       98893.914       14662.038       1.5717500      -2.4010000       1.1347500       342.11400       2.1654129     0.030748287
       4505.0000       289.76814       98898.274       14648.521       1.9700000      -2.7055000     -0.72400000       341.65200       2.2217255     0.020321131
       4510.0000       289.73189       98896.476       14649.842       1.1997500      -2.5110000     -0.60450010       341.56800       2.0293003     0.018283125
       4516.0000       289.76203       98892.920       14651.837       2.4040000      -1.0207500      0.38325000       342.54500       1.8971144     0.011385570
       4521.0000       289.83101       98894.681       14654.879       3.5867500      -2.1337500    -0.035750000       342.06500       2.0507191     0.016878030
       4526.0000       289.89926       98897.644       14713.221       2.6917500      -2.4510000      0.34025000       341.79900       2.0612990     0.021548387
       4531.0000       290.00266       98895.881       14783.881       3.5490000     -0.78250000     -0.39825000       342.34900       1.8719227     0.013420794
       4536.0000       290.03532       98892.972       14889.027       2.3780000      0.29450000      0.31725000       343.07400       1.9998917     0.013813905
       4541.0000       290.06774       98895.415       15078.106       3.7152500     -0.65525000      0.10750000       343.09700       2.0990659     0.021107752
       4546.0000       290.05173       98896.603       15180.059       2.6090000     -0.83275000     0.025000000       342.85000       1.8722529     0.015901997
       4551.0000       289.96786       98888.477       15292.433       5.5440000     -0.73600010     -0.37675000       342.20800       1.9102206     0.012760167
       4556.0000       289.89918       98889.000       15288.360       4.5335000      0.48175000    -0.025750000       342.06000       1.9206405     0.010814749
       4561.0000       289.79609       98901.044       15207.124       4.1787500      0.63850000     0.085500000       341.89100       1.9945802     0.015165077
       4566.0000       289.76379       98903.350       15122.969       3.5537500     -0.48425000     0.095000010       342.78500       1.8573163     0.013820086
       4571.0000       289.74855       98900.299       14948.278       3.3625000     0.097000000      0.33225000       342.35000       1.8759610     0.012349575
       4576.0000       289.72758       98900.265       14837.193       3.5372500      0.26425000     -0.49750000       342.36500       1.9049606     0.013488873
       4581.0000       289.74791       98903.026       14726.172       2.0522500    -0.032750000      0.26925000       342.85700       1.9586213     0.013731524
       4586.0000       289.75803       98897.389       14655.175       2.6745000     -0.49075000     -0.39000000       342.32000       2.0993284     0.024362715
       4591.0000       289.75230       98882.633       14612.582       3.5362500    -0.074000000     -0.21700000       341.60700       2.0179159     0.017687661
       4596.0000       289.74221       98884.127       14556.854       2.8612500      -1.5862500      0.49550000       342.80700       1.9461881     0.010804830
       4601.0000       289.76594       98891.485       14535.217       1.9690000     -0.99000010      0.58000000       342.72000       1.8933203     0.013556989
       4607.0000       289.68524       98886.279       14413.332       2.6180000      0.28000000      0.81350000       343.17500       1.9462779     0.014937932
       4612.0000       289.64443       98890.261       14354.449       1.8525000     -0.54900000      0.63500010       343.04200       1.8405519     0.016245800
       4617.0000       289.61596       98894.271       14316.753       3.1522500     -0.61400000     -0.47400000       342.55000       1.9341784     0.013598919
       4622.0000       289.60107       98890.093       14287.915       4.8260000      0.77975000     -0.32475000       341.48200       1.9235781     0.017079085
       4627.0000       289.57109       98886.132       14282.885       3.8570000     -0.34325000      0.28625000       342.48900       2.0253769     0.013376496
       4632.0000       289.56243       98890.049       14332.946       2.3887500      -1.2270000    -0.091000010       342.72100       2.0178896     0.015578303
       4637.0000       289.45393       98894.452       14265.032       2.7172500   -0.0042500000      0.25000000       342.66100       1.9325491     0.012778134
