MIRICO/SHELL project - Processed LDS file generated on
Sun Jul 23 23:50:57 2017
Time stamp for record start
05/12/2017  12:01:14.0000
Nb of points in the record
         918
Beam position index
       4.0000000
Beam angle (degrees)
    -0.040000000
Open Path length (m)
       98.010000
****************** Temporal data record ************************
Elapsedtime_sec Temp_K Press_Pa Humidity_ppmv WindX_m/s WindY_m/s WindZ_m/s Speedofsound_m/s CH4vmr_ppmv CH4vmrerror_ppmv  
      0.00000000       287.83724       98877.638       14123.168       3.9542500     -0.87425010      0.57500000       341.01000       1.8912717     0.012219378
       5.0000131       287.81311       98867.755       14066.607       4.0190000      -1.1805000      0.61675000       341.23000       1.9007760     0.010428009
       9.9999860       287.85202       98855.204       14022.686       3.7650000     -0.72400000     -0.15250000       341.14600       1.8987091    0.0098835089
       14.999999       287.84218       98850.002       13955.956       4.3107500      0.23625000      0.42700000       341.07000       1.9035582     0.010290008
       20.000012       287.85719       98841.283       13901.698       4.2400000      0.17725000    -0.039250000       341.07500       1.9122699     0.010303008
       25.000025       287.84866       98845.364       13845.818       3.5547500      -1.1460000      0.34450000       341.34100       1.8875621     0.011155087
       29.999998       287.78829       98864.129       13740.442       2.9317500     -0.28000000     -0.54150000       340.95200       1.8923855    0.0099987495
       35.000011       287.79616       98871.304       13725.788       3.6202500     -0.45400000     -0.15575000       341.14300       2.0500214     0.010884511
       40.000024       287.84578       98881.877       13769.905       3.8775000      -1.4640000     -0.19425000       341.04600       1.9053855    0.0098366015
       44.999997       287.86581       98883.378       13791.826       4.6295000      -1.9492500      -1.4012500       341.11300       1.9173901     0.010566102
       50.000010       287.91157       98874.703       13854.779       3.4812500     -0.74900000    -0.023000000       341.04500       1.9036569     0.010947610
       56.000018       287.85507       98876.387       13843.472       4.1592500      0.39725000     -0.42675000       341.13100       1.8828166     0.012906696
       60.999991       287.84394       98875.427       13854.631       4.0927500      0.54150000    0.0025000000       341.07400       1.9151869     0.010375321
       66.000004       287.84504       98874.439       13872.600       3.7367500      0.14925000     -0.34750000       340.97600       1.9215887    0.0094821536
       71.000017       287.84275       98877.511       13892.492       2.3750000    -0.087500010      0.32750000       341.19800       1.9480611    0.0096242959
       75.999990       287.85442       98872.069       13902.305       4.0630000     -0.37975000      0.24250000       341.18000       1.8839919     0.011784970
       81.000003       287.90603       98858.365       13931.786       3.0205000      -1.6117500     0.079500000       341.22600       1.9012664     0.011533180
       86.000016       287.88544       98857.879       13886.923       6.7145000     -0.52850000     -0.31625000       340.84900       1.9205001     0.010746952
       90.999989       287.89407       98858.468       13873.584       5.8645000      -1.6830000      0.87575010       341.00200       1.8833735     0.011520137
       96.000002       287.91533       98867.350       13857.907       5.4115000       1.4260000     -0.10800000       340.91100       1.8833170     0.010727894
       101.00002       287.94402       98875.255       13867.975       6.9927500     -0.10650000      0.27775000       340.74300       1.9115925     0.010144867
       105.99999       288.03035       98884.811       13943.640       6.8437500      0.26325000      -1.0295000       340.85900       1.9012794     0.010461166
       111.00000       288.06283       98890.886       13974.988       5.2792500      0.21075000       1.2655000       340.89400       1.8893420     0.011147973
       116.00001       288.07073       98895.725       13992.775       6.1655000      -1.3032500     -0.32300000       340.80200       1.9231576    0.0096698584
       120.99999       288.05736       98902.999       14006.256       4.8737500      -1.7825000      0.17750000       340.86400       1.9033284     0.011105665
       126.00000       288.04572       98900.470       14017.482       5.3152500      -2.0060000      0.15425000       340.87600       1.9420811     0.010120234
       131.00001       287.98792       98890.997       13990.025       5.8335000      -1.1837500     -0.25825000       340.89700       1.9382070    0.0096775378
       135.99999       288.04581       98883.258       14068.247       4.6510000      -1.9130000     -0.44225000       340.82400       1.8904054     0.011516705
       141.00000       288.05772       98875.219       14101.925       4.6347500      -1.8302500    0.0060000000       340.83700       1.9190712     0.010791495
       147.00001       288.04210       98864.272       14113.861       4.6800000     -0.36675000     -0.44275000       340.96800       1.9212370     0.010541488
       152.00002       288.05202       98858.377       14137.408       4.9637500     -0.18625000      0.79500000       340.98400       1.8933459     0.011007137
       156.99999       288.02819       98849.267       14113.479       4.4137500      -1.1240000     0.076750000       341.03300       1.9359449    0.0097731430
       162.00001       288.04095       98847.850       14142.058       3.5230000     -0.87325010      0.42625000       341.02400       1.9349383    0.0093499956
       167.00002       288.12414       98855.836       14242.905       5.1482500      -1.0600000     -0.36625000       340.82400       1.9032138     0.010597108
       171.99999       288.16318       98861.038       14300.386       4.4645000     -0.13100000     -0.59525000       340.89000       1.8833426     0.010481763
       177.00001       288.19044       98868.997       14370.367       4.3502500      -1.2230000      0.43225000       341.06800       1.9104132    0.0092736938
       182.00002       288.20944       98876.987       14411.106       6.0070000      0.70375000     -0.41375000       340.92400       1.9201093    0.0096433394
       186.99999       288.17160       98886.294       14373.384       3.9367500       1.4575000      0.38375000       341.07300       1.9050852     0.010351152
       192.00000       288.19408       98892.141       14404.231       2.5780000     -0.76625000      0.25450000       341.08600       1.8929175     0.010983335
       197.00002       288.28241       98901.095       14475.743       3.5172500       1.1785000     -0.41550000       341.18200       1.9225095     0.010208152
       201.99999       288.31103       98902.540       14525.624       3.0197500      -1.1037500      0.40575000       341.08500       1.8806209     0.012425345
       207.00000       288.37680       98894.994       14665.185       2.7915000      -2.1280000      0.11775000       341.13000       1.8873817     0.010534828
       212.00002       288.37168       98889.791       14688.459       4.4170000      -1.2145000      0.16350000       340.94700       1.9152490     0.011699121
       216.99999       288.22866       98881.800       14580.659       3.6170000     -0.82150010      0.25400000       341.14600       1.8761894     0.013756299
       222.00000       288.18106       98873.779       14545.262       4.6367500      -1.0565000      0.21750000       341.29100       1.8688107     0.012425071
       227.00002       288.14016       98865.734       14471.329       5.1087500     -0.54525000      0.24875000       340.82600       1.9131711    0.0097086588
       238.00000       288.24630       98846.312       14497.351       3.6737500     -0.29375000      0.30875000       341.05600       1.9135484    0.0095726299
       243.00001       288.26864       98842.496       14484.686       2.7105000     -0.75525000      0.26850000       341.25400       1.9201241     0.010728942
       248.00002       288.25816       98841.968       14424.160       1.9410000      -1.5105000      0.56250000       341.23200       1.8871225     0.012119146
       253.00000       288.25428       98845.219       14387.037       2.5552500      -1.2715000      0.22000000       341.32200       1.8698804     0.012014343
       258.00001       288.21799       98855.930       14323.234       1.5917500     -0.86200000      0.33725000       341.40000       1.9103335    0.0099693812
       263.00002       288.18767       98862.904       14285.460       4.9605000      -1.2085000      0.41725000       341.06700       1.9121117     0.010261685
       267.99999       288.17390       98870.600       14281.898       2.1812500      -2.0765000      0.72150000       341.46700       1.9100930     0.011731736
       273.00001       288.14010       98878.576       14256.546       3.5155000      -2.5137500    -0.024000000       341.28500       1.9033918     0.010214673
       278.00002       288.05337       98890.203       14215.624       1.6027500      -2.0120000      0.47575000       341.30900       1.8841705     0.010397798
       282.99999       288.03112       98893.061       14194.388       2.2810000      0.18275000      0.14700000       341.38900       1.9297711     0.010567005
       288.00001       288.02973       98891.675       14158.870       3.5067500     -0.11525000     0.063750010       341.45400       1.8989921     0.011682615
       293.00002       288.04682       98890.966       14162.564       4.0840000      -1.0937500      0.22675000       341.18500       1.8869380    0.0099962090
       297.99999       288.14547       98881.405       14227.105       2.9480000      -1.0997500      0.23700000       341.38400       1.8930911     0.010155082
       303.00001       288.16786       98878.208       14237.593       3.1382500     -0.93225000      0.14825000       341.41500       1.9137647     0.010437573
       308.00002       288.15695       98881.550       14250.267      -65.536000      -65.536000      -65.536000       307.23200       1.8903647    0.0099700879
       312.99999       288.15350       98880.156       14242.822       3.3770000      -1.4707500     -0.85050000       341.36800       1.8400047     0.015689066
       318.00001       288.09193       98878.918       14170.806       2.2245000      -1.2155000     0.062250000       341.16800       1.9042197     0.010351985
       323.00002       288.08901       98874.179       14150.928       2.5197500     -0.49700000   -0.0072500000       341.54000       1.8850832     0.010693076
       329.00003       288.13091       98863.144       14157.714       3.0562500      -1.7370000      0.59350000       341.40400       1.8921188     0.012108621
       334.00000       288.16694       98856.210       14159.914       2.1450000     -0.15850000    -0.076250000       341.80500       1.8935102     0.010789701
       339.00001       288.24106       98845.171       14182.632       6.3975010      -1.7402500     0.040750000       341.23600       1.9109708     0.010035419
       344.00003       288.27496       98842.072       14192.177       4.2747500     -0.70525000      0.68750010       341.46000       1.8580758     0.012823889
       349.00000       288.27715       98844.639       14175.693      -65.536000      -65.536000      -65.536000       307.23200       1.8961721     0.012851809
       354.00001       288.32387       98845.316       14207.107       3.5140000      -2.0825000      0.39050000       341.35800       1.8742970     0.013265796
       359.00002       288.37426       98847.969       14256.994       3.9942500     -0.64175000     -0.96325000       340.89800       1.8447841     0.014880904
       364.00000       288.43044       98852.585       14319.203       3.6082500     -0.78050010     -0.13175000       341.30400       1.9129785     0.011064672
       369.00001       288.55275       98857.704       14424.621       2.8622500      -1.4415000      0.16075000       341.44600       1.8892554     0.012192779
       374.00002       288.58367       98863.353       14503.344       2.6225000     -0.57400000     -0.30150000       341.43800       1.8994300     0.010969758
       379.00000       288.54582       98874.432       14570.219       3.8765000      -1.8442500     -0.33850000       341.34500       1.9090422     0.010582904
       384.00001       288.55565       98879.173       14653.389       3.3610000     -0.89100000    -0.037250000       341.20100       1.8864428     0.010792331
       389.00002       288.54273       98880.368       14764.152       3.4865000      -1.3452500     -0.19550000       341.26500       1.9121824     0.010295461
       394.00000       288.54954       98881.782       14818.895       5.2707500      -2.0392500      0.17675000       341.13300       1.8997856     0.011217245
       399.00001       288.61010       98880.384       14880.739       3.0140000     -0.90400000      0.34600000       341.56800       1.9090222     0.010502992
       404.00002       288.60787       98880.427       14877.575       5.3857500      -1.0475000     -0.21750000       341.21300       1.8974577     0.011171985
       408.99999       288.55722       98880.243       14788.731       4.4882500      0.11300000     -0.72000000       341.33000       1.9083317     0.010761119
       414.00001       288.53717       98880.243       14741.666       2.8510000     -0.65775000      0.91750000       341.53200       1.9050119     0.010261073
       420.00002       288.49722       98880.449       14667.793       4.5937500    -0.049000000      0.28300000       341.43100       1.9300133    0.0094184179
       424.99999       288.48611       98880.542       14613.090       3.4567500      -1.3382500     -0.83725010       341.21800       1.8823827     0.011430383
       430.00000       288.49968       98881.169       14569.807       3.9022500     -0.63025000     0.010000000       341.28100       1.8414710     0.016419884
       435.00001       288.49956       98879.285       14519.004       3.1117500      -1.0450000     -0.16250000       341.46700       1.9060113    0.0099251158
       439.99999       288.49148       98877.392       14439.995       5.2502500     -0.77625010      0.20100000       340.92900       1.8948756     0.010980559
       445.00000       288.51044       98871.604       14429.531       7.0207510      -1.4525000     -0.53675000       341.29000       1.9128402     0.010851595
       450.00001       288.54684       98858.844       14448.179       4.1452500     -0.93675010    0.0015000000       341.51600       1.8955941     0.010946534
       454.99999       288.56689       98857.467       14477.636       4.4910000      -1.9645000     -0.50100000       340.77400       1.9223594    0.0096225679
       460.00000       288.61197       98861.657       14561.577       4.5935000      -2.0210000      0.48275000       341.23000       1.8876496     0.011892070
       465.00001       288.60430       98857.834       14598.944       4.0430000      -2.1417500    -0.052250000       341.02700       1.8840176     0.013090446
       470.00003       288.55393       98857.273       14621.597       4.3867500      -1.9690000     -0.22500000       341.13400       1.8824106     0.012711452
       475.00000       288.53402       98853.625       14652.200       3.6475000     -0.63175000      0.64500000       341.46100       1.8877144     0.011973681
       480.00001       288.48774       98838.528       14674.145       3.8300000      -1.7977500      0.23875000       341.69300       1.8787895     0.010416403
       485.00002       288.49552       98837.095       14703.780       4.3080000      0.67775010      0.71200000       341.64300       1.8987411     0.011304081
       490.00000       288.53785       98844.952       14763.009       4.7557500     -0.88975010      0.41300000       341.59800       1.9007171     0.010556332
       495.00001       288.57716       98847.000       14749.974       3.6407500     0.011000000      0.41250000       341.18900       1.9019606     0.010439784
       500.00002       288.64146       98848.758       14691.834       4.0975000     -0.32475000      0.46925000       341.41200       1.8982437     0.011374074
       505.99999       288.68538       98856.522       14603.472       2.9845000      -1.4737500      0.63950000       341.45300       1.9184993     0.010147129
       511.00000       288.74372       98860.587       14590.820       3.5670000      -1.4907500     -0.14475000       341.48700       1.9064548     0.010771434
       516.00002       288.81434       98864.666       14625.969       3.1775000      -2.3117500     -0.25800000       341.27000       1.9075033     0.010726094
       520.99999       288.90703       98870.896       14751.246       2.5222500      -1.8390000      0.88150010       341.86300       1.8805390     0.011836278
       526.00000       288.97988       98874.747       14811.385       5.2770000      -2.8367500     -0.25325000       341.24300       1.9037724     0.014588691
       531.00002       288.95795       98875.271       14751.407       3.6612500      -1.5622500      0.27925000       341.63300       1.9014713     0.012138233
       535.99999       288.98829       98878.615       14759.590       4.3427500     -0.60850000     -0.45225000       341.75900       1.8960342     0.011187793
       541.00000       289.01829       98880.675       14767.870       3.6365000      -1.4612500      0.54650000       341.60800       1.9035433     0.011503852
       546.00002       289.04796       98880.277       14776.427       4.0277500      -1.0167500     -0.15925000       340.80900       1.8708935     0.012591386
       550.99999       289.07731       98880.241       14784.834       2.4015000      -1.6412500      0.34825000       341.22000       1.9345384     0.012074915
       556.00000       289.10632       98880.394       14793.119       2.7027500      0.16750000     0.048500000       341.53900       1.8868896    0.0094873330
       561.00001       289.13501       98880.465       14801.324       2.7875000     -0.23725000      0.12500000       342.17700       1.9003366     0.010323634
       565.99999       289.16336       98880.563       14809.433       2.7307500      -1.4062500    -0.076750000       342.10400       1.8939591     0.010544119
       571.00000       289.19139       98880.295       14817.508       4.7705000      -1.8105000     -0.13300000       341.34700       1.8880671     0.011140653
       576.00001       289.21909       98880.255       14825.457       2.6400000      -2.0350000     0.010000000       342.17400       1.8949968    0.0096700027
       580.99999       289.24646       98880.087       14833.338       3.4897500      -2.1172500    -0.097500000       341.56900       1.8886799     0.011334421
       586.00000       289.27350       98884.600       14840.417       3.3247500      -2.1590000     -0.61975000       341.97800       1.9168933    0.0093029287
       591.00001       289.30021       98881.995       14848.493       3.2822500      -2.0700000     -0.85000000       341.72300       1.8963659    0.0097669120
       597.00002       289.33183       98867.123       14859.864       3.7372500      -1.8180000     -0.70125000       341.76400       1.8863862     0.010122377
       601.99999       289.35781       98863.352       14867.932       4.7827500     -0.86975000     -0.48950000       342.09300       1.8690893    0.0094260409
       607.00001       289.38347       98859.882       14875.871       3.4617500      -1.7885000      0.73150000       342.58500       1.8576581     0.011242232
       612.00002       289.40880       98858.317       14883.436       4.5947500      -1.8435000     -0.15725000       341.32400       1.8965647     0.010537728
       616.99999       289.43379       98870.995       14888.742       4.0280000      -1.5085000       1.0082500       342.60200       1.8823350    0.0094435797
       622.00001       289.45846       98872.450       14895.681       3.9470000      -2.2817500      0.32000000       342.52700       1.9265899    0.0097458618
       627.00002       289.48280       98864.690       14903.948       2.7717500      -1.9342500      0.28850000       341.93500       1.9133967    0.0084664128
       631.99999       289.50681       98859.502       14911.744       3.7745000      -1.8892500       1.0372500       342.58200       1.8768110     0.010103860
       637.00000       289.53050       98843.222       14921.161       4.1787500      -1.9110000     -0.27700000       341.68900       1.9208411    0.0094723218
       642.00002       289.55385       98842.095       14928.179       4.8082500      -1.4440000     -0.27625000       341.84700       1.8826494    0.0090298131
       646.99999       289.57687       98854.881       14932.988       3.5535000      -3.4177500      0.17625000       340.82100       1.8950595     0.010309960
       652.00000       289.59957       98860.947       14938.749       4.3707500      -2.6680000     -0.28050000       340.83700       1.8934276     0.010069121
       657.00002       289.62193       98882.229       14942.100       3.4847500      -2.4800000      0.22125000       341.98300       1.9165787    0.0093529046
       661.99999       289.64397       98885.165       14948.189       3.7002500      -3.1472500     -0.12375000       340.89000       1.9264937    0.0091187155
       667.00000       289.66567       98865.337       14957.698       3.6690000      -2.6242500    0.0080000000       340.94800       1.8801554    0.0099420513
       672.00002       289.68705       98858.462       14965.147       2.4012500      -2.1755000     0.060250000       342.13600       1.9042397    0.0088073521
       676.99999       289.70810       98847.540       14973.148       3.2525000      -2.8660000     -0.46225000       341.29000       1.8912360    0.0098925158
       682.00000       289.72882       98841.950       14980.258       2.3152500      -1.9855000    0.0040000000       341.34700       1.9224567    0.0097833741
       688.00001       289.75324       98849.896       14986.442       3.2722500      -2.1295000      0.31950000       342.31800       1.8774279    0.0093895921
       693.00002       289.77324       98851.556       14992.281       4.2190000      -1.5060000     -0.47625000       341.86600       1.9379997    0.0095803209
       698.00000       289.79290       98850.304       14998.499       2.3507500     -0.64800000       1.1210000       343.09800       1.9295615    0.0084861558
       703.00001       289.81224       98850.282       15004.460       3.5122500      -3.2730000       1.0735000       342.87500       1.9046126     0.010082306
       708.00002       289.83125       98850.244       15010.355       4.7600000      -1.8437500     -0.24275000       341.42800       1.8974891    0.0099137645
       713.00000       289.84992       98850.266       15016.173       2.3717500      -2.5090000      0.24050000       342.18000       1.9091204    0.0095614141
       718.00001       289.86827       98847.803       15022.308       3.4655000       1.1902500      0.41400000       342.70400       1.8943834     0.010522346
       723.00002       289.88629       98850.550       15027.573       3.2260000     -0.56725000     -0.16675000       341.99400       1.8601157     0.013724159
       727.99999       289.90398       98860.397       15031.677       5.2232500      -2.3555000     -0.18375000       341.66700       1.9258637     0.010378265
       733.00001       289.92134       98861.563       15037.056       3.7395000     -0.52050000     -0.16550000       341.83100       1.8897145    0.0094666063
       738.00002       289.93837       98861.777       15042.518       3.8570000      -1.3890000     -0.80650000       341.50000       1.9088430    0.0096421197
       742.99999       289.95508       98861.086       15048.056       3.7947500     -0.99275000    -0.018000000       341.34100       1.9100668     0.010683478
       748.00001       289.97145       98847.157       15055.577       3.1352500     -0.50250000    -0.089000000       342.22900       1.9247730     0.010199694
       753.00002       289.98749       98848.048       15060.747       2.8147500     -0.11375000     -0.51850000       342.36600       1.9170104     0.011285332
       757.99999       290.00321       98862.921       15063.692       3.4807500     -0.74275000      0.33750000       341.82000       1.8959894     0.011100076
       763.00001       290.01859       98867.553       15068.159       3.4985000      0.20425000     -0.53300010       341.96100       1.9244357     0.010990383
       768.00002       290.03365       98873.705       15072.329       3.1235000     -0.41100000    -0.045000000       341.47800       1.8785940     0.011033590
       772.99999       290.04838       98878.009       15076.726       2.2355000      -1.2480000      0.25175000       343.13000       1.8868956     0.011175717
       779.00000       290.06561       98874.478       15083.269       3.4860000     -0.34250000    -0.083750000       342.01000       1.9109069     0.012317384
       784.00001       290.07962       98875.080       15088.108       3.9957500      -2.4895000     -0.92425010       341.66600       1.9260336     0.011053550
       789.00003       290.09329       98880.230       15092.184       4.8282500     -0.56425010     -0.28575000       342.35200       1.9285433     0.010331382
       794.00000       290.10663       98881.575       15096.792       3.8027500     -0.46825000      0.28150000       342.34400       1.9480610     0.010809668
       799.00001       290.11965       98880.353       15101.740       3.9145000      0.44225000      0.28275000       342.96000       1.8813246     0.011841293
       804.00002       290.13233       98880.396       15106.435       4.1467500     -0.25325000      0.91800000       343.03100       1.9422516     0.010950836
       809.00000       290.14469       98880.243       15111.104       4.1265000     -0.58725010     -0.51800000       341.52800       1.9718285     0.010721063
       814.00001       290.15672       98880.243       15115.693       3.1667500     0.018000000      0.56950000       342.03900       1.8568157     0.014165040
       819.00002       290.16842       98880.306       15120.217       2.6197500     -0.31500000      0.90150000       343.13500       1.8854100     0.012336958
       824.00000       290.17979       98880.306       15124.695       1.6460000      0.43075000      0.81200000       343.55400       1.9232310     0.010582740
       829.00001       290.19082       98880.119       15129.147       4.0095000      0.52425000     -0.23625000       341.71900       1.9246487     0.010261954
       834.00002       290.20154       98880.060       15133.525       4.1325000      0.44075000     -0.29750000       342.01800       1.9045070     0.011676381
       839.00000       290.21192       98880.306       15137.801       2.4545000      0.20200000    -0.038000000       343.30800       1.9081067     0.011160899
       844.00001       290.22197       98880.306       15142.062       2.2597500      0.24075000      0.35200000       343.23100       1.8932497     0.011740245
       849.00002       290.23169       98880.353       15146.262       2.4675000      0.34225000     -0.66475000       342.70800       1.9408086     0.010070840
       853.99999       290.24108       98880.396       15150.409       4.2645000     -0.11050000      0.45050000       342.46300       1.9395965     0.010421916
       859.00001       290.25015       98880.303       15154.525       3.5595000      -1.5930000      0.70800000       342.14100       1.9492263    0.0099403414
       864.00002       290.25888       98880.276       15158.577       2.7405000     -0.76225010     -0.37900000       342.04000       1.9301210    0.0097925723
       869.99999       290.26893       98878.438       15163.652       3.7045000     -0.26400000      -1.0670000       341.64900       1.9165982     0.010186392
       875.00000       290.27694       98882.118       15167.012       2.4135000     -0.98250010      0.35875000       341.80200       1.9061578    0.0098230427
       880.00001       290.28462       98891.188       15169.481       4.5005000       1.1240000       1.0787500       341.76600       1.9464615    0.0095734810
       884.99999       290.29198       98891.425       15173.273       3.7370000    -0.073250000    -0.072750000       341.57700       1.8640521     0.014522705
       890.00000       290.29900       98889.744       15177.313       4.2202500     -0.75200000    -0.021000000       341.57000       1.9318862    0.0097050365
       895.00001       290.30569       98891.758       15180.725       3.5975000      0.90750000     -0.31925000       342.05400       1.9489064    0.0092279253
       899.99999       290.31206       98890.667       15184.570       1.6112500     0.092250000      0.36075000       342.68600       1.9486007    0.0092834497
       905.00000       290.31809       98888.665       15188.507       2.3302500      0.95350000      0.40925000       342.36200       1.8957543     0.010690325
       910.00001       290.32380       98891.604       15191.621       3.7202500     -0.89850000     -0.27975000       341.68400       1.9346529    0.0089684586
       915.00003       290.32918       98889.814       15195.423       3.0587500      -1.4095000      0.17850000       342.16000       1.8986869     0.012158093
       920.00000       290.33423       98879.540       15200.498       3.7665000     -0.39100000    -0.044250000       342.04500       1.9448975    0.0094188945
       925.00001       290.33894       98877.249       15204.277       3.1100000      -1.2530000      0.30200000       342.34900       1.9503504    0.0095236748
       930.00003       290.34333       98880.306       15207.171       3.8360000     -0.52775000      0.20950000       341.79500       1.9553799    0.0085088500
       935.00000       290.34739       98880.306       15210.491       3.1055000      -2.0072500      0.56375000       341.83400       1.9655762    0.0090682955
       940.00001       290.35113       98878.864       15213.986       3.6252500      -1.4772500     -0.11800000       342.10700       1.9282643    0.0095449090
       945.00002       290.35453       98882.783       15216.593       3.8297500      -1.3952500      0.41775000       341.86900       1.9681542    0.0089713550
       950.00000       290.35760       98889.479       15218.716       3.5130000     -0.10900000      0.14425000       341.78600       1.9375945     0.010182574
       955.00001       290.36034       98893.443       15221.215       3.5480000      -1.8100000      0.18350000       341.92000       1.9358020    0.0096307637
       961.00002       290.36320       98902.773       15223.431       2.5822500     -0.59925000      0.17700000       342.16900       1.9341954    0.0095208035
       965.99999       290.36522       98900.273       15226.829       2.7802500     -0.69300000     -0.19475000       342.20000       1.9191063     0.010418617
       971.00000       290.36691       98890.592       15231.298       2.1392500     -0.17200000      0.39350000       342.41400       1.9596202     0.010309607
       976.00002       290.36827       98886.642       15234.821       2.4732500     -0.91650000      0.11450000       342.30900       1.9667321     0.010647924
       980.99999       290.36930       98879.271       15238.829       2.7925000      -2.0065000      0.39875000       342.02300       1.9499979    0.0093094584
       986.00000       290.37000       98880.243       15241.481       4.4952500      -2.6795000      0.40450000       342.21000       1.9622870     0.010544798
       991.00002       290.37038       98880.243       15244.234       2.9047500     -0.68675010     -0.36175000       341.88400       1.9452354    0.0089994609
       995.99999       290.37042       98880.395       15246.912       3.9352500     -0.37325000      0.10125000       341.85900       1.9257398     0.010751716
       1001.0000       290.37014       98880.466       15249.551       3.5457500      -2.2605000      0.92650000       342.11300       1.9493460     0.010751751
       1006.0000       290.36952       98880.306       15252.174       5.6657510      -1.8485000      0.13075000       341.68500       1.9235950    0.0095532035
       1011.0000       290.36858       98880.306       15254.721       4.5895000      -2.1760000     -0.13850000       341.82100       1.9232482     0.011439556
       1016.0000       290.36730       98880.306       15257.216       4.5807500      -1.7600000      0.42300000       341.46700       1.8954354     0.010418490
       1021.0000       290.36570       98880.452       15259.635       6.1557500      -2.5952500     -0.33000000       341.20600       1.9734560     0.011633949
       1026.0000       290.36377       98880.511       15262.016       5.9690000      -1.6750000     -0.21850000       341.32600       1.8878469     0.011314695
       1031.0000       290.36151       98879.123       15264.571       4.5812500      -1.8637500     -0.40825000       341.18100       1.9496275     0.010254569
       1036.0000       290.35892       98889.319       15265.257       4.4630000      -1.4010000       1.2342500       341.77400       1.9643461    0.0096236810
       1041.0000       290.35600       98891.662       15267.120       3.9797500     -0.65575000     -0.35675000       341.86600       1.9821791     0.010700848
       1046.0000       290.35275       98891.256       15269.361       4.5510000      -1.6015000      0.15025000       341.45700       1.9518615     0.010436180
       1052.0000       290.34842       98891.195       15271.911       4.7577500      -1.6302500     -0.71900000       341.42200       1.9406697     0.012412127
       1057.0000       290.34445       98882.406       15275.347       3.8660000     -0.90525010     -0.38400000       341.62200       1.9502469     0.011927379
       1062.0000       290.34014       98878.785       15277.918       4.9472500     -0.24000000     -0.46325000       341.66000       1.9018902     0.012496933
       1067.0000       290.33551       98880.371       15279.618       4.7847500      -1.2880000    -0.032000000       341.37800       1.9669126    0.0094531295
       1072.0000       290.33055       98880.408       15281.504       2.0902500      -1.4630000      0.76250000       341.94600       1.9406369    0.0096132261
       1077.0000       290.32526       98880.243       15283.367       5.4845000      -3.5747500     -0.30000000       341.43900       1.9475570     0.010965308
       1082.0000       290.31964       98880.243       15285.147       2.4777500    -0.014750000     -0.34450000       341.78900       1.9445578     0.011170546
       1087.0000       290.31370       98880.407       15286.845       3.8002500      -1.3812500       1.3955000       342.12800       1.9392377     0.012074080
       1092.0000       290.30742       98880.484       15288.499       3.7150000      -2.2957500     -0.52225000       341.59700       1.9387251     0.010088884
       1097.0000       290.30081       98880.306       15290.135       5.6890000      -2.6852500     0.069000010       341.86200       1.9526769     0.011355100
       1102.0000       290.29388       98880.306       15291.685       3.2315000      -2.1365000     -0.23000000       341.59000       1.9108031     0.010856651
       1107.0000       290.28661       98880.405       15293.161       4.5380000      -2.9065000       1.0902500       341.91000       1.9185372    0.0099846684
       1112.0000       290.27902       98880.464       15294.584       3.4207500     -0.36600000      0.53475000       341.90700       1.9025727     0.010797445
       1117.0000       290.27109       98880.370       15295.971       4.9232500      -2.2705000     -0.24200000       341.13200       1.8783676     0.012750527
       1122.0000       290.26284       98880.408       15297.278       2.5802500      -1.7400000      0.24375000       342.43100       1.9378051     0.010315086
       1127.0000       290.25426       98881.654       15298.333       3.7335000      -2.2670000      0.73750000       341.52100       1.9222811     0.011652588
       1132.0000       290.24535       98880.549       15299.697       2.9062500      -1.1725000    -0.016000000       342.38200       1.9318045     0.010177200
       1138.0000       290.23422       98876.534       15301.673       3.4400000     -0.88875000     0.057750000       342.10000       1.9087482     0.011179321
       1143.0000       290.22459       98874.579       15303.033       3.8112500      -2.4127500    -0.058500000       341.89400       1.8880717     0.012400778
       1148.0000       290.21462       98874.898       15303.972       3.3335000     -0.42200000      0.27325000       342.15100       1.9240228     0.011047258
       1153.0000       290.20433       98869.141       15305.802       5.3960000      -2.0882500      0.62225000       341.84700       1.9427463     0.010388379
       1158.0000       290.19371       98857.442       15308.501       5.1362500      -4.2807500    -0.051250000       341.65600       1.9257114     0.010571725
       1163.0000       290.18275       98852.740       15310.036       3.1700000      -3.6065000     0.039000000       341.45200       2.0561025     0.013416303
       1168.0000       290.17147       98845.415       15311.917       2.8027500      -2.5587500      0.94475010       341.69800       1.9533534    0.0091448072
       1173.0000       290.15986       98842.475       15313.042       3.2137500      -3.4730000     -0.81425010       341.59300       1.9409990     0.010243971
       1178.0000       290.14792       98849.914       15312.467       3.1695000      -2.3202500      0.39775000       341.90700       1.9269948    0.0097915241
       1183.0000       290.13565       98851.564       15312.734       5.1200000      -2.4807500    -0.030750000       341.41000       1.9530304    0.0092056864
       1188.0000       290.12306       98851.536       15313.196       4.1972500      -1.4985000      0.43650000       341.74800       1.9179412     0.010419865
       1193.0000       290.11013       98850.165       15313.800       4.7307500      -1.7427500     -0.55575000       341.61500       1.9311224     0.010641005
       1198.0000       290.09687       98846.572       15314.683       3.4447500      -1.8282500      -1.1705000       341.77800       1.9540397    0.0095507194
       1203.0000       290.08329       98844.575       15315.243       3.7267500      -1.4205000      0.42200000       342.10800       1.9898529     0.012108896
       1208.0000       290.06937       98841.036       15315.975       4.8112500      -1.0170000      0.70300000       342.02500       1.9722735     0.011140807
       1213.0000       290.05513       98839.486       15316.320       3.6995000     -0.46025000     0.086250010       342.15100       2.2773276     0.010869229
       1218.0000       290.04055       98838.877       15316.444       6.1262500     -0.76725010     -0.25675000       341.92700       2.8005549     0.014166892
       1223.0000       290.02565       98840.192       15316.191       6.5337510     -0.76225010     -0.69725000       341.38900       3.2377624     0.010949463
       1229.0000       290.00733       98844.561       15315.349       5.3600000     -0.97750000     0.052000000       341.55900       2.6164089     0.011287089
       1234.0000       289.99170       98846.576       15314.819       3.9772500      0.40375000     -0.81900010       341.50000       2.2770182     0.010344220
       1239.0000       289.97575       98846.672       15314.513       4.4675000      0.62250000    -0.010250000       341.57100       3.5375435     0.012985166
       1244.0000       289.95946       98852.959       15313.156       5.1192500      0.47425000     -0.65400000       341.30300       4.4905295     0.016759006
       1249.0000       289.94285       98862.741       15311.171       4.8207500     0.033500000     -0.65775000       341.54200       3.8471539     0.013040413
       1254.0000       289.92590       98868.683       15309.710       5.5987500     -0.70500000      0.27400000       341.92900       3.1229477     0.012192325
       1259.0000       289.90863       98877.799       15307.669       3.5572500      0.67450000    -0.086250010       342.71700       2.2592577     0.014128043
       1264.0000       289.89103       98885.143       15305.826       4.2930000     -0.50150000     -0.22325000       342.27300       3.6865694     0.012809007
       1269.0000       289.98989       98891.015       15401.221       4.1447500     -0.32975000       1.2117500       341.62600       3.2063335     0.014165063
       1274.0000       289.98834       98891.746       15399.202       5.5370000      -3.1190000     -0.30275000       341.30700       2.2271418     0.012063970
       1279.0000       290.15722       98889.514       15611.431       5.3542500      -1.8197500      0.38100000       342.11100       1.9298471     0.012773491
       1284.0000       290.15104       98891.529       15592.279       5.3900000     -0.34850000     -0.17475000       341.99700       1.9960279     0.011747603
       1289.0000       290.10073       98891.118       15497.750       3.9267500      -1.6022500     0.021250000       341.90500       2.0325454     0.010047042
       1294.0000       290.08697       98889.175       15432.774       4.9792500      -1.3900000     -0.35675000       341.49200       1.9491303     0.010572940
       1299.0000       290.12200       98889.415       15406.713       3.3482500    -0.070000000      0.45400000       342.30300       1.9489041     0.010676335
       1304.0000       290.08934       98891.402       15318.946       3.5260000     -0.75125000     -0.52175000       342.26900       2.0045954     0.011711937
       1309.0000       290.01459       98891.066       15168.748       3.9585000      -1.0750000      0.97550000       342.22500       2.0983162     0.012315941
       1314.0000       289.97448       98889.024       15066.337       4.1550000      -1.0597500     -0.56800000       341.39500       1.9682623     0.011520318
       1320.0000       289.90321       98891.856       14940.463       3.5120000     -0.99100010     -0.29975000       342.75400       1.9160070     0.010673982
       1325.0000       289.86235       98890.157       14846.611       2.8397500      -1.0322500      0.23850000       342.80500       2.5374993     0.011907485
       1330.0000       289.85443       98879.624       14765.069       2.9140000     -0.67925010      0.57175000       343.07100       2.8951621     0.011993102
       1335.0000       289.83389       98877.359       14710.604       1.8840000      0.35275000      0.23025000       342.93800       3.3959605     0.012255843
       1340.0000       289.78928       98881.134       14652.195       4.0242500       1.8847500      0.48200000       342.36700       3.7687615     0.012789923
       1345.0000       289.79724       98879.224       14645.124       3.7582500       1.0910000     -0.20600000       342.77000       3.3003849     0.012220526
       1350.0000       289.84731       98877.471       14692.324       5.5120000      0.69925000     -0.47550000       342.41300       2.5930616     0.011037391
       1355.0000       289.86735       98871.755       14723.046       6.5240000     -0.55500000      0.51525000       342.25300       2.8636833     0.012188047
       1360.0000       289.89422       98860.544       14752.568       6.1177500     -0.52650000     -0.79350010       341.18100       4.4018526     0.015606459
       1365.0000       289.92390       98855.384       14836.065       4.7482500      0.48925000      0.82125000       341.75200       3.5514889     0.012048212
       1370.0000       289.94554       98849.953       14956.243       3.4550000       2.5385000      0.47575000       342.69500       2.5042682     0.010679851
       1375.0000       289.96522       98847.794       15053.946       5.0235000      0.30075000      0.18525000       341.72100       4.1547075     0.012764671
       1380.0000       290.02159       98850.299       15234.736       3.2347500     -0.16650000     -0.51700000       342.02000       3.0216763     0.011734330
       1385.0000       289.99472       98850.265       15249.834       3.5620000      0.31350000      0.22325000       342.10700       4.1585053     0.011922291
       1390.0000       289.90823       98851.113       15176.475       3.8892500      0.41350000     -0.64250000       341.76900       2.6166275     0.011188079
       1395.0000       289.86818       98849.213       15115.389       5.5465000     -0.16675000     0.053750000       341.18200       3.4171556    0.0093677871
       1400.0000       289.80227       98845.483       14965.044       4.3425000      0.58000000      0.20450000       341.69000       2.4043484     0.011002511
       1405.0000       289.76078       98843.474       14880.018       4.0690000       2.3070000    -0.019250000       342.14400       4.0384581     0.012547585
       1411.0000       289.74967       98838.870       14805.334       2.2075000      0.12250000      0.49050000       342.28600       2.4782168     0.010747672
       1416.0000       289.72957       98840.017       14745.713       3.4027500    -0.034500000   -0.0030000000       341.91200       3.5312488     0.011587481
       1421.0000       289.69401       98843.945       14682.124       3.6362500      0.82100000      0.26925000       342.24300       4.7767583     0.013434400
       1426.0000       289.68555       98850.295       14656.476       2.6330000       2.2292500     -0.84575000       342.34500       3.2228387     0.010981246
       1431.0000       289.70627       98860.551       14659.249       5.3430000     -0.30050000      -1.2597500       341.56800       3.5691433     0.011964463
       1436.0000       289.66970       98870.436       14651.936       3.4605000     -0.39850000      0.30425000       342.17300       2.3220414     0.013618697
       1441.0000       289.64954       98876.777       14642.364       5.2305000      -1.1215000      0.40075000       341.79800       4.3196106     0.013950258
       1446.0000       289.61466       98878.728       14579.126       3.0252500     -0.74825000       1.1830000       342.12600       2.9176517     0.010013111
       1451.0000       289.59381       98880.789       14584.104       3.6745000      0.49575000     -0.35425000       341.65000       3.0074727     0.013089422
       1456.0000       289.62980       98880.277       14681.761       5.1680000      0.88125000     -0.41750000       341.20700       4.0550678     0.012043602
       1461.0000       289.61237       98880.242       14714.282       6.0692500      0.19475000     -0.14150000       341.55400       2.9731314     0.011188287
       1466.0000       289.57031       98880.192       14735.216       2.8382500      0.49200000      0.93875000       342.01400       3.1358795     0.011746529
       1471.0000       289.52196       98880.295       14799.955       3.9852500      0.94450000     -0.22350000       341.82400       2.8850815     0.011675137
       1476.0000       289.41689       98880.255       14747.702       3.1082500     -0.51975000      0.10200000       342.08000       3.6312121     0.012919831
       1481.0000       289.23873       98880.368       14601.656       4.0997500     -0.56675000      0.22750000       341.78000       2.5799014     0.010412205
       1486.0000       289.16004       98881.758       14512.669       5.8580000       1.7185000     -0.15800000       341.05900       3.4831795     0.013738691
       1491.0000       289.08678       98880.890       14411.216       3.5577500     -0.13550000      0.52375000       341.61200       3.2575245     0.012178079
       1496.0000       289.06957       98877.225       14286.800       3.3927500    -0.099750000      0.17525000       341.91400       3.0163749     0.013306156
       1502.0000       289.04568       98874.834       14182.306       3.9005000     -0.51600000      0.82825010       341.61400       3.2891628     0.011264582
       1507.0000       288.99506       98874.023       14067.585       5.8490000      0.53450000      0.63275000       341.93200       4.0616296     0.012213009
       1512.0000       288.98798       98869.812       14019.187       5.1445000     0.068750000      0.35275000       341.73400       4.2460114     0.012808221
       1517.0000       289.03433       98863.506       14051.635       2.6385000     -0.19050000      0.87200000       341.62000       3.4172482     0.011351925
       1522.0000       289.05461       98859.515       14064.392       3.5407500    -0.064500000     -0.37700000       341.61000       4.4164798     0.013645039
       1527.0000       289.09039       98852.212       14103.841       3.8295000      -1.1845000      0.50725000       341.83200       3.6990867     0.012336654
       1532.0000       289.10925       98848.408       14139.792       2.8562500     -0.28075000     -0.10575000       342.01200       3.1983079     0.011567574
       1537.0000       289.10016       98850.407       14158.315       5.5122500      -1.3880000     -0.74375000       341.87100       2.5917443     0.010714321
       1542.0000       289.10016       98850.466       14201.020       3.3515000      -2.2670000     -0.23900000       341.63300       2.2316583     0.010665281
       1547.0000       289.11461       98847.333       14295.693       4.1647500      -2.5210000     -0.79200010       341.56700       2.0541432     0.010701570
       1552.0000       289.10368       98849.544       14336.991       4.1165000      -2.2905000     -0.19525000       341.53000       1.9889688     0.010224474
       1557.0000       289.05200       98855.456       14350.986       3.0265000     -0.41200000      0.33700000       341.93400       1.9095910     0.010298226
       1562.0000       289.04323       98860.600       14375.574       3.1877500     -0.63900010     0.057250000       342.03500       1.9364908     0.010439769
       1567.0000       289.04432       98868.816       14373.989       3.1635000     -0.86850010     -0.73800000       341.39100       2.8623240     0.010987093
       1572.0000       289.04553       98876.913       14373.010       3.4510000     -0.66350000    -0.046500000       341.23100       2.3306561     0.011781577
       1577.0000       289.09019       98886.035       14389.198       4.8825000     -0.23125000     0.015500000       341.33300       1.9685244     0.010349608
       1582.0000       289.10915       98891.896       14394.819       4.0420000       1.3540000      0.89325000       341.63700       1.9652279     0.011251821
       1587.0000       289.08576       98898.453       14352.331       3.3682500      0.24100000      0.93700000       341.74600       2.0680192     0.010338291
       1593.0000       289.10060       98902.639       14366.114       6.0302500      -1.8540000     -0.31875000       341.24300       2.1029143     0.010019368
       1598.0000       289.13767       98902.963       14423.105       5.4375000     -0.40100000     0.023750000       341.32100       2.7765784     0.011692442
       1603.0000       289.15784       98900.173       14456.434       4.5820000      -1.9377500      0.41425000       341.56800       2.2644053    0.0090350128
       1608.0000       289.22009       98894.008       14534.519       3.4690000      -2.0125000     0.057500000       341.42500       2.4978937     0.010357685
       1613.0000       289.20854       98888.615       14548.155       3.6755000     -0.96750000      0.38000000       341.47700       2.1600955     0.010769679
       1618.0000       289.10953       98879.800       14483.113       4.2795000      -1.3535000    -0.098750000       341.38300       1.9809383     0.010212269
       1623.0000       289.08301       98871.746       14480.258       4.7915000      -1.1997500     -0.36775000       341.38500       1.9350140    0.0092465515
       1628.0000       289.06087       98863.092       14493.008       3.8862500      -1.5340000      0.10375000       341.34300       1.9305227     0.010135557
       1633.0000       289.03503       98857.531       14485.330       3.0342500      -1.0767500      0.30875000       341.57000       1.9098382    0.0098004115
       1638.0000       289.05676       98852.552       14497.548       4.4547500      -2.0097500      0.36800000       341.47000       1.9775947    0.0099893144
       1643.0000       289.05309       98847.938       14505.480       3.3355000     -0.86925010     -0.18225000       341.57800       1.9580591    0.0099492774
       1648.0000       289.00495       98845.205       14476.622       3.0270000     -0.74400000    -0.066500000       341.41300       1.9196552    0.0096302208
       1653.0000       288.98873       98844.583       14475.358       2.9912500     -0.50775000      0.19025000       341.42900       1.9244107     0.010188649
       1658.0000       289.01322       98841.965       14524.440       3.4990000     -0.44675000     0.056000000       341.57000       1.9195707     0.010453770
       1663.0000       288.99964       98845.059       14526.785       2.3047500     -0.94625000      0.41750000       341.77300       1.9080481     0.010026963
       1668.0000       288.97444       98856.158       14516.504       2.8717500      -1.6392500      -1.2542500       341.72500       2.0930444     0.010812888
       1673.0000       288.94086       98863.146       14483.087       3.1407500      -1.0147500      0.34750000       341.66100       2.2659601     0.011261420
       1679.0000       288.85873       98872.222       14397.415       3.3772500      -1.3452500     -0.17300000       341.62100       2.0630436     0.011358376
       1684.0000       288.82530       98880.206       14341.578       1.9185000      -1.5170000    -0.098500010       341.76500       1.8880505     0.010323120
       1689.0000       288.82456       98890.941       14291.084       4.0605000     -0.57375000      0.36650000       341.59900       1.9256370     0.011705104
       1694.0000       288.77818       98893.061       14209.480       3.6667500     -0.75475000     -0.86525010       341.50600       1.9166715     0.010885543
       1699.0000       288.71615       98891.850       14109.686       6.6972500     -0.55750000     0.044750000       341.19500       1.9183927     0.010990529
       1704.0000       288.67616       98890.681       14027.720       5.5155000      -1.4155000    -0.033500000       341.44900       1.9495221    0.0099896549
       1709.0000       288.60074       98881.354       13909.904       6.0727500      0.48500000      0.30900000       341.56300       2.1323857     0.010293366
       1714.0000       288.57303       98876.915       13844.621       5.1902500      0.57675000      0.26300000       341.55800       2.6811043     0.010314536
       1719.0000       288.60028       98878.342       13816.420       5.4520000     -0.97200010     -0.52375000       341.27600       2.4137965     0.015875135
       1724.0000       288.60040       98873.132       13794.538       4.7845000     -0.34350000      0.67650000       341.43400       2.6649099     0.011914440
       1729.0000       288.59979       98863.199       13793.989       4.9037500    -0.036250000     -0.79100000       341.29300       2.0246810    0.0090763779
       1734.0000       288.59962       98856.266       13793.841       4.8700000    -0.084500010     -0.35750000       341.44100       2.2386464     0.010245350
       1739.0000       288.60034       98845.211       13808.047       3.5630000     -0.55075000      0.14750000       341.47500       2.1761606    0.0097150923
       1744.0000       288.60051       98842.082       13826.799       2.5475000      0.15325000      0.28925000       341.50800       2.6764441     0.010463972
       1749.0000       288.61130       98841.216       13860.257       4.0255000    -0.085000000     0.017000000       341.52000       4.2739999     0.013872679
       1754.0000       288.59517       98846.709       13874.045       2.9345000      -1.8242500     -0.38575000       341.61700       4.7887086     0.013016441
       1759.0000       288.54629       98860.771       13876.071       3.0637500     -0.80125000      0.97200010       341.47200       4.4413830     0.012349848
       1764.0000       288.54228       98871.416       13901.541       2.5062500      0.24000000     -0.11875000       341.54900       4.7759673     0.012904342
       1770.0000       288.53410       98892.384       13920.694       1.6087500     -0.28050000      0.50825000       341.52500       4.8510756     0.014130572
       1775.0000       288.56129       98896.052       13970.349       2.7927500     -0.82125000     -0.33500000       341.58700       4.5523083     0.013308252
       1780.0000       288.65774       98891.954       14083.397       2.8910000     -0.64550000     -0.19850000       341.48800       3.5100420     0.011273024
       1785.0000       288.66994       98890.206       14106.502       4.4705000      -1.0562500      0.54350000       341.31500       3.0487721     0.012784927
       1790.0000       288.65738       98879.735       14102.020       4.9757500      -1.7450000      0.30900000       341.19400       2.2510679    0.0094336836
       1795.0000       288.64895       98877.477       14104.119       4.5645000      -1.9637500      0.75000010       341.24900       2.0331558    0.0095530643
       1800.0000       288.59574       98881.263       14058.514       5.6777500      -3.1540000     -0.37875000       341.23100       1.9234911    0.0094186095
       1805.0000       288.58403       98879.465       14043.058       3.8785000      -3.4620000      0.21275000       341.15500       1.9317331    0.0085333757
       1810.0000       288.60907       98877.497       14063.878       4.0135000      -1.1725000      0.69150000       341.28900       1.9094159    0.0096648276
       1815.0000       288.59045       98871.795       14037.450       2.8522500      -1.3645000      0.13250000       341.40300       1.8858064     0.010576857
       1820.0000       288.55393       98860.810       13972.167       3.0437500    -0.028750000      0.67150000       341.49000       1.9175707     0.010304415
       1825.0000       288.53402       98855.724       13948.401       3.6582500     0.051750000      0.10300000       341.42300       1.9337947    0.0096767608
       1830.0000       288.49774       98847.966       13920.618       3.8967500      -2.0905000      0.26850000       341.37400       1.9830888     0.010392645
       1835.0000       288.48684       98849.589       13919.022       3.5095000      -1.4685000     -0.27650000       341.36500       2.8202558     0.013656903
       1840.0000       288.50934       98861.246       13960.297       3.4895000     0.045000000      0.96825000       341.48600       2.2186167     0.012406274
       1845.0000       288.49078       98861.542       13952.742       2.9805000    -0.094000000      0.11350000       341.48300       1.9644219     0.012423051
       1850.0000       288.43555       98858.796       13912.329       2.5902500     -0.85000000      0.26600000       341.59300       1.9689041     0.010283113
       1855.0000       288.45278       98862.604       13934.912       2.6787500      -1.8930000    -0.054500000       341.47900       1.9486411     0.011904254
       1861.0000       288.49403       98864.074       13969.647       4.1592500      -1.2580000     -0.24475000       341.38800       1.9413563     0.011019764
       1866.0000       288.52516       98868.292       14016.278       3.3815000     -0.47700000     -0.16450000       341.42600       1.9283602     0.011731127
       1871.0000       288.61964       98884.041       14131.121       5.1672500      -1.5245000     -0.75550000       341.32400       1.9492597    0.0098518818
       1876.0000       288.61530       98880.079       14148.017       6.7405000      -1.7952500      0.15950000       341.23900       1.9763597     0.010225834
       1881.0000       288.54932       98865.241       14121.886       6.9412500      -1.2302500     -0.87225000       341.12000       1.9637342     0.010176670
       1886.0000       288.51482       98854.610       14080.515       4.8062500      -1.2570000     -0.42150000       341.19400       1.8842294    0.0084664226
       1891.0000       288.49342       98848.129       14058.398       5.5350000      -1.5220000     -0.22150000       341.18100       1.9225198    0.0083980512
       1896.0000       288.49971       98847.470       14047.794       4.2235000      -2.1075000      0.11000000       341.12100       1.9263901    0.0093147253
       1901.0000       288.49946       98849.309       14041.307       3.9005000      -1.2495000      0.28000000       341.26300       1.9525348    0.0090638826
       1906.0000       288.50023       98854.839       14044.670       5.6520000      -2.8585000      0.44425000       341.22400       1.9357626    0.0081029687
       1911.0000       288.50035       98859.727       14050.821       3.6927500      -1.2377500      0.75850000       341.33100       1.9395175    0.0099912916
       1916.0000       288.50046       98865.851       14061.259       3.0012500     -0.16450000    -0.014750000       341.33200       3.5324311     0.010638685
       1921.0000       288.50693       98874.931       14077.681       3.3825000      -3.0307500      0.89850000       341.23000       3.1320905    0.0099739395
       1926.0000       288.48560       98882.900       14089.252       5.3615000      -2.6110000      0.12150000       341.18800       2.1371857     0.010385802
       1931.0000       288.44996       98890.711       14108.372       4.9735000      -1.9442500      0.11725000       341.17400       1.9126837    0.0087924231
       1936.0000       288.42969       98900.252       14116.637       4.1735000      -2.1570000     -0.39850000       341.27600       1.9468520     0.011077893
       1941.0000       288.39952       98902.883       14086.508       2.7802500     0.058000000      0.43225000       341.42800       1.9327740    0.0095340127
       1946.0000       288.35494       98895.707       13969.000       3.4845000     -0.90075000     -0.42225000       341.41100       1.9425227    0.0098775962
       1952.0000       288.34306       98889.681       13912.066       3.3650000      -1.2130000     -0.13700000       341.27500       1.9439713     0.010253991
       1957.0000       288.34339       98881.866       13871.494       3.6422500     -0.85700010     -0.50325000       341.30300       1.9387450     0.011447856
       1962.0000       288.34494       98873.875       13852.717       6.2677500      0.13650000     0.054500000       341.00500       2.5332795     0.011135948
       1967.0000       288.38987       98861.651       13905.589       6.3802500      -1.4840000     -0.66700010       341.27300       2.4672751     0.011750737
       1972.0000       288.40871       98858.021       13932.978       4.4262500    -0.026000000      0.91850010       341.41000       2.2620983    0.0088076902
       1977.0000       288.41389       98854.886       13949.650       4.3425000      -1.9605000     -0.26925000       341.34800       5.1485148     0.012113023
       1982.0000       288.40272       98858.495       13965.366       4.1050000      -2.8612500      0.57775000       341.33500       2.8256491    0.0089194526
       1987.0000       288.36586       98878.719       14001.982       4.5840000      -1.7427500     0.041000000       341.33200       2.1348579     0.010119912
       1992.0000       288.34607       98888.359       14001.713       5.4097500      -1.4435000     0.059500000       341.28000       1.9710169    0.0093604797
       1997.0000       288.29560       98897.469       13966.556       5.3187500      -1.2730000     -0.26975000       341.25300       2.1542071    0.0084074360
       2002.0000       288.28809       98903.118       13943.774       5.4365000     -0.79375000     -0.28225000       341.05700       1.9920329    0.0083506307
       2007.0000       288.30368       98903.291       13869.118       3.6785000      -1.3030000      0.20675000       341.24100       2.1090709    0.0094419246
       2012.0000       288.34631       98901.048       13858.734       4.2147500      -1.1717500      0.15600000       341.18500       1.9528232    0.0086535003
       2017.0000       288.45742       98899.153       13896.845       4.2687500      -1.8807500      -1.4907500       341.02100       1.9340041    0.0081435753
       2022.0000       288.51640       98890.634       13930.476       3.3102500      -1.1670000     -0.20150000       341.10900       1.9203153    0.0089234061
       2027.0000       288.59506       98866.989       14034.595       2.4967500      -1.3242500      0.61350010       341.38900       1.9466078     0.011057309
       2032.0000       288.62235       98856.208       14074.609       3.7442500      -1.4877500      0.30825000       341.35000       1.9405878     0.010532340
       2037.0000       288.56629       98843.294       14067.871       5.0932500      -2.2847500     0.075000000       341.13900       1.9382795    0.0087661859
       2043.0000       288.54268       98841.777       14069.742       3.9395000     -0.15825000    0.0010000000       341.41700       1.9265009    0.0080994875
       2048.0000       288.49100       98860.998       14018.745       2.6192500     -0.16050000     -0.47350000       341.28600       2.2477672    0.0090398839
       2053.0000       288.48871       98868.630       14015.941       4.0355000    -0.075750000      0.13225000       341.30500       2.8933727     0.010502386
       2058.0000       288.53795       98876.431       14055.571       3.5967500      -2.5602500      0.28550000       341.18600       2.2980521     0.010216765
       2063.0000       288.55801       98884.275       14064.094       3.6260000      -2.2705000     -0.54275000       341.28000       2.4437998    0.0092809680
       2068.0000       288.59588       98890.614       14077.384       3.9922500      -3.6237500     -0.15175000       341.09100       1.9560956     0.010031858
       2073.0000       288.61255       98891.892       14082.132       4.5690000      -2.8132500     -0.56175010       341.21600       1.9156323    0.0088290988
       2078.0000       288.58738       98895.543       14038.029       3.0627500      -1.3942500     -0.11800000       341.42700       1.9240112    0.0078601690
       2083.0000       288.60131       98890.660       14055.668       3.6062500      -1.2707500     -0.34475000       341.39400       1.9455051    0.0094007397
       2088.0000       288.65093       98869.965       14135.412       4.2127500      -1.6385000      0.63175000       341.47700       1.9062268    0.0083190189
       2093.0000       288.65718       98860.777       14157.034       3.4765000     -0.84050010     -0.36825000       341.22400       1.9214832    0.0090983645
       2098.0000       288.65804       98849.108       14186.771       4.9082500     -0.77525000     -0.43550000       341.24100       2.1257793     0.010552038
       2103.0000       288.65417       98847.013       14195.353       5.1375000      0.48575000     0.092500000       341.25400       2.0888381    0.0092887780
       2108.0000       288.60596       98854.092       14146.433       3.4757500      0.72650000      0.42000000       341.40800       2.1265211    0.0090187686
       2113.0000       288.58977       98862.323       14125.301       5.1545000     -0.84075000     -0.64975010       341.28800       2.2029304     0.010375358
       2118.0000       288.60058       98880.933       14125.881       3.5067500      -1.4705000     -0.91000000       341.53600       1.9506172    0.0099046457
       2123.0000       288.60082       98890.267       14109.964       6.8965000      -3.1650000     -0.15625000       341.24400       1.9989058    0.0085066869
       2128.0000       288.58732       98901.354       14064.595       3.4790000     -0.32400000      0.94575010       341.29400       1.9328542    0.0086986575
       2134.0000       288.60539       98903.083       14058.081       3.9800000      -1.1470000      0.35975000       341.30900       1.8989378    0.0095379822
       2139.0000       288.62985       98893.032       14048.819       4.6197500     -0.80850010    -0.054250000       341.35300       1.9520924     0.010062643
       2144.0000       288.66662       98887.285       14087.262       5.0745000     -0.35050000      0.13125000       341.42000       1.9188573    0.0084753629
       2149.0000       288.75246       98878.526       14199.881       3.5977500     0.026500000      0.49600000       341.46400       1.9338170    0.0081699939
       2154.0000       288.77012       98870.510       14236.358       3.0035000      -1.4280000      0.52575000       341.45400       1.9194454    0.0076983253
       2159.0000       288.75649       98859.366       14258.952       5.9142500     -0.64875000      0.16675000       341.44700       1.9320666    0.0088433931
       2164.0000       288.75023       98857.160       14284.874       5.2435000     -0.96175000     -0.42500000       341.21900       1.9050822    0.0078706653
       2169.0000       288.68932       98855.522       14255.084       5.4467500     -0.44600000      0.19775000       341.47400       1.9338211    0.0089696575
       2174.0000       288.69195       98861.636       14280.319       5.2987500      -3.1475000     -0.47025000       341.47500       1.9548417     0.010581699
       2179.0000       288.73095       98882.494       14354.153       4.9195000    -0.033250000     -0.38200000       341.46600       1.9096496    0.0081652729
       2184.0000       288.76693       98891.131       14399.904       4.2135000      -1.4932500      0.64525000       341.54400       1.9040753    0.0082441268
       2189.0000       288.85184       98899.893       14473.030       4.1970000      -1.3610000      0.55625000       341.47500       1.9051321    0.0080777687
       2194.0000       288.86912       98903.942       14478.347       2.2655000     -0.86250000      0.43725000       341.75700       1.9013885     0.010573743
       2199.0000       288.84554       98905.894       14421.747       1.8392500      -2.0515000      0.58875000       341.86800       1.9199980    0.0092326133
       2204.0000       288.85567       98897.773       14424.758       3.7125000     -0.21350000    -0.060250000       341.59500       1.9119045    0.0087167414
       2209.0000       288.84307       98878.884       14411.102       2.9620000      -1.5642500     -0.44275000       341.60800       1.9393242    0.0097129472
       2214.0000       288.84895       98868.810       14417.782       3.9247500      -2.1882500    0.0040000000       341.45400       1.9094245    0.0085766727
       2220.0000       288.90311       98846.162       14499.437       4.6352500      -2.1965000     -0.33600000       341.19900       1.9045681    0.0088229546
       2225.0000       288.91428       98846.181       14503.727       4.6592500      -2.4467500      0.38925000       341.55100       1.9308353    0.0092158032
       2230.0000       288.89942       98861.861       14469.185       3.1512500      -3.2025000     -0.45550000       341.28300       1.8980527    0.0093396651
       2235.0000       288.89912       98871.710       14441.978       4.4330000      -3.5255000    -0.068500000       341.36500       1.9287496    0.0095872618
       2240.0000       288.88273       98890.165       14382.433       3.9662500      -1.1575000     -0.12950000       341.58400       1.9242926    0.0091608330
       2245.0000       288.92060       98897.585       14381.340       6.3967500      -2.5292500    -0.025000000       341.21000       1.9317417    0.0088002363
       2250.0000       288.99344       98902.589       14401.315       6.6752510      -2.7187500     -0.19425000       341.24000       1.9583886    0.0084285828
       2255.0000       289.03336       98901.061       14415.378       5.0040000     -0.59250000      0.22200000       341.33500       1.8985289    0.0092636839
       2260.0000       289.10630       98893.742       14470.202       5.1460000      -2.1440000     -0.31075000       341.20300       1.9133844    0.0080098267
       2265.0000       289.12838       98884.159       14480.436       4.7615000      -1.0475000      0.33925000       341.71900       1.8985802    0.0099390027
       2270.0000       289.10953       98864.163       14452.525       4.0377500    -0.084000010    -0.053000000       341.58100       1.9426108    0.0088550057
       2275.0000       289.09123       98859.666       14467.133       4.0080000      -1.1652500       1.1145000       341.56500       1.9391089    0.0091841023
       2280.0000       289.05498       98857.454       14506.082       6.2802500     0.047500000    -0.036750000       341.14400       1.9197100    0.0093481091
       2285.0000       289.03479       98860.045       14497.647       3.2185000      -1.0535000      0.20600000       341.87100       1.9019198    0.0091558656
       2290.0000       288.99762       98873.672       14500.232       6.0652500     -0.99475000      0.61025010       341.32400       1.9080806    0.0078523419
       2295.0000       288.98634       98881.778       14451.763       5.2892500      -1.7572500     -0.22100000       341.09100       1.9123999    0.0089864847
       2300.0000       288.98228       98891.685       14319.826       3.6930000      -2.3140000     -0.70500000       341.66300       1.8863274    0.0093516911
       2305.0000       289.01950       98893.125       14284.551       3.3272500     -0.91450010      0.18300000       341.76500       1.9247296    0.0086323385
       2311.0000       289.08136       98892.173       14253.531       5.4010000      -4.3252500     -0.42425000       341.66800       1.9106344    0.0084742444
       2316.0000       289.18418       98887.856       14296.060       3.9722500      -3.5127500     -0.37075000       341.66700       1.8647374    0.0086055221
       2321.0000       289.36708       98875.617       14410.563       3.7787500      -1.3542500      0.20125000       342.06700       1.9248502    0.0087557215
       2326.0000       289.42338       98867.647       14488.747       5.0297500      -1.7465000     -0.28150000       341.24700       1.9175934    0.0086320061
       2331.0000       289.45617       98857.848       14586.679       3.5807500     -0.65750000      0.40075000       341.86900       1.9056917    0.0090274313
       2336.0000       289.47573       98859.468       14710.623       3.1742500     -0.64100000      0.56000000       341.78500       1.9420350    0.0092561043
       2341.0000       289.49451       98862.975       14798.570       5.2310000      -1.1830000     -0.50275000       341.59100       2.0062967     0.011325773
       2346.0000       289.58595       98885.113       14915.543       4.2640000      0.58100000      0.18425000       341.84300       1.9319557    0.0086712005
       2351.0000       289.61924       98893.653       14974.313       3.3142500      -1.2650000     -0.22475000       342.09900       1.9095153    0.0089444519
       2356.0000       289.54004       98895.856       14941.985       2.7445000     -0.83350000     -0.27525000       342.41100       1.9217297    0.0098535111
       2361.0000       289.53744       98893.532       14935.380       2.5400000     0.056250000      0.12000000       342.71400       1.9124654     0.010253015
       2366.0000       289.55948       98885.056       14922.423       4.4737500    -0.025500000      0.36425000       342.07900       1.9242161     0.011003408
       2371.0000       289.57923       98864.562       14884.305       2.8342500      0.57275000      0.31400000       342.34200       1.8770700    0.0096111262
       2376.0000       289.65432       98856.879       14867.819       4.8550000       1.1455000     -0.83350000       341.32700       1.9262254    0.0091203402
       2381.0000       289.80590       98846.755       14853.082       4.9720000      0.22800000     -0.51325010       342.08000       1.9136481    0.0092665760
       2386.0000       289.90054       98856.475       14893.421       4.3310000      0.11275000     0.015000000       341.78800       1.9231952    0.0084920785
       2391.0000       289.96400       98864.274       14937.753       4.1200000      0.74100010      0.44950000       342.04000       1.9081870    0.0099170370
       2396.0000       290.00025       98881.970       15072.091       4.6205000      0.48775000     -0.36200000       341.82100       1.9189092    0.0097743810
       2402.0000       290.01202       98893.876       15148.351       3.2505000      0.56050000      0.21175000       342.24500       1.9048221    0.0097780575
       2407.0000       289.98169       98902.965       15163.294       4.9712500      -4.5832500     -0.85775010       342.14500       1.9112679    0.0087216022
       2412.0000       289.95041       98903.330       15173.455       4.4460000     -0.39925000     -0.13200000       342.62500       1.9214685    0.0091488491
       2417.0000       289.87605       98890.056       15116.047       6.7310000      -1.0042500     -0.46275000       341.52900       1.9608168     0.010174986
       2422.0000       289.83725       98884.028       15107.620       4.6327500     -0.25175000      0.44800000       341.45000       1.9456001     0.011760681
       2427.0000       289.83734       98871.567       15168.486       4.0497500     -0.23550000     -0.17875000       341.37100       1.9303918    0.0087448272
       2432.0000       289.79591       98866.944       15147.069       4.1517500     -0.14275000      0.18675000       342.08800       1.8963693    0.0097219856
       2437.0000       289.71734       98873.737       15079.341       4.2927500     -0.70775000     -0.13725000       341.59200       1.9173114    0.0094729716
       2442.0000       289.68885       98875.731       15036.967       3.8410000    -0.058500000      0.11725000       342.48800       1.9265611     0.010530266
       2447.0000       289.66773       98883.726       14956.084       4.4962500     -0.17000000     -0.27125000       341.33900       1.8941035    0.0095265362
       2452.0000       289.63907       98882.306       14875.608       2.3340000       1.4375000      0.55950000       342.45600       1.9206243     0.010090867
       2457.0000       289.65738       98870.427       14815.338       3.6722500      0.70975010       1.0280000       342.52000       1.9244846    0.0093566094
       2462.0000       289.65617       98864.489       14761.326       5.0015000       1.6060000     0.037250000       341.83000       1.9688083     0.012328318
       2467.0000       289.62414       98849.177       14679.016       3.4402500       1.5692500     -0.45875000       341.96700       1.9340977     0.010081906
       2472.0000       289.59388       98846.904       14617.046       4.4417500     0.035250000     0.031750000       341.48000       1.9082183    0.0095119683
       2477.0000       289.57910       98857.841       14574.368       3.9397500      0.21950000     -0.35650000       341.90800       1.9281804    0.0091878192
       2482.0000       289.54761       98866.124       14555.431       2.3215000    -0.053250000      0.39850000       342.52400       1.9170464     0.010125292
       2487.0000       289.46157       98887.230       14575.455       3.2307500     -0.34925000     -0.41900000       342.53700       1.9019464     0.010017894
       2493.0000       289.43195       98895.323       14550.327       2.8650000      -1.3522500     -0.23475000       341.97300       1.9109823    0.0095376861
       2498.0000       289.46905       98893.203       14522.177       4.4650000     -0.40725000      0.19225000       342.20100       1.9284738     0.012079837
       2503.0000       289.44512       98890.977       14515.335       1.9527500      0.44725000      0.43200000       342.79000       1.8685644     0.010877958
       2508.0000       289.40529       98876.207       14470.774       5.4105000       1.5080000     -0.28925000       341.78000       1.9491742     0.011251144
       2513.0000       289.39518       98872.276       14472.371       4.0570000       1.4342500      0.51850000       342.10600       1.9312578     0.010411647
       2518.0000       289.36100       98871.963       14560.614       3.8940000     0.069750000     -0.47650000       342.15300       1.9045305     0.011186806
       2523.0000       289.33475       98875.046       14575.558       4.0975000       2.2132500    -0.074000000       342.37400       1.8823945     0.010805131
       2528.0000       289.38253       98887.488       14562.986       5.4997500     -0.81700000     -0.25875000       342.12100       1.9633685     0.011220028
       2533.0000       289.35100       98893.049       14547.833       5.6497500     0.033000000      -1.1180000       341.63400       1.8779351     0.012323266
       2538.0000       289.22938       98901.862       14491.403       4.3955000     -0.50175010      0.20550000       342.00700       1.8727651     0.010950545
       2543.0000       289.17356       98902.400       14457.616       4.0360000     -0.35575000      0.16875000       342.34400       1.9156570     0.010045389
       2548.0000       289.12353       98896.880       14445.152       5.0055000      -1.7452500     -0.60650000       341.68900       1.8820861     0.010984986
       2553.0000       289.07740       98888.718       14407.988       8.7080000     -0.25575000    -0.042000000       341.40900       1.9429096    0.0095424858
       2558.0000       289.07513       98867.663       14356.694       5.7382500      -2.2212500     -0.92450000       341.50300       1.9260220     0.010935766
       2563.0000       289.04132       98861.225       14312.003       6.1522500       1.1935000     -0.23275000       341.06100       1.9055136    0.0097797057
       2568.0000       288.95337       98855.617       14232.998       4.5770000   -0.0085000000      0.60250000       341.56700       1.9434602    0.0099941045
       2573.0000       288.93038       98858.781       14206.375       4.6682500    -0.059250000     -0.15725000       341.78900       1.9088097     0.010746418
       2578.0000       288.94338       98880.842       14212.054       6.2847500      0.56500000     -0.53825000       341.36000       1.9091057    0.0096912323
       2584.0000       288.94957       98891.620       14225.094       4.7817500      0.27175000     -0.26925000       341.67800       1.9256233     0.010148367
       2589.0000       288.99993       98902.428       14270.142       4.9475000      0.69300000      0.42875000       341.79700       1.9733790     0.011945848
       2594.0000       289.01361       98903.211       14306.942       5.1885000      -1.1335000     -0.34625000       341.63800       1.9301951     0.010763877
       2599.0000       288.98900       98895.072       14331.366       3.5010000     0.052500000      0.17675000       341.92600       1.9210067    0.0097322248
       2604.0000       289.00546       98886.099       14393.059       3.5542500      0.85275010     -0.80875000       341.54300       1.9356165     0.011444447
       2609.0000       289.05418       98864.153       14497.448       4.0232500     -0.90425000     -0.22275000       341.57600       1.9403260     0.011468651
       2614.0000       289.05815       98860.238       14558.780       4.3245000     -0.66725000      0.21325000       341.60000       1.9501272     0.010789605
       2619.0000       289.05676       98859.877       14637.195       5.1452500     -0.70925000     -0.59200000       341.49800       1.9288937    0.0099986803
       2624.0000       289.05033       98866.634       14668.443       3.4097500     -0.19700000     -0.21575000       341.68800       1.9307117     0.011014808
       2629.0000       288.98970       98896.142       14635.650       3.7910000       1.1510000      0.25150000       341.60200       1.9446935     0.011817609
       2634.0000       288.99199       98901.489       14648.346       3.2065000     -0.81975000      0.31600000       341.74400       1.9435151     0.010594791
       2639.0000       289.05273       98899.005       14680.100       2.9707500     -0.58825000     0.070250000       341.77800       1.9426288     0.010971287
       2644.0000       289.05642       98895.453       14671.624       3.3765000     -0.29750000     -0.56025000       341.64000       1.9233747     0.010231069
       2649.0000       289.03501       98873.138       14646.319       2.4760000      0.64725010      0.79025010       341.96200       1.9533735     0.010660077
       2654.0000       289.06150       98871.883       14646.165       3.5192500     -0.97550000     -0.80975000       341.79900       1.9347290     0.011306926
       2659.0000       289.05188       98882.087       14605.468       2.4625000      -1.2517500      0.88400010       341.63800       1.9549167     0.011484483
       2664.0000       289.12614       98888.358       14626.497       4.6145000    -0.080250000     -0.12650000       341.52400       1.9032720    0.0095495198
       2669.0000       289.33595       98905.610       14722.176       2.8225000     0.044500000     0.074500000       341.79700       1.9083261    0.0099851047
       2675.0000       289.41621       98910.429       14775.147       3.7890000       1.5557500      0.28600000       341.49200       1.9427690     0.010745636
       2680.0000       289.46413       98908.810       14809.416       5.2527500      0.78250000      0.31050000       341.48200       1.9609218     0.010870267
       2685.0000       289.47712       98902.148       14866.247       4.2907500     -0.24200000    -0.063500000       341.54500       1.9531808     0.011455465
       2690.0000       289.38041       98886.272       14905.758       4.4207500      0.68750010     0.034500000       341.33400       1.9457224     0.010000518
       2695.0000       289.40722       98879.208       14993.697       3.3935000      0.47650000     -0.23550000       341.59500       1.9143429    0.0099114991
       2700.0000       289.50271       98865.572       15156.017       5.2305000      0.45025000      0.12600000       341.46900       1.9389557    0.0096672832
       2705.0000       289.52391       98869.549       15207.621       5.1927500      -1.5940000     -0.36300000       341.63800       1.9488870    0.0099758273
       2710.0000       289.55144       98889.540       15232.109       2.8462500      -1.7237500      0.36750000       341.89800       1.9229926    0.0097451008
       2715.0000       289.57245       98895.602       15247.439       3.1482500      -1.0177500      0.86050000       341.87400       1.9101232     0.010094376
       2720.0000       289.53403       98908.672       15187.098       3.6212500      0.41850000      0.33725000       342.13700       1.9216599     0.010113763
       2725.0000       289.56096       98907.473       15184.215       4.2027500     -0.56350000      0.73825000       342.06400       1.9276442     0.010065165
       2730.0000       289.64786       98893.918       15224.375       3.4630000      -1.0520000      0.91600010       341.90300       1.9364910     0.010988952
       2735.0000       289.67906       98883.070       15211.881       3.5202500      -2.4550000     -0.13475000       342.20400       1.8989320     0.010728571
       2740.0000       289.69377       98861.518       15172.507       2.8362500     -0.83425000    -0.013500000       341.96600       1.8975671     0.010095783
       2745.0000       289.72391       98862.582       15156.143       2.4160000      -1.5460000    -0.050250000       342.21600       1.9008491     0.010132717
       2750.0000       289.73781       98872.775       15127.033       3.1142500      -1.9992500      0.57025000       342.46000       1.9242377     0.010817723
       2755.0000       289.77647       98879.423       15114.761       4.0560000      -2.3927500     -0.11000000       341.76200       1.9034518     0.010554787
       2760.0000       289.83084       98903.735       15110.209       2.5987500     -0.45550000       1.3730000       341.96500       1.9157587     0.010807298
       2766.0000       289.91398       98904.992       15143.872       3.9362500      -1.8850000     -0.71175000       342.10000       1.9466178     0.010422933
       2771.0000       289.99828       98891.008       15167.325       3.6955000      -2.0067500      0.11350000       341.85600       1.9282493    0.0088608315
       2776.0000       290.06884       98884.737       15271.025       3.8005000      0.14750000    -0.042500000       342.00500       1.9690881     0.012920030
       2781.0000       290.16784       98872.255       15454.236       3.4255000     -0.75925000     -0.18900000       341.67300       1.9328150     0.010494346
       2786.0000       290.15476       98880.975       15559.976       4.4650000     -0.45125000      0.42075000       342.07100       1.9585720     0.010078987
       2791.0000       290.15598       98884.893       15627.348       3.7635000     0.018000000    -0.034750000       342.58400       1.9371005     0.010113551
       2796.0000       290.11496       98898.864       15612.298       4.3860000     -0.30900000    -0.036000000       341.53500       1.9550883     0.011681896
       2801.0000       290.09423       98903.340       15589.393       2.8025000     0.022750000     0.016500000       342.11600       1.9473135     0.011179968
       2806.0000       290.10022       98898.942       15543.872       4.1025000      0.21175000     -0.11100000       342.56700       1.9439930     0.011818497
       2811.0000       290.10020       98892.456       15498.216       4.2150000     -0.58800000    -0.064500000       342.39200       1.9278979     0.010753750
       2816.0000       290.10012       98882.262       15440.697       3.4462500      0.58350000     -0.32625000       342.53200       1.9301953     0.010639037
       2821.0000       290.09973       98860.367       15353.032       4.0340000     -0.58850000      0.16875000       341.95300       1.9462795     0.011256754
       2826.0000       290.09954       98865.425       15292.024       3.5290000      -1.1565000     -0.20200000       342.19700       1.9134611     0.010933304
       2831.0000       290.08849       98878.519       15219.883       3.4000000     -0.38400000      0.39250000       342.84800       1.9290876     0.010596914
       2836.0000       290.20564       98907.275       15315.330       4.8870000     -0.12225000     -0.11425000       342.28500       1.9153595     0.010073137
       2841.0000       290.22057       98916.870       15324.177       2.6455000     -0.36150000      0.38750000       342.64900       1.9193404     0.011771197
       2846.0000       290.19471       98896.796       15333.353       6.0280000     -0.41450000     -0.17275000       342.31200       1.9336034     0.010171699
       2852.0000       290.15875       98888.529       15342.539       4.6677500     -0.57500000     -0.26875000       342.39400       1.8805903     0.011313840
       2857.0000       289.99551       98872.968       15250.424       5.7550000      0.82950000      0.16650000       342.02000       1.9252652     0.011203507
       2862.0000       289.91976       98870.917       15206.908       5.5052500     -0.24300000      0.23050000       341.86000       1.9081972     0.010648692
       2867.0000       289.92472       98889.519       15240.758       4.4512500      -1.2382500    -0.097000000       341.66900       1.9159224     0.010205484
       2872.0000       289.89492       98897.488       15217.939       3.4530000     -0.96500000     -0.27900000       341.97800       1.9422953     0.011614948
       2877.0000       289.86522       98912.980       15136.560       3.8492500      -1.8832500      0.21900000       342.44100       1.9242537    0.0096775304
       2882.0000       289.84507       98914.166       15099.420       3.8637500      -2.1147500      0.19650000       342.38200       1.9016196     0.010451788
       2887.0000       289.80951       98892.307       15046.948       4.6342500     -0.96800010     -0.25850000       342.62100       1.8553922     0.011429770
       2892.0000       289.79100       98887.762       15031.576       5.9532500       1.8780000      0.63400000       343.20900       1.9052854     0.011736585
       2897.0000       289.84306       98882.898       15130.303       7.1980000     -0.44425000       1.1907500       341.91500       1.9438814     0.010097453
       2902.0000       289.80990       98882.482       15113.021       3.4165000     -0.96600000      0.47900000       342.22700       1.8920088     0.010651789
       2907.0000       289.70099       98902.173       15031.136       6.4555000     -0.29625000      0.50200000       341.46900       1.8986171     0.011173887
       2912.0000       289.64114       98908.663       14967.891       6.2562500     -0.25325000      -1.1417500       341.72000       1.9347139    0.0094204007
       2917.0000       289.53094       98910.056       14820.505       5.2722500      -2.0555000     -0.60250000       342.03400       1.9451181    0.0097091104
       2922.0000       289.47421       98906.530       14726.943       5.2787500      0.73975000     -0.32675000       342.05900       1.9145616     0.010067731
       2927.0000       289.52786       98886.623       14711.305       4.4475000      0.38225000      0.92700000       342.40400       1.9108857     0.010386206
       2932.0000       289.50563       98881.969       14644.707       8.2645010       1.2315000      0.51850000       341.50600       1.9424543    0.0097673139
       2937.0000       289.46027       98882.005       14555.189       7.1855000     0.095500010      0.13675000       341.65800       1.9264190    0.0096580209
       2943.0000       289.38280       98884.372       14448.956       5.3335000       1.1185000      0.10425000       341.51600       1.9867895     0.010286171
       2948.0000       289.23541       98906.736       14335.164       4.1082500      -1.6795000      0.77550010       342.02700       1.9477785    0.0095551397
       2953.0000       289.16326       98909.453       14232.771       5.6027500      0.51375000      0.33200000       341.75100       1.9979516     0.010246166
       2958.0000       289.12321       98899.666       14138.062       5.9357500     -0.42775000     -0.67200010       341.25200       1.9079521     0.010121232
       2963.0000       289.07661       98893.939       14039.007       3.8252500     -0.18575000     -0.58450000       341.56500       1.9029108     0.010036626
       2968.0000       289.04848       98872.628       13892.387       4.6660000     -0.73325000     -0.23200000       341.55900       1.8872855     0.010614159
       2973.0000       289.04209       98871.137       13835.433       3.6210000     -0.47850000      0.22175000       341.58400       1.9336799    0.0085888540
       2978.0000       289.04296       98887.484       13821.517       4.0252500      0.75975000     -0.18650000       341.62000       1.9205462     0.010904794
       2983.0000       289.04670       98892.503       13823.898       2.1595000      0.12000000      0.93075010       342.10900       1.9784873     0.010428361
       2988.0000       289.10828       98908.422       13921.721       3.0962500      -1.3440000     -0.84725000       341.52300       1.9649842     0.010516485
       2993.0000       289.11114       98908.872       13955.529       4.3160000     -0.53100000     -0.12575000       341.36000       1.9242985     0.010310757
       2998.0000       289.04925       98888.384       13938.599       3.9547500     -0.47300000      0.93425010       341.60200       1.9247105    0.0092386053
       3003.0000       289.04297       98882.157       13976.639       4.0077500      -1.0837500     -0.40950000       341.37500       1.9391133     0.010160840
       3008.0000       289.05659       98871.860       14050.084       4.7150000     -0.38800000      0.82700000       341.62800       1.9537891     0.011343876
       3013.0000       289.04668       98873.111       14078.434       4.0795000     0.032000000      0.34525000       341.78600       1.9303844     0.010163379
       3018.0000       289.05650       98895.338       14129.817       4.7020000      -1.8467500     -0.84975000       341.41100       1.9518288     0.010795664
       3023.0000       289.05292       98899.004       14143.290       4.5222500     -0.26400000      0.18075000       341.90500       1.9187778     0.010472659
       3028.0000       289.00495       98898.622       14069.417       4.7165000    0.0060000000      0.32675000       341.58100       1.8920532    0.0092431545
       3034.0000       288.98705       98895.004       14061.406       4.5400000     -0.38775000     -0.38425000       341.63000       1.9371736    0.0095821961
       3039.0000       289.00066       98876.595       14095.986       5.4017500     -0.43475000     -0.12450000       341.60900       1.9215893    0.0094708688
       3044.0000       289.00090       98870.564       14094.713       4.6152500      -1.6802500      -1.2175000       341.30600       1.9713766     0.010564336
       3049.0000       288.99988       98866.050       14101.608       5.6645000      0.39350000      0.21375000       341.42500       1.9327244     0.010191101
       3054.0000       288.99977       98871.285       14093.010       3.4227500      -1.0775000     0.075000000       341.66800       1.9333070     0.010303491
       3059.0000       289.01108       98891.788       14047.351       3.2245000      0.28700000       1.0465000       341.99900       1.9500273    0.0090313044
       3064.0000       288.99489       98893.337       14030.358       4.3015000     -0.75950000      0.23675000       341.60100       1.9371482    0.0091939270
       3069.0000       288.96907       98889.839       14036.343       4.3697500      0.57400000   0.00050000000       341.58600       1.9223004     0.010091919
       3074.0000       288.93313       98892.189       14018.597       7.8850000      -1.5180000     -0.45625000       341.09400       1.9034661     0.010692577
       3079.0000       288.85904       98882.087       13993.731       5.0657500      0.12975000     -0.17225000       341.14700       1.9340588    0.0091235315
       3084.0000       288.82552       98884.132       13970.933       4.8325000     -0.71775000    -0.085750010       341.47900       1.9053894    0.0098728178
       3089.0000       288.80094       98907.843       13942.221       5.2185000      -1.2475000      0.25900000       341.40900       1.9247279    0.0093119926
       3094.0000       288.78729       98909.111       13906.606       3.9805000    0.0072500000     -0.60650000       341.21200       1.9217427    0.0095699969
       3099.0000       288.79999       98898.758       13866.069       5.1057500     -0.85225000      0.19375000       341.24100       1.8909424     0.010246839
       3104.0000       288.80005       98892.556       13833.575       3.9692500      0.18900000      0.74150000       341.65700       1.9276820    0.0099788254
       3109.0000       288.78853       98871.653       13773.485       7.1200000     -0.73525010     -0.53400000       341.32500       1.9192354     0.011046376
       3114.0000       288.80457       98871.867       13767.886       4.6850000    0.0067500000     -0.24675000       341.47100       1.9495159     0.010354600
       3119.0000       288.84215       98888.260       13794.981       4.0820000     -0.19450000      0.51825000       341.68000       1.9178820     0.010245324
       3125.0000       288.86604       98894.217       13837.617       5.7965000      0.88125000     -0.18800000       341.22200       1.9042837    0.0091708340
       3130.0000       288.90315       98909.922       13912.006       7.2625000      -1.9335000     0.055000000       341.21800       1.9135044     0.010278344
       3135.0000       288.91424       98906.676       13964.827       3.9087500      0.82375000      0.68075000       341.73600       1.9398138    0.0095942767
       3140.0000       288.89996       98883.870       14024.822       3.8812500     -0.77575000      0.32500000       341.56900       1.9389054     0.010900755
       3145.0000       288.89996       98882.495       14063.386       6.2165000      0.64425000     -0.45775000       341.37800       1.9260952    0.0090385591
       3150.0000       288.90017       98882.510       14099.484       3.8502500      -1.3615000     -0.72700010       341.51400       1.9020337    0.0097531595
       3155.0000       288.90035       98887.008       14110.018       4.1542500      0.54375000      0.23300000       341.43200       1.9216124     0.010045428
       3160.0000       288.90893       98908.677       14105.978       4.9542500      -1.9747500     -0.45775000       341.16500       1.9340466    0.0095080668
       3165.0000       288.89032       98908.461       14075.311       4.4257500      -1.6595000      0.17600000       341.42800       1.9209651     0.010648120
       3170.0000       288.84493       98896.989       13996.498       3.5687500      -1.0642500     -0.52950000       341.76200       1.9051366    0.0093033182
       3175.0000       288.84344       98892.226       13980.612       3.2697500     -0.30500000     -0.13000000       341.77500       1.8860501    0.0093638762
       3180.0000       288.84251       98876.718       13966.542       2.8210000     -0.66700010     -0.25850000       341.79100       1.8859687     0.010663313
       3185.0000       288.85161       98879.112       13968.259       2.6957500      -2.1572500    -0.069000010       341.88700       1.9314113     0.010442233
       3190.0000       288.90270       98896.811       14011.842       2.5937500     -0.68850000      0.38550000       341.99700       1.9131335     0.010278909
       3195.0000       288.91429       98897.268       14039.872       2.8565000     -0.71225010      0.13125000       341.81400       1.9273503     0.011482989
       3200.0000       288.89998       98898.055       14060.795       1.8560000     0.059000000      0.48750000       342.15400       1.9282759     0.011508765
       3205.0000       288.90004       98893.597       14080.109       5.1907500      -1.3740000     0.084750000       341.15600       1.9431145    0.0093365673
       3210.0000       288.90903       98871.273       14125.330       5.1192500     0.067500000      0.36575000       341.71800       1.9197476    0.0096001474
       3216.0000       288.88534       98874.866       14114.203       3.7267500     -0.41725000      0.64075010       341.67000       1.9150784     0.010303413
       3221.0000       288.84367       98889.895       14060.037       5.0727500     -0.13450000      0.38225000       341.71600       1.9845216     0.011017030
       3226.0000       288.84466       98894.921       14060.215       6.4392500     -0.46325000     -0.26525000       341.44400       1.9141024     0.011344215
       3231.0000       288.83786       98909.398       14052.989       5.5852500      0.14725000      0.76350000       341.49000       1.8982701     0.010357825
       3236.0000       288.94557       98886.655       14142.573       5.4207500      -1.2600000     -0.27600000       341.38300       1.8810533    0.0094698287
       3241.0000       288.97011       98881.892       14165.249       4.1272500     0.065000010     0.065750000       341.62900       1.8947583     0.010671327
       3246.0000       288.92490       98888.423       14141.112       6.7265010      0.46675000    -0.056250000       341.38800       1.9474200     0.010172741
       3251.0000       288.90614       98889.254       14120.693       5.6250000     -0.91025010      0.60750000       341.48000       1.9185339    0.0097390836
       3256.0000       288.81500       98905.798       14025.101       3.5695000     -0.15850000       1.5342500       341.48600       1.9113659    0.0090719196
       3261.0000       288.78141       98909.675       13985.521       3.9590000     -0.15550000      0.68225000       341.59900       1.9025745     0.010385694
       3266.0000       288.78474       98904.940       13973.967       3.0017500      0.11250000     -0.12275000       341.84000       1.9420373     0.010612553
       3271.0000       288.84881       98882.238       14001.452       2.9325000     -0.51000010    -0.077500000       341.71100       1.9231523     0.011663486
       3276.0000       288.86887       98883.869       13993.341       3.1422500      -1.2197500      0.10900000       341.53800       1.8897455    0.0099944981
       3281.0000       288.90550       98888.193       14003.005       2.4240000      -1.1050000    -0.095000010       341.59300       1.9255243    0.0099748457
       3286.0000       288.87038       98910.233       13949.768       5.3457500       1.0785000     -0.93675010       341.53700       1.9160934    0.0099834628
       3291.0000       288.88752       98915.461       13952.258       4.8095000    -0.015250000      0.35900000       341.47400       1.9170924     0.010140968
       3296.0000       288.96059       98892.193       14016.519       3.6572500      -1.4307500     0.097750010       341.67100       1.9020120    0.0091451621
       3301.0000       289.00040       98887.713       14067.174       4.2795000      0.48075000      0.29150000       341.85500       1.9109651    0.0098218342
       3307.0000       289.09572       98887.392       14170.292       4.5795000    -0.011250000      0.52850000       341.84900       1.9106184     0.010240079
       3312.0000       289.12156       98887.921       14238.184       4.2967500    -0.027500000     -0.10600000       341.46600       1.9363930     0.010269633
       3317.0000       289.07967       98911.811       14305.024       3.5052500     0.026500000    -0.087250000       341.59500       1.9173567    0.0097741867
       3322.0000       289.04805       98914.760       14336.343       4.1087500      0.39675000     -0.20925000       341.77400       1.9427775     0.011660036
       3327.0000       288.98877       98892.036       14365.818       4.4655000      -2.8800000      0.13575000       342.07000       1.9182980    0.0090512867
       3332.0000       288.93858       98887.256       14346.442       3.7990000      0.27425000      0.56125000       341.99700       1.9432832     0.011416747
       3337.0000       288.86096       98884.419       14238.119       3.2937500      -1.6552500     -0.50450000       341.79200       1.9001547     0.010208022
       3342.0000       288.83387       98883.015       14182.090       4.6007500      -1.7115000     -0.28075000       341.82200       1.8889068    0.0095777850
       3347.0000       288.84376       98901.737       14124.183       3.5337500      -1.1312500     -0.73325000       341.74200       1.9105424    0.0086985344
       3352.0000       288.84497       98904.049       14067.723       4.6092500      -1.0952500       1.6517500       341.69700       1.9059078     0.010188125
       3357.0000       288.90486       98886.082       14047.110       6.0442500      -1.3450000      0.30050000       341.15100       1.9044519    0.0098917906
       3362.0000       288.91215       98883.569       14007.154       4.0830000     -0.49525000      0.57250010       341.96400       1.9156379    0.0098811269
       3367.0000       288.86568       98883.590       13924.717       3.9980000     -0.58750000      0.11875000       341.55400       1.8880000    0.0095052937
       3372.0000       288.84536       98883.959       13883.817       3.6750000     -0.34400000    0.0082500000       341.58600       1.9482253     0.011464537
       3377.0000       288.80958       98901.557       13864.587       4.0370000     -0.51575010      0.42525000       341.75300       1.9054439    0.0092890017
       3382.0000       288.79054       98903.957       13852.878       3.7482500      -1.0312500     -0.29000000       341.77000       1.9085113    0.0093237820
       3387.0000       288.80011       98885.870       13864.387       4.7730000     -0.42975000      -1.0687500       341.29900       1.9411433     0.010641433
       3393.0000       288.80006       98883.218       13886.742       4.6035000     -0.76200000     -0.14150000       341.52200       1.9076529     0.010350334
       3398.0000       288.78702       98881.646       13903.844       4.3247500      -1.3882500      0.44625000       341.88800       1.9141625    0.0096583394
       3403.0000       288.80108       98884.229       13948.015       6.0567500      -1.0227500     -0.23300000       341.33900       1.9272619     0.010491016
       3408.0000       288.85109       98907.800       14038.620       3.2627500     -0.92225000      0.36750000       341.44200       1.9167874    0.0089842068
       3413.0000       288.85739       98909.237       14087.114       5.7752500      -2.8845000     -0.26325000       341.06500       1.9021803    0.0086973274
       3418.0000       288.86978       98890.323       14153.539       4.8852500     -0.70350000      0.11925000       341.76100       1.9130039    0.0090151557
       3423.0000       288.85245       98887.941       14168.811       3.6647500     -0.51125000       1.8342500       341.79000       1.9275868    0.0090124169
       3428.0000       288.76634       98883.537       14117.637       4.7300000     -0.98825000     -0.72375010       341.55400       1.9101469    0.0087274058
       3433.0000       288.73054       98883.060       14097.105       4.0812500     -0.43300000       1.1467500       341.57700       1.8958970    0.0093035222
       3438.0000       288.70492       98902.573       14058.441       2.9565000     -0.57400000      0.37100000       341.75800       1.9278123    0.0091461936
       3443.0000       288.68857       98903.287       14034.777       4.1132500     0.012500000   -0.0057500000       341.59100       1.9078603    0.0093233442
       3448.0000       288.71322       98883.763       14049.721       2.7760000     -0.72400000     -0.11575000       341.86200       1.9275166     0.010156788
       3453.0000       288.69918       98883.269       14016.437       1.2247500      -2.1640000      0.87800000       342.16200       1.9003603     0.010798115
       3458.0000       288.64938       98887.170       13936.163       4.5390000      -2.3180000      0.10800000       341.70100       1.9289257     0.010835544
       3463.0000       288.64326       98890.345       13904.413       4.1945000      0.58700000     -0.41825000       341.43400       1.9246150     0.010019262
       3468.0000       288.64390       98913.579       13867.074       4.9877500      -1.3017500     -0.88100000       341.70300       1.9219822    0.0097391961
       3473.0000       288.64756       98914.795       13848.275       5.3235000      -3.2485000     -0.21350000       341.56600       1.8995296    0.0094598775
       3478.0000       288.70825       98891.115       13894.703       4.2952500     -0.89625010      0.15250000       341.78500       1.8833797     0.010400233
       3484.0000       288.70849       98886.925       13884.571       4.1232500      -1.5285000     0.070250000       341.68200       1.9250036    0.0090297515
       3489.0000       288.64720       98881.659       13823.733       3.7300000      -2.3075000      0.35700000       341.50400       1.9280592     0.010390724
       3494.0000       288.64355       98883.907       13823.688       5.8395000      -3.4132500     -0.20975000       341.24000       1.9134833    0.0083834655
       3499.0000       288.63252       98908.789       13818.215       4.6707500      -1.6390000      0.45050000       341.54900       1.8777505    0.0089146813
       3504.0000       288.65531       98908.472       13858.126       2.9380000      -1.5597500     -0.16750000       341.64100       1.9406126    0.0088827529
       3509.0000       288.72006       98889.641       13956.476       4.1802500      -4.3440000     -0.82775000       341.42600       1.9112124    0.0092099156
       3514.0000       288.78629       98887.808       14042.875       4.4825000      -1.6802500    -0.033500000       341.57600       1.9095524    0.0098104406
       3519.0000       288.87290       98882.072       14144.438       2.0317500      0.28650000      0.39075000       341.81700       1.9299636    0.0087392233
       3524.0000       288.94235       98884.215       14246.754       5.1185000     -0.82225010     -0.64275000       341.24900       1.9229123    0.0087529584
       3529.0000       289.05183       98908.527       14399.455       5.1665000      0.50275000     -0.31450000       341.21300       1.9108911    0.0090553891
       3534.0000       289.08335       98908.142       14457.310       3.5850000      -1.3265000     0.030000000       341.59300       1.9226066    0.0090753993
       3539.0000       289.04642       98890.236       14473.969       3.3035000      -2.0392500      0.32450000       341.50900       1.9034884    0.0098721326
       3544.0000       289.05644       98888.465       14482.423       2.8847500     -0.96275000     0.069750000       341.63800       1.9228176    0.0095128543
       3549.0000       289.02085       98882.302       14401.402       4.5797500     0.058250000      0.12025000       341.71400       1.9058341    0.0088454329
       3554.0000       289.05962       98884.421       14400.497       4.5025000     -0.26225000    -0.026500000       341.50000       1.9220269     0.010091496
       3559.0000       289.20723       98908.927       14462.423       3.7410000    -0.024250000      0.26725000       341.64400       1.9591678    0.0097230916
       3564.0000       289.22905       98908.713       14456.676       2.5172500       1.1357500       1.5997500       342.05800       1.9362154     0.010860686
       3569.0000       289.20293       98888.860       14444.345       3.6357500     -0.42850000      0.19925000       341.90800       1.9125681    0.0092889280
       3575.0000       289.20573       98889.143       14410.192       4.6137500     -0.90275000    -0.022250000       342.04400       1.9232741    0.0089493367
       3580.0000       289.13909       98887.037       14325.547       4.5235000       1.1467500    -0.055750000       341.47400       1.9271594    0.0091437723
       3585.0000       289.13720       98890.685       14289.693       4.8632500     -0.24900000     -0.95175000       341.81600       1.9023126    0.0086510201
       3590.0000       289.18539       98914.957       14263.353       5.7247500      -2.2435000    -0.027000000       341.28500       1.9369592    0.0084534106
       3595.0000       289.23462       98911.972       14266.503       4.6350000     -0.79600010     -0.51150000       341.71900       1.9359197    0.0090702506
       3600.0000       289.29381       98887.936       14283.456       2.8712500     -0.34575000      0.91075000       341.73400       1.9128194    0.0084933913
       3605.0000       289.33385       98887.435       14325.733       3.2310000   -0.0097500000      0.54650000       341.86200       1.9091647    0.0089266911
       3610.0000       289.40641       98888.500       14411.281       5.0832500     -0.25125000     -0.29600000       341.50000       1.9164742    0.0092511433
       3615.0000       289.42849       98890.189       14469.505       5.7655000      0.46275000     -0.10650000       341.58200       1.9680077     0.010149182
       3620.0000       289.40952       98909.637       14550.467       6.8075000     -0.14700000     0.051500000       341.39300       1.9504589    0.0081731393
       3625.0000       289.39121       98906.637       14577.203       4.3380000     0.090750000      0.98050000       341.94200       1.8994734    0.0088956370
       3630.0000       289.34546       98882.562       14567.149       3.7490000      -1.0502500      0.65600000       341.60000       1.9493620    0.0090659087
       3635.0000       289.34431       98882.923       14580.812       3.1587500       1.1762500     -0.15000000       341.78200       1.9293568    0.0089941818
       3640.0000       289.34373       98890.327       14577.973       3.8187500      0.66450010      0.43975000       341.85800       1.9157103    0.0093125361
       3645.0000       289.35258       98889.201       14576.193       2.7692500      0.60075000     -0.44550000       342.09200       1.9076800    0.0092492998
       3650.0000       289.40346       98895.578       14593.078       4.3732500     -0.23700000      0.21150000       341.75400       1.8932489    0.0090959060
       3655.0000       289.41493       98897.797       14582.675       5.6700000      0.29850000      0.13050000       341.34400       1.9257466    0.0086655335
       3660.0000       289.39074       98887.781       14537.889       4.8975000     -0.43175000     -0.25375000       342.18400       1.9207015    0.0091654093
       3666.0000       289.41421       98891.341       14520.507       4.5677500      0.69300000     -0.28875000       341.73600       1.9108495    0.0092632831
       3671.0000       289.44367       98909.231       14500.659       3.2402500     -0.50400000      0.43975000       342.86100       1.9078477    0.0090791074
       3676.0000       289.48570       98904.361       14538.843       3.0115000     -0.75675000    -0.063250010       342.83900       1.9087157    0.0089398420
       3681.0000       289.58006       98888.373       14623.154       2.6055000      0.39850000      0.36125000       342.27200       1.8796510     0.010627858
       3686.0000       289.46272       98888.471       14648.534       4.1405000      0.88425000     -0.57100000       342.20400       1.9097603    0.0091458048
       3691.0000       289.40321       98887.983       14637.011       3.6940000     -0.11400000      0.39750000       342.61200       1.9240226     0.010834364
       3696.0000       289.25841       98910.483       14508.191       2.9770000     -0.39550000     0.092750010       342.39900       1.8977234    0.0095698613
       3701.0000       289.17481       98915.359       14426.575       3.0907500     0.024500000      0.56375000       342.68200       1.9170763     0.010585341
       3706.0000       289.18508       98892.428       14345.159       2.1497500     -0.93875000      0.62250000       342.75900       1.9131755     0.010924750
       3711.0000       289.19367       98888.003       14292.351       4.0992500     -0.67875000      0.40575000       342.52400       1.9437779    0.0098189813
       3716.0000       289.21454       98888.508       14261.786       4.0337500       2.3187500     -0.52575000       342.54100       1.8985755     0.011077475
       3721.0000       289.24299       98889.506       14250.057       4.5015000      0.16925000     0.027000000       341.87700       1.9033385     0.010171120
       3726.0000       289.28487       98887.707       14273.542       4.4862500     -0.32700000     -0.81900010       341.76200       1.9261494     0.011610350
       3731.0000       289.36179       98898.288       14335.937       2.9320000      -1.0807500      0.71225010       342.65900       1.9352626     0.012475655
       3736.0000       289.36909       98875.786       14403.106       2.6682500      0.35575000     -0.31025000       342.57000       1.8971383     0.011304830
       3741.0000       289.36176       98870.673       14430.259       2.6690000     -0.51400000     -0.34250000       341.96700       1.9388040     0.010868843
       3746.0000       289.23987       98888.372       14375.130       1.9530000  -0.00050000000      0.58150010       342.70300       1.9147781     0.011647759
       3751.0000       289.22521       98891.590       14378.818       3.5207500      0.65175000    -0.053250000       342.01000       1.9013633     0.010810284
       3757.0000       289.29475       98893.791       14398.688       4.0670000      -1.5020000     -0.15125000       341.89500       1.9375013     0.010788897
       3762.0000       289.34763       98897.615       14428.073       2.4307500      0.89625010      0.34675000       342.18900       1.9183561    0.0094855127
       3767.0000       289.51750       98888.596       14509.214       3.1067500      -1.0045000      0.54100000       342.45300       1.9144987     0.011819880
       3772.0000       289.58259       98888.030       14577.362       5.5765000      0.67650000      -1.1060000       341.91800       1.9338634     0.010429325
       3777.0000       289.55571       98907.510       14656.276       3.8337500      0.39450000    -0.053750000       341.99500       1.9297689     0.010507547
       3782.0000       289.55435       98908.879       14703.606       5.1622500     -0.43600000     -0.47300000       342.03300       1.9234896    0.0088321416
       3787.0000       289.50961       98889.920       14757.611       5.5907500      -1.4580000     -0.26400000       341.89100       1.9310402    0.0097361474
       3792.0000       289.49140       98888.356       14774.387       3.4492500     -0.27200000      0.49425000       342.01600       1.9210037    0.0097248336
       3797.0000       289.52862       98889.305       14731.952       3.6272500      0.17500000      0.24125000       341.87600       1.9201124     0.010692831
       3802.0000       289.50642       98888.710       14706.955       4.4532500      -1.2012500     -0.37100000       341.96500       1.9357635     0.010401319
       3807.0000       289.43385       98906.100       14692.157       4.6050000     -0.18650000     0.031000000       341.43000       1.9101336    0.0094403360
       3812.0000       289.39391       98909.345       14640.199       3.8885000     -0.48800000      0.16100000       341.94400       1.9340445    0.0091410091
       3817.0000       289.36320       98890.225       14589.491       4.9682500      0.25875000    -0.082000000       341.17200       1.9498744     0.011222743
       3822.0000       289.29160       98887.663       14497.451       5.1767500       1.0150000     -0.45575000       341.48500       1.9268222    0.0096234773
       3827.0000       289.16751       98898.131       14317.027       5.4170000     -0.18650000    -0.042250000       341.93600       1.8997652     0.010464231
       3832.0000       289.12874       98895.933       14195.165       5.0530000      0.10475000     -0.12250000       341.62400       1.9135160     0.011193999
       3837.0000       289.09699       98889.484       14068.848       5.4342500      -1.5302500    -0.046750000       341.78800       1.9067729    0.0098158614
       3842.0000       289.08088       98890.491       13973.005       4.3627500     -0.90250000     -0.69375000       341.72200       1.9011553     0.010120177
       3848.0000       289.19052       98883.439       13896.106       3.5177500     -0.58550000     -0.27025000       341.68700       1.9041623     0.011070292
       3853.0000       289.22273       98883.018       13864.836       3.6035000      -1.1482500      0.24700000       341.83800       1.9444852     0.010784859
       3858.0000       289.17468       98902.640       13836.008       2.8650000      -1.0055000      0.16600000       342.23100       1.9141336     0.011146562
       3863.0000       289.20260       98903.425       13873.855       2.0137500      -1.5915000     0.079250000       342.05400       1.9245910     0.010914404
       3868.0000       289.27772       98883.475       13994.536       3.1995000      -1.0545000    -0.011000000       341.86600       1.8911774     0.010884169
       3873.0000       289.31811       98882.913       14089.129       1.4405000      -1.4505000      0.27975000       342.24100       1.9471105     0.011585400
       3878.0000       289.39072       98892.279       14237.076       2.6655000     -0.12675000      0.46750000       342.31300       1.9319116     0.011056547
       3883.0000       289.42277       98889.917       14336.442       3.5822500      -2.1142500      0.50375000       342.11500       1.9032434     0.010138448
       3888.0000       289.38709       98889.168       14393.657       2.1557500      -1.6932500     -0.15575000       342.00100       1.9205468     0.010173429
       3893.0000       289.40071       98891.786       14473.043       4.0565000     -0.79400000     -0.25650000       342.05700       1.9310820     0.011600093
       3898.0000       289.46347       98883.433       14597.785       2.6585000    -0.070250000      0.12875000       342.35200       1.9042667     0.010293394
       3903.0000       289.45556       98882.994       14620.458       2.1132500      -1.1895000      0.57525000       342.53000       1.9312686    0.0097356635
       3908.0000       289.40614       98901.154       14592.216       2.2857500      -1.1580000    -0.087500010       342.30700       1.9152331     0.010283134
       3913.0000       289.39642       98903.312       14565.693       3.3190000      -1.9182500     -0.95275000       341.82900       1.8954743     0.010521407
       3918.0000       289.34780       98888.691       14437.555       3.5627500      -1.9185000     -0.14750000       341.90600       1.9504909     0.011473643
       3923.0000       289.33469       98888.726       14379.803       2.2042500      -2.1015000     -0.59725000       341.63700       1.9276885     0.010713002
       3928.0000       289.39507       98897.857       14371.193       4.0830000       1.1742500      0.23725000       342.15700       1.9493008     0.011848791
       3933.0000       289.41122       98895.114       14354.184       4.8447500     -0.93925010     -0.13725000       341.52300       1.9373811     0.011065076
       3939.0000       289.38867       98889.969       14324.188       4.3742500     -0.54125010     0.077250000       341.17300       1.9055203     0.010311626
       3944.0000       289.40526       98890.848       14350.092       3.5310000      -2.2892500     0.095500010       341.61400       1.9265174     0.010341541
       3949.0000       289.44221       98883.318       14420.012       3.3450000      -1.5877500    -0.058500000       341.91600       1.9385251     0.010548605
       3954.0000       289.46235       98883.803       14467.590       3.8887500      0.23450000      0.72175000       342.43800       1.9233115    0.0094215846
       3959.0000       289.51092       98903.452       14563.883       4.3412500      -1.4597500      0.25325000       341.46400       1.9128639     0.010267407
       3964.0000       289.50874       98902.757       14593.273       3.4915000      -1.8265000    -0.084250000       341.77100       1.8833601     0.010037884
       3969.0000       289.45803       98883.266       14570.957       3.7212500      -2.2787500     -0.41900000       341.53600       1.9369648     0.011880447
       3974.0000       289.43818       98883.834       14567.676       3.1852500      -1.8852500    -0.033500000       341.62500       1.9057651     0.010459483
       3979.0000       289.40087       98891.880       14538.094       3.1612500      -1.1620000     -0.41350000       342.16700       1.8907434     0.010818329
       3984.0000       289.38725       98889.316       14530.962       1.7415000      -1.3762500     0.087000000       342.46700       1.9305258     0.010288598
       3989.0000       289.42373       98889.917       14553.437       2.7505000      -1.1947500     -0.53000000       341.75400       1.9643792     0.011511680
       3994.0000       289.39098       98892.196       14531.743       2.7087500      -1.4870000     -0.40525000       342.20100       1.9344561     0.011630865
       3999.0000       289.31596       98883.334       14492.480       3.4772500      -2.0132500     -0.13475000       341.95900       1.9626322     0.012145988
       4004.0000       289.27580       98883.780       14453.794       5.5185000      -2.9082500      0.60350000       342.05900       1.8950314     0.011012920
       4009.0000       289.20097       98902.298       14391.137       3.4132500      -2.2085000    -0.031500000       342.13200       1.9151413     0.010655893
       4014.0000       289.17301       98903.247       14333.304       3.9012500      -1.9477500    -0.035250000       342.16900       1.9254613     0.012728542
       4019.0000       289.19983       98888.642       14270.704       3.7452500      -1.2335000      0.40875000       342.56900       1.9345497     0.012348024
       4025.0000       289.19969       98890.151       14218.958       3.2542500     -0.46400000     -0.21525000       342.06400       1.9443826     0.010116458
       4030.0000       289.19042       98896.849       14148.154       3.9325000     -0.12075000      0.44150000       342.28900       1.8982940     0.010790583
       4035.0000       289.20925       98893.009       14163.435       5.5630000       1.9792500    -0.066250000       342.05200       1.9304010     0.010320138
       4040.0000       289.26341       98889.986       14261.106       3.0582500     -0.58175000      0.91325000       342.66900       1.8999986     0.011837761
       4045.0000       289.24569       98891.039       14265.139       4.3202500     -0.86075000      0.22375000       342.21300       1.8920004     0.011224075
       4050.0000       289.20076       98883.027       14266.437       3.9372500     -0.67775010      0.21500000       342.14500       1.9127748     0.011800839
       4055.0000       289.19063       98884.502       14278.473       4.5397500    -0.092750010     -0.34575000       342.18100       1.9449635     0.012019241
       4060.0000       289.13933       98903.747       14221.527       4.9042500      -1.5822500     -0.43100000       341.69600       1.9175173    0.0091252099
       4065.0000       289.13674       98901.410       14257.295       5.5330000      -1.6427500      0.30975000       341.76500       1.8916828     0.010351184
       4070.0000       289.21203       98883.000       14404.480       3.8107500     -0.96825000      0.85875000       341.76500       1.9128449    0.0093888356
       4075.0000       289.20469       98884.475       14414.291       3.4885000     -0.92875000      0.52425000       342.20500       1.9203141     0.012433856
       4080.0000       289.14534       98891.064       14378.812       4.4710000      0.24625000     -0.27250000       341.51600       1.9498536     0.011102258
       4085.0000       289.14395       98888.177       14368.550       4.3587500    -0.020750000      0.41750000       341.77800       1.9190764    0.0094091863
       4090.0000       289.13457       98889.243       14291.004       3.2822500     -0.82175000      0.66600000       342.01700       1.9314182     0.013022225
       4095.0000       289.16205       98893.273       14293.922       1.1525000     -0.98225000      0.58675000       342.43200       1.9230702     0.010734798
       4100.0000       289.26782       98891.305       14372.572       3.2625000     -0.52725010      0.85025010       342.28500       1.9093328     0.010396646
       4105.0000       289.26200       98887.296       14384.364       3.8257500     -0.60725000     -0.29500000       341.94100       1.9088809     0.011082441
       4110.0000       289.21165       98892.309       14385.676       3.9797500      -2.8607500      -1.1705000       341.36500       1.9339531     0.010784502
       4116.0000       289.17629       98889.943       14377.912       3.1182500     -0.88725010     -0.20975000       342.12300       2.0336382     0.013772429
       4121.0000       289.08726       98870.797       14353.526       4.6505000      -2.3517500      0.20925000       341.59000       1.9478998     0.012545683
       4126.0000       289.07001       98875.886       14307.608       3.2495000     -0.88850000      0.45250000       342.26900       1.9386053    0.0085444316
       4131.0000       289.10000       98898.319       14245.107       5.0382500      -1.5220000      0.86850010       342.19400       1.9130506     0.011110228
       4136.0000       289.08533       98887.737       14173.252       3.6200000      -1.3467500      -1.0487500       341.88100       1.9407110     0.010540864
       4141.0000       289.09396       98889.525       14153.208       3.1605000      -4.7250000     0.085250010       342.05000       1.9276835     0.010608396
       4146.0000       289.14543       98894.267       14244.010       5.4427500      -2.3635000      0.46550000       341.96300       1.9239325     0.012296457
       4151.0000       289.15655       98890.320       14266.741       4.2100000      -1.2032500     -0.46100000       342.11700       1.9246484     0.010945156
       4156.0000       289.17029       98886.310       14290.616       2.7685000      -3.4730000      -1.6440000       341.54300       1.9422469     0.011982271
       4161.0000       289.16305       98890.280       14284.539       5.5280000      -3.6915000     0.072750000       341.52400       1.9280257     0.011178254
       4166.0000       289.13117       98894.251       14244.060       4.0287500      -1.7340000    -0.082000000       341.23100       1.9021650    0.0096755845
       4171.0000       289.04497       98888.101       14132.988       3.3897500      -1.3840000     -0.26650000       341.34800       1.9408762    0.0097667250
       4176.0000       289.01615       98890.589       14087.342       3.0932500      -1.8135000      0.18500000       341.82200       1.9155728     0.011638830
       4181.0000       288.99436       98908.956       14048.025       2.6687500      -2.3982500     0.081000000       341.94000       1.9051675     0.010412167
       4186.0000       288.98527       98891.257       14012.391       3.2652500      -1.4880000      0.48525000       342.21600       1.9401845     0.010942374
       4191.0000       288.99381       98887.604       13992.642       4.7387500      -2.1790000     -0.43600000       341.62400       1.9016733    0.0097254919
       4196.0000       289.04537       98898.204       13960.263       3.3562500     -0.44375000     -0.44500000       342.07800       1.8978294     0.010103513
       4201.0000       289.05673       98896.444       13963.494       3.3772500     -0.86100010     0.073250000       341.91000       1.9247186    0.0099683069
       4207.0000       289.07196       98888.102       14066.159       3.0827500      -1.0162500     -0.47225000       341.79600       1.9194156    0.0099928134
       4212.0000       289.05917       98890.171       14075.950       4.1070000     -0.49775000     -0.65125000       341.73800       1.9431116     0.010973051
       4217.0000       288.97653       98893.533       14058.739       2.5507500       1.0102500      0.38825000       341.93500       1.9200995     0.010741326
       4222.0000       288.93794       98889.482       14033.228       5.6742500      -2.0520000     -0.58375000       341.72600       1.9476928     0.012551450
       4227.0000       288.89530       98886.877       13907.810       5.0015000      -1.9555000     0.012500000       341.61600       1.9159366     0.010256576
       4232.0000       288.88745       98890.814       13854.056       4.1112500      -1.1070000      0.15925000       341.77500       1.9250960    0.0099546201
       4237.0000       288.90584       98892.160       13832.281       2.6515000     -0.29125000   -0.0080000000       341.90200       1.9518923     0.013334484
       4242.0000       288.94811       98889.374       13838.122       4.8765000      0.65675000    -0.075000000       341.79800       1.9120234    0.0098651623
       4247.0000       289.05822       98893.188       13892.333       4.8712500      -1.1762500      0.98600010       341.68900       1.9347228    0.0090495029
       4252.0000       289.11659       98896.882       13941.059       4.3425000      -1.4505000     -0.11900000       341.43000       1.9175158     0.012036674
       4257.0000       289.18047       98892.668       14008.166       4.2255000      -1.2362500     0.021250000       341.80900       1.9033640    0.0097492368
       4262.0000       289.21779       98888.750       14085.757       2.4822500      -1.2067500      0.37550000       342.00200       1.9110372     0.010635128
       4267.0000       289.21433       98892.857       14193.251       2.5427500    -0.027750000      0.48275000       341.99000       1.9267925    0.0089530562
       4272.0000       289.20321       98891.540       14265.293       1.9672500      -4.0865000     -0.51725000       341.41900       1.9202026     0.010520865
       4277.0000       289.13720       98873.048       14323.300       4.5055000      -4.5162500      0.13050000       341.64400       1.9601329     0.012660613
       4282.0000       289.13903       98871.612       14389.466       4.6130000      -2.8115000     -0.50250000       341.44000       1.9595165     0.011104674
       4287.0000       289.22028       98890.567       14499.642       2.4020000     -0.96250000      0.18125000       341.64200       1.9312989    0.0094777371
       4292.0000       289.20769       98892.157       14495.750       3.4962500      -1.6502500      0.30625000       341.56000       1.9547724     0.010975493
       4298.0000       289.16533       98888.110       14403.864       2.9902500      -2.3210000      0.11250000       341.68200       1.9199409     0.010247537
       4303.0000       289.15128       98892.135       14351.143       2.5637500     -0.94850000      0.13075000       341.78800       1.9279556     0.010894349
       4308.0000       289.05401       98888.933       14202.798       1.8890000     -0.93650010     0.037000000       341.86100       1.9241333    0.0097653911
       4313.0000       289.02498       98889.035       14120.574       2.8085000     -0.69075010     0.057750000       341.70700       1.9499908     0.011326603
       4318.0000       289.08230       98904.386       14103.653       3.6147500      -1.7600000      0.33825000       341.87700       1.9443427     0.011117559
       4323.0000       289.11231       98908.886       14083.271       3.2757500    -0.081500000     -0.15650000       341.83600       1.9180578     0.011863393
       4328.0000       289.11250       98899.633       14019.108       3.5405000      -2.1807500     -0.22000000       341.66600       1.9849254     0.011272330
       4333.0000       289.15985       98899.474       14049.107       4.0977500      -1.0317500     -0.59025000       341.53400       1.9538386     0.012770115
       4338.0000       289.27105       98907.894       14180.463       3.1347500      -1.7822500      0.24150000       341.86600       1.9513401     0.011080173
       4343.0000       289.32711       98905.751       14261.854       2.8475000      -1.2400000     -0.74650000       341.98500       1.9653765     0.011583881
       4348.0000       289.38935       98894.554       14377.410       2.4552500      -1.3195000    -0.077500000       341.87000       1.9178523    0.0098923315
       4353.0000       289.42145       98894.316       14472.010       3.3222500     -0.42325000      0.16750000       342.20600       1.9347240     0.010501198
       4358.0000       289.42563       98898.542       14550.928       1.9577500   -0.0070000000      0.42525000       342.31900       1.9181182     0.010814845
       4363.0000       289.39803       98894.166       14601.252       3.5190000     -0.33950000    -0.097250010       341.90300       1.9341524     0.011478721
       4368.0000       289.33576       98888.150       14686.518       2.7640000     -0.47550000    -0.083500010       342.03900       1.9485334     0.011333729
       4373.0000       289.28206       98890.457       14671.532       1.9037500     -0.14100000     0.038000000       342.17500       1.9142189     0.012199747
       4378.0000       289.15868       98891.529       14528.947       3.3125000     -0.27550000     0.094250000       341.55200       1.9631502     0.011116234
       4383.0000       289.12024       98888.981       14467.145       2.0885000      0.43875000     -0.18950000       341.99100       1.9532574     0.010708438
       4389.0000       289.11917       98894.278       14340.721       3.8400000    -0.098500010     -0.22800000       341.81800       1.9383668     0.011834141
       4394.0000       289.15897       98898.632       14319.925       2.1707500     -0.57075000     -0.46900000       342.05200       1.9285529    0.0097352337
       4399.0000       289.30511       98894.216       14417.122       2.3725000      -1.1485000      0.40600000       342.21500       1.9249090     0.013245493
       4404.0000       289.32622       98894.405       14408.235       3.2117500     -0.70575000     -0.34750000       341.59800       1.9472465     0.010774153
       4409.0000       289.30188       98908.037       14392.562       3.1707500     -0.38425000      0.15450000       341.86600       1.9205961     0.011413594
       4414.0000       289.30550       98906.932       14348.416       3.7142500      -1.1375000     0.072250000       341.90700       1.9292473     0.010810337
       4419.0000       289.22144       98889.822       14190.042       2.6625000     -0.88375000     -0.17350000       342.17500       1.9076685     0.011432598
       4424.0000       289.24677       98887.822       14180.654       3.5395000      -1.7725000     -0.61225000       341.55300       1.9382136     0.011323226
       4429.0000       289.37185       98891.221       14240.495       4.7447500      -2.1820000    -0.062500000       341.84500       1.9314046    0.0096079857
       4434.0000       289.44130       98889.266       14285.306       4.6675000     -0.39750000    -0.068250000       341.81500       1.9026949     0.011740639
       4439.0000       289.52786       98888.415       14381.261       3.9207500     -0.42350000      0.21625000       342.13500       1.9413347     0.010308642
       4444.0000       289.59166       98892.053       14497.910       2.9695000      -2.3090000     -0.53875010       341.74700       1.9401241     0.011391159
       4449.0000       289.64105       98897.524       14625.105       4.0120000      -1.2960000     -0.14800000       341.63400       1.9599926     0.012907204
       4454.0000       289.67521       98894.242       14743.566       2.8185000     -0.20925000      0.27325000       341.94100       1.9608348     0.010753919
       4459.0000       289.71120       98888.502       14953.247       3.8052500      -1.0770000     0.088250000       341.76100       1.9464172     0.011351384
       4464.0000       289.70935       98891.082       15032.717       3.3435000      0.31150000      0.36175000       341.66700       1.9432396     0.012026610
       4469.0000       289.65834       98891.936       15039.304       3.1160000      -2.1922500     -0.50950000       341.80900       1.9507550    0.0099950895
       4474.0000       289.63872       98888.009       15012.173       1.9910000      -2.3600000      0.43600000       342.62600       1.9110129     0.010546263
       4480.0000       289.57833       98889.607       14876.920       2.2367500      -1.7805000      0.21850000       342.72200       1.9302731    0.0095360806
       4485.0000       289.60551       98893.569       14814.981       1.9942500      -2.4702500       1.0007500       342.27000       1.9201535     0.010784879
       4490.0000       289.70104       98890.234       14726.602       2.9072500      -2.9837500      0.43775000       342.25200       1.9204499    0.0093953605
       4495.0000       289.72230       98888.068       14676.930       2.0012500      -3.3890000      0.54550000       342.06400       1.9928130     0.015226579
       4500.0000       289.75029       98894.884       14658.274       1.9017500      -2.3667500      0.31250000       342.06300       1.9224490     0.010360750
       4505.0000       289.77135       98898.999       14647.414       1.6440000      -2.7962500     -0.65900000       341.61500       1.9748906     0.013113572
       4510.0000       289.73445       98895.883       14649.299       1.9710000      -3.1177500     0.057000000       341.87000       1.8714770     0.010771485
       4515.0000       289.76203       98892.920       14651.837       3.0947500     -0.96250000     -0.33650000       342.17200       1.9217041     0.010661694
       4520.0000       289.83101       98894.681       14654.879       3.3550000      -1.7560000     -0.31250000       342.66900       1.9331032     0.010302169
       4525.0000       289.89926       98897.644       14713.221       3.4425000     -0.88625000      0.27850000       342.48900       1.9380930     0.010723763
       4530.0000       290.00266       98895.881       14783.881       2.8077500     0.079750000      0.88075010       343.23100       1.9163275     0.012480476
       4535.0000       290.03532       98892.972       14889.027       4.7402500     -0.40175000      0.31800000       342.97700       1.9084370     0.012578987
       4540.0000       290.06774       98895.415       15078.106       3.9950000     -0.60425000      0.21800000       342.95100       1.8946074     0.010991484
       4545.0000       290.05173       98896.603       15180.059       2.9645000      -1.8672500     -0.78450010       341.39900       1.8878135     0.010746843
       4550.0000       289.96786       98888.477       15292.433       6.0707500     -0.58050000     -0.25900000       342.46500       1.8943951     0.013236434
       4555.0000       289.89918       98889.000       15288.360       4.2455000      0.37175000      0.22825000       342.07900       1.9756363     0.011925305
       4560.0000       289.79609       98901.044       15207.124       3.1072500     -0.58875000      0.13175000       342.33200       1.9092420     0.010395157
       4565.0000       289.76379       98903.350       15122.969       3.1882500     -0.63700000     -0.39325000       342.75100       1.9273531     0.012990324
       4571.0000       289.74334       98900.294       14925.346       3.3555000     -0.78500000      0.28575000       342.69900       1.9251215     0.012668247
       4576.0000       289.72491       98900.255       14816.039       3.0307500      0.63350000     0.045500000       342.67500       1.8847214     0.011768224
       4581.0000       289.74994       98902.200       14710.166       2.6215000      0.17900000     0.015000000       342.88700       1.8936246    0.0096348045
       4586.0000       289.76022       98885.140       14662.267       2.6875000     -0.39550000     -0.31400000       342.45800       1.9555309     0.014163771
       4591.0000       289.75030       98882.521       14600.869       3.6207500     0.092500000      0.37300000       342.03200       1.8991782     0.011851940
       4596.0000       289.77017       98892.874       14574.453       4.2657500     -0.95525000       1.1447500       342.97300       1.9207090     0.012021856
       4601.0000       289.76242       98891.012       14523.848       2.1805000      -1.1135000     0.065500010       342.67800       1.8831273     0.011816869
       4606.0000       289.68524       98886.279       14413.332       2.6892500      0.95675000      0.25100000       342.31100       1.8968365     0.011280246
       4611.0000       289.64443       98890.261       14354.449       1.8587500     -0.48475000      0.22250000       342.98700       1.9368434     0.013877548
       4616.0000       289.61596       98894.271       14316.753       2.9822500     -0.91600010      0.23975000       342.26800       1.8957234     0.011234243
       4621.0000       289.60107       98890.093       14287.915       4.8567500      0.95425000     -0.14525000       341.55200       1.9263695     0.011449777
       4626.0000       289.57109       98886.132       14282.885       3.2820000    -0.015000000     0.084750000       342.12600       1.9460286     0.011363337
       4631.0000       289.56243       98890.049       14332.946       2.0767500      -1.6327500      0.26250000       342.87600       1.9152069     0.011461007
       4636.0000       289.45393       98894.452       14265.032       2.6727500    -0.021000000      0.41025000       342.47100       1.9068129     0.010278361
