MIRICO/SHELL project - Processed LDS file generated on
Sun Jul 23 22:16:17 2017
Time stamp for record start
05/12/2017  12:01:14.0000
Nb of points in the record
         918
Beam position index
       5.0000000
Beam angle (degrees)
       8.5250000
Open Path length (m)
       83.010000
****************** Temporal data record ************************
Elapsed time   Temp   Press   Humidity   Wind X   Wind Y   Wind Z   Speed of sound   CH4 vmr   CH4 vmr error  
Seconds   Kelvin   Pa   ppmv   m/s   m/s   m/s   m/s   ppmv   ppmv  
      0.00000000       287.83724       98877.638       14123.168       3.1405000     -0.86375000      0.72400000       341.11300       1.8840166     0.012000793
       5.0000131       287.81311       98867.755       14066.607       4.3415000      -1.3190000     -0.69150000       341.06800       1.8759065     0.015009253
       9.9999860       287.85202       98855.204       14022.686       3.2575000     -0.95575000     0.082250010       341.13100       1.8776805     0.016634745
       15.999994       287.85513       98843.317       13943.747       3.4227500     -0.18875000     0.016000000       341.15400       1.8803078     0.011579893
       21.000007       287.85647       98841.510       13890.814       3.5450000     -0.73150000      0.14100000       341.19400       1.9034594     0.012659152
       26.000020       287.84547       98847.063       13834.210       3.7757500      -1.1222500      0.75675000       341.29100       1.9308100     0.010663620
       30.999993       287.78785       98865.657       13734.306       3.3605000      0.36500000     -0.56050000       341.06300       1.8841362     0.014030152
       36.000006       287.80076       98872.599       13727.664       3.5367500     -0.40075000      0.49725000       341.10800       1.8886170     0.010766328
       41.000019       287.84979       98882.580       13773.359       3.4922500      -1.8667500     0.050500000       341.23800       1.9050005     0.011533730
       45.999992       287.89930       98875.737       13830.601       4.7855000     -0.43275000      0.37750000       341.09500       1.8562021     0.015209841
       51.000005       287.91211       98874.575       13859.161       2.9642500      -1.4527500      0.85425000       341.10000       1.8867597     0.016745840
       56.000018       287.85507       98876.387       13843.472       4.0907500     -0.79150000     -0.44150000       340.97500       1.9146471     0.012127653
       60.999991       287.84394       98875.427       13854.631       3.9867500    -0.074000000     -0.19675000       341.09600       1.8764499     0.014105993
       66.000004       287.84504       98874.439       13872.600       3.6917500      0.89775000     0.063000000       341.02500       1.8781127     0.016578152
       71.000017       287.84275       98877.511       13892.492       2.1665000     0.097250010      0.65050010       341.24700       1.9335756     0.010297778
       75.999990       287.85442       98872.069       13902.305       5.7250000     -0.65800010      0.57900010       341.07600       1.9220346     0.012575320
       81.000003       287.90603       98858.365       13931.786       2.2452500     -0.45275000     -0.29925000       341.16400       1.8863373     0.015438456
       86.000016       287.88544       98857.879       13886.923       6.4865000     -0.51775000      0.22950000       340.91900       1.9119069     0.013780664
       90.999989       287.89407       98858.468       13873.584       7.0530000      -2.2205000      0.68625000       340.96200       1.9212208     0.010848462
       96.000002       287.91533       98867.350       13857.907       6.7395010       1.0782500      -1.6390000       340.83300       1.9225972     0.013641173
       101.00002       287.94402       98875.255       13867.975       7.1192500     -0.37950000      0.22000000       340.81400       1.9278476     0.010020287
       107.00002       288.03881       98886.125       13950.991       6.9275000     -0.17125000     -0.13800000       340.73200       1.9158193     0.012776955
       112.00000       288.06638       98891.953       13979.632       5.6340000      0.51125000      0.37600000       340.91600       1.9039964     0.013102868
       117.00001       288.05735       98901.381       13990.980       4.4150000      0.33650000      0.63150000       341.02900       1.9146511     0.012598486
       122.00002       288.05606       98902.898       14009.202       5.7617500      -2.3455000     -0.12625000       340.83200       1.9046929     0.010234252
       127.00000       287.99610       98894.975       13979.986       5.1145000      -2.7355000      0.28800000       340.82800       1.8851308     0.019606371
       132.00001       287.98837       98889.880       13994.840       4.3480000      -1.1402500       1.4622500       341.02800       1.9121424    0.0098497884
       137.00002       288.04923       98881.646       14076.125       4.7272500      -1.7465000     -0.47725000       340.82800       1.9362643    0.0096449516
       141.99999       288.05854       98873.618       14106.945       4.1725000      -1.8932500    -0.033750000       340.90000       1.9291327     0.012981697
       147.00001       288.04210       98864.272       14113.861       4.0870000      0.70225000     -0.82650010       340.99000       1.8914008     0.010388183
       152.00002       288.05202       98858.377       14137.408       4.6722500      -1.4150000     -0.44575000       340.95200       1.9038566     0.012197397
       156.99999       288.02819       98849.267       14113.479       5.5025000      -1.4060000     0.065250000       340.86300       1.9245349     0.011891075
       162.00001       288.04095       98847.850       14142.058       4.1440000      0.29050000      0.21400000       340.99900       1.8986235     0.011317677
       167.00002       288.12414       98855.836       14242.905       4.6210000     -0.58325000     0.097250010       340.79600       1.9099119     0.010727822
       171.99999       288.16318       98861.038       14300.386       4.1077500     -0.31675000     -0.13150000       340.98500       1.8422729     0.013714997
       177.00001       288.19044       98868.997       14370.367       3.1572500     -0.31575000      0.46925000       341.14200       1.8957959     0.015290865
       182.00002       288.20944       98876.987       14411.106       5.8645000      0.46900000     -0.49825000       340.91400       1.9312149     0.013473497
       186.99999       288.17160       98886.294       14373.384       3.6372500     -0.47150000      0.18550000       341.19100       1.8723721     0.016351204
       192.00000       288.19408       98892.141       14404.231       3.0070000      0.20075000      0.68050000       341.17200       1.9031564     0.015001357
       198.00001       288.28912       98901.780       14485.174       5.0000000      0.28425000      0.32225000       341.07800       1.9064668     0.011992438
       203.00003       288.31527       98902.236       14536.419       4.1242500      -1.2402500     -0.36025000       340.94100       1.8939128     0.011027796
       208.00000       288.37984       98894.060       14674.773       3.5180000      -1.6007500      0.33200000       340.98700       1.9184396     0.012678173
       213.00001       288.36456       98888.590       14685.708       4.1332500      -1.0920000      0.23450000       341.01900       1.9265102     0.010825111
       218.00002       288.21713       98880.195       14573.447       3.7722500      0.25375000     0.023000000       341.07000       1.9139820     0.014550680
       223.00000       288.17456       98872.176       14538.381       4.6322500     -0.41200000     -0.42375000       341.23300       1.9144792     0.012759347
       228.00001       288.13580       98864.321       14461.270       4.7280000     -0.23925000     -0.34275000       340.87300       1.8945000     0.012830685
       233.00002       288.13662       98857.314       14429.795       4.1050000     -0.60075000     -0.45875000       340.93500       1.9251083     0.010886431
       238.00000       288.24630       98846.312       14497.351       3.1562500     -0.36275000    -0.071500000       341.17100       1.8615735     0.013626097
       243.00001       288.26864       98842.496       14484.686       2.6642500      -1.1080000    -0.082750010       341.31300       1.8972834     0.011598416
       248.00002       288.25816       98841.968       14424.160       2.8957500      -1.3005000      0.30100000       341.27600       1.8946762     0.010717071
       253.00000       288.25428       98845.219       14387.037       2.1122500     -0.94750010      0.55950000       341.37600       1.8974920     0.012569005
       258.00001       288.21799       98855.930       14323.234       1.4535000     -0.77600000      0.15325000       341.45700       1.9392674     0.014674594
       263.00002       288.18767       98862.904       14285.460       3.3647500     -0.59100000     -0.38975000       340.97500       1.8822954     0.016425597
       267.99999       288.17390       98870.600       14281.898       2.1407500      -1.1597500      0.36575000       341.30200       1.8948042     0.013832067
       273.00001       288.14010       98878.576       14256.546       3.3142500      -1.6322500      0.38425000       341.31700       1.8916392     0.014165907
       278.00002       288.05337       98890.203       14215.624       2.5240000      -1.6550000       1.3167500       341.41400       1.8974523     0.013692646
       282.99999       288.03112       98893.061       14194.388       2.7630000      0.37875000      0.83600000       341.49900       1.8709284     0.012304290
       289.00000       288.03117       98891.729       14157.757       3.4032500     -0.20950000    -0.018250000       341.33300       1.8629763     0.017862092
       294.00001       288.05320       98890.529       14166.081       4.0035000     -0.20675000      0.13975000       341.27200       1.8919755     0.012282149
       298.99999       288.15194       98880.564       14230.192       2.8207500      -1.1825000    -0.018000000       341.50900       1.8848748     0.012238228
       304.00000       288.16934       98877.870       14238.207       3.2232500    -0.042500000      0.41200000       341.37600       1.8856236     0.013339269
       309.00001       288.15726       98881.373       14250.406      -65.536000      -65.536000      -65.536000       307.23200       1.9082722     0.012879031
       313.99999       288.15132       98879.726       14238.892       2.8347500     -0.74500010      0.31150000       341.41700       1.9234605     0.012119824
       319.00000       288.08932       98878.167       14165.448       2.7325000      -1.2002500      0.38900000       341.42800       1.8798392     0.015601282
       324.00001       288.09147       98872.936       14149.022       2.8687500    -0.012000000     -0.19825000       341.26900       1.8704951     0.014651017
       329.00003       288.13091       98863.144       14157.714       2.7002500      -1.5465000     -0.18225000       341.42800       1.8777525     0.012756639
       334.00000       288.16694       98856.210       14159.914       2.0707500     -0.27150000      0.26375000       341.43500       1.8973240     0.014226202
       339.00001       288.24106       98845.171       14182.632       6.1217500      -3.0720000     -0.75325010       340.97800       1.9274633     0.012334091
       344.00003       288.27496       98842.072       14192.177       3.8992500      -1.7192500     -0.15375000       341.27000       1.8869562     0.012569459
       349.00000       288.27715       98844.639       14175.693      -65.536000      -65.536000      -65.536000       307.23200       1.8904162     0.017119045
       354.00001       288.32387       98845.316       14207.107       4.5252500      -1.8062500      0.39825000       341.29800       1.9194066     0.012162394
       359.00002       288.37426       98847.969       14256.994       3.0107500      -1.0535000     0.068750000       341.11700       1.9091109     0.011200629
       364.00000       288.43044       98852.585       14319.203       4.1922500     -0.92125000     -0.10575000       341.19300       1.9232906     0.011582060
       369.00001       288.55275       98857.704       14424.621       2.3440000      -1.5497500      0.11750000       341.42800       1.9142606     0.013536535
       374.00002       288.58367       98863.353       14503.344       3.0557500     -0.66800000     -0.11575000       341.60400       1.9153608     0.013162506
       379.99999       288.54778       98875.578       14586.457       3.5660000      -1.3622500     -0.30475000       340.92400       1.8985693     0.012260671
       385.00000       288.55762       98879.825       14670.618       3.2672500      -1.4830000   -0.0050000000       341.20300       1.9016184     0.011941037
       390.00002       288.54306       98880.752       14776.808       3.9152500      -1.5552500      -1.0830000       341.21900       1.9130075     0.012341322
       394.99999       288.55246       98881.914       14827.286       4.2162500      -2.2085000      0.49375000       341.50000       1.9295727     0.014826516
       400.00000       288.61165       98880.391       14883.692       4.4362500      -1.4810000     0.029750000       341.18900       1.8910529     0.011920452
       405.00002       288.60443       98880.437       14871.566       4.8497500     -0.56625000      0.53300010       341.34200       1.9124339     0.013910968
       409.99999       288.55318       98880.243       14779.633       4.6197500     -0.81775000      0.61350010       341.09000       1.9015125     0.013294038
       415.00000       288.53319       98880.243       14731.780       4.0902500      -1.6350000      0.12325000       341.42500       1.8917853     0.012113667
       420.00002       288.49722       98880.449       14667.793       4.1312500     -0.55275010     -0.54875000       340.99800       1.9054715     0.013084692
       424.99999       288.48611       98880.542       14613.090       4.2717500      -1.9120000     -0.99350010       341.09300       1.8749514     0.012939109
       430.00000       288.49968       98881.169       14569.807       3.4857500     -0.99425010     0.021000000       341.43800       1.8870516     0.015360536
       435.00001       288.49956       98879.285       14519.004       1.5190000     -0.95525000      0.10425000       341.69900       1.9091600     0.012749777
       439.99999       288.49148       98877.392       14439.995       4.8462500     -0.18450000      0.17150000       340.83200       1.8870318     0.012487156
       445.00000       288.51044       98871.604       14429.531       6.1255000     -0.79550000     0.076000010       341.35000       1.9832234     0.011070571
       450.00001       288.54684       98858.844       14448.179       4.1052500     -0.63425000      0.18950000       341.58000       1.8921040     0.015380756
       454.99999       288.56689       98857.467       14477.636       3.0960000      -1.1110000     -0.84650000       341.14600       1.8829373     0.018399853
       460.00000       288.61197       98861.657       14561.577       4.7470000     -0.67875000      0.16375000       341.43400       1.8887330     0.010187187
       465.00001       288.60430       98857.834       14598.944       4.1822500      -1.8457500     -0.16250000       340.97400       1.9219289     0.012669022
       471.00002       288.54994       98856.740       14627.876       4.8790000      -1.8310000     -0.46525000       341.03500       1.8929715     0.013903878
       475.99999       288.53004       98852.601       14658.084       3.2615000      -1.1130000      0.59650000       341.69600       1.9012297     0.014961341
       481.00001       288.48727       98837.838       14679.822       3.9625000     -0.80625000     -0.68000000       341.38700       1.8998742     0.011125357
       486.00002       288.50011       98837.414       14710.084       3.6762500     0.073000010      0.11300000       341.15500       1.8953796     0.015540447
       490.99999       288.54470       98845.360       14762.910       4.9295000     -0.18850000     -0.17275000       341.28700       1.9308242     0.010291158
       496.00001       288.60098       98845.774       14708.020       3.4280000      0.27275000      0.38625000       341.40900       1.9005126     0.013653208
       501.00002       288.65154       98849.630       14687.565       4.6250000      0.11875000     -0.45825000       341.03800       1.8892834     0.012394021
       505.99999       288.68538       98856.522       14603.472       3.1432500     -0.72175000      0.15575000       341.60400       1.9284091     0.011004984
       511.00000       288.74372       98860.587       14590.820       4.3057500      -2.2955000     -0.52300000       341.11000       1.8775129     0.017278065
       516.00002       288.81434       98864.666       14625.969       3.5132500      -1.7160000     -0.25500000       341.15900       1.8689732     0.014699982
       520.99999       288.90703       98870.896       14751.246       3.0632500      -2.3517500      0.43450000       341.79400       1.9116009     0.011022733
       526.00000       288.97988       98874.747       14811.385       4.8130000      -1.2507500     -0.86500010       341.06300       1.8981727     0.014529826
       531.00002       288.95795       98875.271       14751.407       3.9732500      -2.8725000     -0.55775000       341.83500       1.9029949     0.012679692
       535.99999       288.98829       98878.615       14759.590       3.6650000     -0.93475000    -0.034250000       341.52900       1.8993527     0.014683228
       541.00000       289.01829       98880.675       14767.870       3.3240000     -0.41900000       1.2465000       342.02300       1.8838105     0.012546034
       546.00002       289.04796       98880.277       14776.427       4.0035000     -0.70500000     -0.21600000       340.81400       1.8850664     0.012947228
       550.99999       289.07731       98880.241       14784.834       3.0647500      -1.2795000      0.57875000       341.32300       1.9075420     0.011951206
       557.00000       289.11208       98880.406       14794.768       3.0290000     -0.86675010     0.096250010       341.60800       1.9301265    0.0098603745
       562.00001       289.14070       98880.482       14802.954       2.2757500     -0.89900000    -0.035500000       342.27600       1.8993058     0.013533018
       567.00002       289.16899       98880.306       14811.086       3.4390000     -0.97200010     -0.16550000       341.74100       1.8895138     0.014596370
       572.00000       289.19696       98880.289       14819.104       4.3275000      -1.4002500    -0.025250000       341.16900       1.8919632     0.012017529
       577.00001       289.22459       98880.145       14827.052       2.2342500      -2.5152500     -0.52075000       341.68000       1.8605524     0.012605695
       582.00002       289.25189       98880.070       14834.901       4.0195000      -1.7387500      0.24100000       341.84500       1.9406994     0.011118904
       586.99999       289.27887       98884.382       14841.993       3.2442500      -1.3990000      0.33550000       342.04400       1.9200367    0.0096199295
       592.00001       289.30551       98881.019       14850.168       3.3622500      -1.9005000     -0.43375000       342.02200       1.8681709     0.012320859
       597.00002       289.33183       98867.123       14859.864       2.3350000      -2.2092500     0.062500000       342.78200       1.8415917     0.017271029
       601.99999       289.35781       98863.352       14867.932       4.5052500      -1.8750000     -0.35425000       341.35400       1.8724962     0.013336267
       607.00001       289.38347       98859.882       14875.871       4.8355000      -1.7895000      0.37825000       342.27200       1.8353996     0.012197449
       612.00002       289.40880       98858.317       14883.436       4.2935000      -1.1270000     -0.48725000       341.63700       1.8763965     0.010028568
       616.99999       289.43379       98870.995       14888.742       4.4977500      -1.5565000     -0.24600000       341.88800       1.8943127     0.010171452
       622.00001       289.45846       98872.450       14895.681       3.7802500      -1.1555000    -0.085000000       342.34700       1.8696107     0.013488363
       627.00002       289.48280       98864.690       14903.948       3.9790000      -3.2480000    -0.012250000       341.60500       1.8747140     0.012198041
       631.99999       289.50681       98859.502       14911.744       3.1507500      -1.4085000     0.096500000       342.68700       1.9364899    0.0096480010
       637.00000       289.53050       98843.222       14921.161       3.5967500      -2.0312500     0.010250000       341.97000       1.9572863    0.0088151877
       642.00002       289.55385       98842.095       14928.179       2.8852500      -3.1410000     -0.27975000       341.61900       1.9153023    0.0093136595
       648.00003       289.58144       98855.998       14934.161       4.2245000      -3.1780000     -0.27050000       340.87400       1.9123380    0.0093092629
       653.00000       289.60407       98862.305       14939.870       3.6827500      -3.1697500     -0.63025000       341.25500       1.9178194     0.010068255
       658.00001       289.62636       98883.626       14943.199       3.2882500      -2.8757500     0.026000000       341.92800       1.8419755     0.018375929
       663.00002       289.64833       98884.538       14949.584       3.4847500      -3.0862500     -0.26650000       340.94000       1.9308808    0.0088726575
       668.00000       289.66997       98863.863       14959.209       3.9885000      -3.7417500     -0.31625000       341.38100       1.8741061     0.010090768
       673.00001       289.69129       98857.235       14966.606       4.5310000      -2.8245000     -0.27550000       341.40000       1.9009214     0.013872276
       678.00002       289.71227       98846.017       14974.637       3.1770000      -2.8867500      0.31625000       341.64300       1.9144345     0.010117400
       683.00000       289.73292       98841.439       14981.578       3.9635000      -2.9297500     -0.32950000       341.68300       1.8643404     0.015491340
       688.00001       289.75324       98849.896       14986.442       3.9825000      -2.6662500     0.020750000       342.74300       1.9054017     0.010501877
       693.00002       289.77324       98851.556       14992.281       3.7152500     -0.34100000      0.39175000       342.05100       1.8977554    0.0099042676
       698.00000       289.79290       98850.304       14998.499       4.1112500     -0.29550000      0.42175000       343.19500       1.9968801     0.012088803
       703.00001       289.81224       98850.282       15004.460       2.7155000    -0.075500000     -0.24375000       342.48000       1.8968336    0.0094325458
       708.00002       289.83125       98850.244       15010.355       4.1300000      -2.4212500     -0.29750000       341.43900       1.9095753    0.0098239615
       713.00000       289.84992       98850.266       15016.173       3.4135000      -2.0897500   -0.0020000000       341.78600       1.9350563    0.0086531104
       718.00001       289.86827       98847.803       15022.308       2.8632500      0.30600000      0.51225000       342.52500       1.9285598     0.010160001
       723.00002       289.88629       98850.550       15027.573       3.5667500     -0.69925000      0.21825000       340.99500       1.9277424     0.010225486
       727.99999       289.90398       98860.397       15031.677       4.5562500      -2.1552500     -0.44600000       341.13200       1.9037532     0.015670277
       733.00001       289.92134       98861.563       15037.056       3.8167500     -0.78375010     0.075500000       341.36300       1.9487758     0.011891948
       739.00001       289.94174       98861.836       15043.600       3.8222500      -1.6375000     -0.16650000       341.14500       1.9512358    0.0098140252
       743.99999       289.95838       98860.651       15049.202       4.1565000     -0.70075010     0.095500010       341.67900       1.9139599     0.010696334
       749.00000       289.97468       98846.829       15056.695       2.9892500     0.046000000      0.26250000       342.23700       1.9115738     0.013665137
       754.00001       289.99066       98848.986       15061.656       2.6705000     -0.85050000     -0.58750000       341.94500       1.8754836     0.013380307
       758.99999       290.00631       98863.948       15064.574       3.8797500     -0.95525000     0.071000000       341.90600       1.9254159     0.011054012
       764.00000       290.02163       98868.329       15069.068       3.6412500    -0.075750000     -0.47600000       342.12300       1.9348026     0.012371762
       769.00001       290.03662       98874.768       15073.182       3.3877500     -0.49050000     -0.38675000       341.74200       1.9426599     0.012853385
       773.99999       290.05128       98878.567       15077.645       2.5115000      -1.6260000      0.51625000       343.34000       1.9365058     0.013826456
       779.00000       290.06561       98874.478       15083.269       3.2350000   -0.0082500000      0.36625000       342.65600       1.8539650     0.019765734
       784.00001       290.07962       98875.080       15088.108       3.3657500      -1.9910000     -0.43950000       341.93100       1.9314714     0.011685220
       789.00003       290.09329       98880.230       15092.184       4.5617500      -1.4712500     -0.22775000       342.00300       1.8858654     0.012488495
       794.00000       290.10663       98881.575       15096.792       4.7347500     -0.54650000    -0.071250010       342.06300       1.7439687     0.028143050
       799.00001       290.11965       98880.353       15101.740       4.6135000    -0.099500010      0.47000000       342.27700       1.9426739     0.011876768
       804.00002       290.13233       98880.396       15106.435       4.8820000       1.1712500      0.44850000       341.56000       1.9339798     0.012299383
       809.00000       290.14469       98880.243       15111.104       4.6575000    -0.093000000     -0.34775000       341.99400       1.9634621     0.011391609
       814.00001       290.15672       98880.243       15115.693       3.2077500      0.22150000      0.11375000       342.30800       1.8542613     0.025543397
       819.00002       290.16842       98880.306       15120.217       1.7757500     -0.25600000      0.62350000       343.12200       1.9116526     0.012603749
       824.00000       290.17979       98880.306       15124.695       1.9615000      0.25675000      0.71325000       343.57700       1.9625918    0.0098557407
       830.00000       290.19299       98880.108       15130.027       3.6212500      0.74675010      0.37050000       341.80400       1.9451848     0.013114900
       835.00002       290.20364       98880.048       15134.394       4.1642500      0.56575000     -0.26775000       341.69100       1.8871359     0.016970377
       839.99999       290.21395       98880.306       15138.658       2.7597500     0.094000000      0.35450000       343.32200       1.9212594     0.010796628
       845.00000       290.22394       98880.306       15142.908       2.6797500     -0.27350000      0.42300000       343.39200       1.8922046     0.014984868
       850.00002       290.23360       98880.360       15147.096       3.7527500     -0.10025000    -0.019000000       342.00200       1.9389989     0.010429665
       854.99999       290.24292       98880.406       15151.232       3.9617500     -0.58200000      0.26925000       342.10600       1.9539467    0.0099803921
       860.00000       290.25192       98880.300       15155.339       4.1245000      -1.6677500      0.21550000       342.21100       1.9093481     0.013261061
       865.00002       290.26059       98880.267       15159.382       3.6197500     -0.95925000     -0.67300000       341.33600       1.9422142     0.011713240
       869.99999       290.26893       98878.438       15163.652       3.8590000      0.54875000     -0.61625000       341.27500       1.9164918     0.010725017
       875.00000       290.27694       98882.118       15167.012       1.7405000     -0.20700000      0.52450000       343.11800       1.9121292     0.015481442
       880.00001       290.28462       98891.188       15169.481       3.5592500      0.52900000     -0.86300000       341.66300       1.8455578     0.016859706
       884.99999       290.29198       98891.425       15173.273       4.3625000      0.96850000      0.42700000       341.83400       1.8925440     0.014373777
       890.00000       290.29900       98889.744       15177.313       4.0187500    -0.077000010      0.22550000       341.48300       1.9627933     0.010720942
       895.00001       290.30569       98891.758       15180.725       3.9087500      0.71975000     0.027750000       342.17600       1.9670583    0.0097082625
       899.99999       290.31206       98890.667       15184.570       2.5957500      0.70400010     -0.35450000       342.54800       1.9569268    0.0099495194
       905.00000       290.31809       98888.665       15188.507       3.1197500      0.89600000     0.018750000       341.99300       1.9174239     0.015983015
       910.00001       290.32380       98891.604       15191.621       4.9710000      -1.6060000   -0.0075000000       342.02800       1.9033657     0.014246190
       915.00003       290.32918       98889.814       15195.423       2.1390000     -0.96000000     0.019500000       342.21700       1.8928853     0.016398540
       920.99999       290.33520       98878.884       15201.289       4.2010000     -0.60675000     -0.21675000       342.18600       1.9034417     0.013049050
       926.00001       290.33985       98877.087       15204.981       2.0010000      -1.1247500     -0.10325000       341.90800       1.9232533     0.016449587
       931.00002       290.34417       98880.306       15207.839       3.6620000     -0.72125010     -0.36250000       341.78300       1.9150186     0.015218525
       935.99999       290.34817       98880.306       15211.149       3.3590000      -1.9450000      0.26025000       341.68700       1.9380858     0.014682155
       941.00001       290.35183       98879.446       15214.543       2.7867500     -0.48025000      0.28775000       342.35400       1.9461138     0.015236399
       946.00002       290.35517       98886.267       15216.687       3.7650000     -0.57175000     0.092000010       341.83200       1.9415947     0.016855287
       950.99999       290.35817       98890.276       15219.219       3.6750000      -1.0800000     -0.18850000       341.58600       1.9485265     0.011068403
       956.00000       290.36085       98900.343       15220.754       3.3557500      -1.2822500     0.031000000       342.06900       1.9857708     0.012935458
       961.00002       290.36320       98902.773       15223.431       2.4530000      -1.0730000    -0.053000000       341.86700       1.9106409     0.012807078
       965.99999       290.36522       98900.273       15226.829       3.2197500      -1.6945000    -0.047750000       342.14700       1.9751219     0.010012932
       971.00000       290.36691       98890.592       15231.298       2.1620000      0.13425000      0.34150000       342.52600       1.9728968     0.010389448
       976.00002       290.36827       98886.642       15234.821       2.5707500     -0.70875000     0.082000000       342.07800       1.9426844     0.014206018
       980.99999       290.36930       98879.271       15238.829       1.4677500      -1.4402500      0.17175000       342.32400       1.9452210     0.013207046
       986.00000       290.37000       98880.243       15241.481       3.6167500      -1.2325000     -0.93675010       342.32100       1.9617175     0.010844068
       991.00002       290.37038       98880.243       15244.234       2.4825000      -1.6462500     -0.12800000       341.91900       1.9175749     0.013793146
       995.99999       290.37042       98880.395       15246.912       2.9877500     -0.49475000     -0.75075010       341.70600       1.9619981     0.010719323
       1001.0000       290.37014       98880.466       15249.551       3.8540000      -2.2532500      0.11025000       342.21700       1.9284458     0.013806430
       1006.0000       290.36952       98880.306       15252.174       4.0280000      -2.9895000      0.28125000       341.64900       1.9415019     0.016571416
       1012.0000       290.36835       98880.306       15255.224       5.0417500      -1.9310000     0.057750000       341.72500       1.9323899     0.013190372
       1017.0000       290.36701       98880.405       15257.693       4.6697500      -1.8535000     -0.49125000       341.50000       1.8998093     0.015214420
       1022.0000       290.36534       98880.464       15260.116       6.2512500      -2.6120000     -0.82300000       341.22100       1.9013818     0.019477503
       1027.0000       290.36334       98877.500       15262.960       5.2730000      -2.0262500      0.23175000       341.36400       1.8960221     0.014905380
       1032.0000       290.36102       98879.782       15264.928       4.2212500     -0.72425000      0.77200000       341.57600       1.9672634     0.010926800
       1037.0000       290.35836       98889.992       15265.602       5.6487500      -1.9120000     -0.73400000       341.09500       1.9142418     0.013631324
       1042.0000       290.35538       98891.824       15267.534       3.4980000     -0.53700000     -0.43000000       340.99400       1.9202539     0.015448540
       1047.0000       290.35206       98891.491       15269.753       5.4925000      -1.1805000     -0.48175000       341.35700       1.9850359     0.018552082
       1052.0000       290.34842       98891.195       15271.911       4.2290000      -1.3527500     0.080500010       341.54500       2.6157606     0.017566751
       1057.0000       290.34445       98882.406       15275.347       5.0630000      -1.2550000     -0.35525000       341.16900       2.6608892     0.016986478
       1062.0000       290.34014       98878.785       15277.918       3.8007500      -1.0527500      0.53225000       341.79400       2.8096454     0.011024484
       1067.0000       290.33551       98880.371       15279.618       5.1322500      -1.6015000     -0.15850000       341.60000       2.9230082     0.012604829
       1072.0000       290.33055       98880.408       15281.504       2.3445000     -0.75050000     0.058750000       341.71600       8.2814562     0.026262698
       1077.0000       290.32526       98880.243       15283.367       4.8600000      -3.7442500     -0.18825000       341.21200       2.7531979     0.015594249
       1082.0000       290.31964       98880.243       15285.147       3.3165000      0.31775000      0.26175000       341.90500       2.7542570     0.018214097
       1087.0000       290.31370       98880.407       15286.845       4.5275000      -1.3632500     -0.46450000       341.64500       5.0867444     0.016037317
       1092.0000       290.30742       98880.484       15288.499       4.4435000      -2.6895000      0.34700000       341.65800       2.1729502     0.018332173
       1098.0000       290.29945       98880.306       15290.450       4.8795000      -3.1545000     -0.33825000       341.97700       3.7462644     0.014319210
       1103.0000       290.29245       98880.306       15291.988       3.8320000      -3.1505000     -0.53225000       341.74100       2.1478457     0.011103351
       1108.0000       290.28512       98880.417       15293.451       4.4012500      -1.2010000     -0.44250000       341.73100       3.1420508     0.013374348
       1113.0000       290.27746       98880.476       15294.862       4.5077500      -2.5777500    -0.053250000       341.92900       3.5418940     0.016914831
       1118.0000       290.26947       98880.377       15296.238       5.3057500      -2.5322500     -0.16000000       341.54300       2.3730215     0.015638375
       1123.0000       290.26115       98880.417       15297.531       3.7247500      -1.3037500      0.65650000       342.16700       3.0688916     0.019014956
       1128.0000       290.25250       98881.532       15298.595       3.4080000      -3.3130000      0.53025000       341.89000       9.0107950     0.027734622
       1133.0000       290.24353       98880.179       15299.985       2.0122500      -1.6720000       1.2590000       342.34800       2.2574512     0.011628676
       1138.0000       290.23422       98876.534       15301.673       1.9175000      -1.5707500      0.26375000       342.34600       2.0718024     0.011660711
       1143.0000       290.22459       98874.579       15303.033       3.7590000     -0.97375010    -0.077250000       342.21800       2.7707863     0.012635997
       1148.0000       290.21462       98874.898       15303.972       3.0185000      -2.0065000     -0.35150000       342.08300       3.2324568     0.020497698
       1153.0000       290.20433       98869.141       15305.802       3.7237500      -2.8810000      0.33475000       341.76500       2.0158559     0.010683254
       1158.0000       290.19371       98857.442       15308.501       4.1680000      -4.3075000     -0.47200000       341.44200       6.0954482     0.019649904
       1163.0000       290.18275       98852.740       15310.036       2.6197500      -3.2682500      0.24400000       341.57200       1.9641871     0.014269119
       1168.0000       290.17147       98845.415       15311.917       1.9757500      -2.8917500      0.14400000       341.70300       1.9743340     0.011007728
       1173.0000       290.15986       98842.475       15313.042       4.1995000      -3.2310000     -0.81450000       341.60900       1.9226584     0.016727672
       1178.0000       290.14792       98849.914       15312.467       3.4542500     -0.75300000      0.80750010       341.57200       1.9671536     0.018865873
       1183.0000       290.13565       98851.564       15312.734       4.9385000      -2.4822500     -0.57750000       341.54500       2.9824840     0.018779705
       1188.0000       290.12306       98851.536       15313.196       3.9467500      -1.6200000     -0.12500000       341.79000       1.9352287     0.010625590
       1194.0000       290.10750       98849.745       15313.935       4.4437500      -1.6197500     -0.12800000       341.73700       1.9569460     0.013399357
       1199.0000       290.09418       98846.174       15314.800       4.0655000      -2.1820000   -0.0092500000       341.96600       2.5128981     0.018213942
       1204.0000       290.08053       98844.175       15315.347       3.8290000     -0.56775000     -0.31550000       342.17700       2.9845533     0.013611903
       1209.0000       290.06655       98840.626       15316.065       4.9962500      -1.2367500     -0.17675000       341.76900       3.2265032     0.016488787
       1214.0000       290.05224       98839.326       15316.357       3.2675000     -0.48475000     0.042250000       341.76600       5.8799758     0.027485654
       1219.0000       290.03760       98839.039       15316.416       5.5405000      -1.1250000     -0.33325000       341.72200       2.9042621     0.014481994
       1224.0000       290.02263       98840.607       15316.108       6.3020010      -1.1177500    -0.039250000       341.12100       5.7359121     0.014418905
       1229.0000       290.00733       98844.561       15315.349       4.6395000     -0.92200010     -0.66625010       341.25900       5.1768355     0.013894472
       1234.0000       289.99170       98846.576       15314.819       3.3932500      0.77725010      0.53950000       342.09900       3.8633680     0.022778530
       1239.0000       289.97575       98846.672       15314.513       4.5897500       1.2062500      0.34450000       341.82100       3.0939952     0.012037311
       1244.0000       289.95946       98852.959       15313.156       4.4342500      0.97100010      0.41525000       341.78100       2.0773855     0.011045062
       1249.0000       289.94285       98862.741       15311.171       4.3472500      0.33575000     0.082250010       341.81300       4.0917721     0.015591618
       1254.0000       289.92590       98868.683       15309.710       5.0155000     -0.78075000     -0.19050000       342.06700       5.4491251     0.025799121
       1259.0000       289.90863       98877.799       15307.669       2.8527500      0.97450010     -0.55575000       342.57600       3.1389516     0.018312038
       1264.0000       289.89103       98885.143       15305.826       4.7290000      0.40600000       1.3715000       342.20300       3.6517316     0.011531517
       1269.0000       289.98989       98891.015       15401.221       3.8005000     -0.51025000     -0.17000000       342.36700       4.5807907     0.022207681
       1274.0000       289.98834       98891.746       15399.202       6.3285000      -2.2665000     -0.10100000       341.30400       5.9120045     0.018270379
       1280.0000       290.15697       98889.917       15609.985       5.4920000     -0.82975010     -0.20150000       341.46400       2.6016826     0.012088179
       1285.0000       290.14833       98891.932       15584.875       4.8600000     -0.28175000      0.17275000       342.36500       2.9127946     0.013091331
       1290.0000       290.09698       98890.726       15484.588       3.5590000     -0.42025000    -0.037750000       341.97100       2.3736506     0.012917306
       1295.0000       290.08572       98888.791       15420.023       4.4875000      -1.2630000     -0.34600000       341.40700       3.3783661     0.012376995
       1300.0000       290.11747       98889.815       15391.527       4.0895000     -0.87800000      0.16975000       342.23500       4.6292130     0.016303952
       1305.0000       290.07980       98891.797       15297.860       5.2005000     -0.79650000      0.48875000       342.73500       5.8294247     0.016645918
       1310.0000       290.00651       98890.660       15147.737       5.8182500     -0.38275000     -0.37950000       341.60500       2.4498753     0.017149808
       1315.0000       289.96654       98888.613       15046.645       5.8222500      -1.2462500      0.22600000       341.56400       3.7508865     0.014497108
       1320.0000       289.90321       98891.856       14940.463       2.9150000     -0.16625000      0.10225000       342.48500       5.3362941     0.017358161
       1325.0000       289.86235       98890.157       14846.611       3.4662500      -1.0492500      0.42450000       343.14300       5.7016782     0.024211081
       1330.0000       289.85443       98879.624       14765.069       3.3542500     -0.70250000     -0.29800000       341.64200       3.4190649     0.018587971
       1335.0000       289.83389       98877.359       14710.604       1.5467500       1.2412500      0.88125000       343.34900       4.5908260     0.015168346
       1340.0000       289.78928       98881.134       14652.195       3.5385000      0.97725000     -0.41200000       342.18100       4.2610285     0.015703343
       1345.0000       289.79724       98879.224       14645.124       4.1535000      0.82000010      0.99300000       342.99100       1.9506400     0.014411676
       1350.0000       289.84731       98877.471       14692.324       6.0415000     -0.52100000     -0.33375000       341.58200       2.4805325     0.018159564
       1355.0000       289.86735       98871.755       14723.046       5.7242500     0.086500000      0.51150000       342.00200       3.5256583     0.018726228
       1360.0000       289.89422       98860.544       14752.568       5.4080000     -0.38950000     -0.46000000       341.34100       2.9364667     0.011901030
       1365.0000       289.92390       98855.384       14836.065       4.8137500     -0.46525000      0.14350000       341.51400       7.6475275     0.032531994
       1371.0000       289.94948       98849.325       14975.206       3.1030000       1.1737500      0.60875000       342.29600       5.3507110     0.025493191
       1376.0000       289.96916       98847.657       15074.354       4.5555000     -0.30775000      0.36250000       341.98400       2.6724659     0.015741706
       1381.0000       290.01925       98850.294       15243.542       3.7805000      0.85900000     0.088250000       342.21800       2.9274086     0.016184760
       1386.0000       289.98478       98850.255       15244.178       3.7032500       1.3565000      0.13475000       342.17000       2.3892346     0.012365295
       1391.0000       289.90022       98850.834       15167.015       4.5215000     -0.86325000     -0.21225000       341.75600       2.0772135     0.011521143
       1396.0000       289.84471       98847.131       15042.650       5.7770000      0.29425000     -0.41425000       341.30500       2.1809132     0.015605254
       1401.0000       289.79294       98845.077       14946.980       4.4035000      0.34925000     -0.15400000       341.53300       4.8976613     0.023256671
       1406.0000       289.76971       98840.168       14871.935       4.1347500      0.88775000    0.0092500000       341.91400       2.3089376     0.013340906
       1411.0000       289.74967       98838.870       14805.334       4.5375000     -0.31350000      0.55775000       341.80000       1.9242075     0.015379895
       1416.0000       289.72957       98840.017       14745.713       4.9852500     -0.46325000      -1.2637500       341.57600       1.9396883     0.013067578
       1421.0000       289.69401       98843.945       14682.124       3.1687500      0.86825000      0.42075000       342.06400       1.9737722     0.011982660
       1426.0000       289.68555       98850.295       14656.476       2.7395000      0.49200000      0.15950000       342.38100       2.2221366     0.010621463
       1431.0000       289.70627       98860.551       14659.249       6.0565000      0.94575010     0.060750000       341.67300       1.8967043     0.022447969
       1436.0000       289.66970       98870.436       14651.936       4.0802500     -0.59775000       1.2232500       342.48000       2.8806617     0.017946793
       1441.0000       289.64954       98876.777       14642.364       4.3932500     -0.35100000     -0.80400000       341.88900       2.1783155     0.013298529
       1446.0000       289.61466       98878.728       14579.126       5.2290000       1.0220000      0.45450000       341.84800       2.6606474     0.014712387
       1451.0000       289.59381       98880.789       14584.104       4.8955000     -0.62375000      0.30850000       341.23400       4.1270237     0.020545469
       1456.0000       289.62980       98880.277       14681.761       5.3837500       1.2967500     -0.70450000       341.59700       3.2844321     0.016396340
       1462.0000       289.60593       98880.233       14719.403       5.4402500      0.29900000     -0.33250000       341.38200       2.1477557     0.011254724
       1467.0000       289.57804       98880.306       14799.301       4.0640000      0.67900000      0.75850000       341.86500       2.0738984    0.0099272157
       1472.0000       289.50405       98880.289       14794.208       3.9755000      0.44875000     0.084500010       341.88000       3.6449061     0.016144720
       1477.0000       289.31914       98880.339       14668.661       2.8240000     -0.98225000      0.63475000       342.15800       3.0636521     0.011968712
       1482.0000       289.22113       98880.377       14584.451       3.0612500     -0.61075000     -0.18150000       341.83200       5.3567254     0.016035886
       1487.0000       289.14334       98881.685       14492.647       5.3672500       1.9692500     -0.94525000       341.02100       5.2076664     0.014308091
       1492.0000       289.07519       98880.564       14390.518       3.5017500     -0.20550000      0.54375000       341.76100       3.7946956     0.013118883
       1497.0000       289.06559       98876.828       14268.206       4.6685000     -0.19625000      0.69525000       341.76900       2.9778394     0.016140123
       1502.0000       289.04568       98874.834       14182.306       4.4497500       1.7275000     -0.27550000       341.59400       4.9820537     0.014789005
       1507.0000       288.99506       98874.023       14067.585       5.9612500     -0.76475010     -0.77125000       341.68500       2.3983009     0.015276156
       1512.0000       288.98798       98869.812       14019.187       5.0407500     -0.21250000     -0.62375000       341.81600       2.3657863     0.012014801
       1517.0000       289.03433       98863.506       14051.635       2.6170000      0.31750000   -0.0010000000       341.69300       2.1911785     0.018930180
       1522.0000       289.05461       98859.515       14064.392       3.8905000     -0.28875000     -0.25750000       341.67400       1.9984779     0.011061285
       1527.0000       289.09039       98852.212       14103.841       2.9617500     -0.66550000    -0.068250000       342.00900       1.9487742     0.012144161
       1532.0000       289.10925       98848.408       14139.792       2.4842500     0.013750000      0.13175000       342.12300       3.5537716     0.011981009
       1537.0000       289.10016       98850.407       14158.315       4.7107500      -1.9002500    -0.065500010       341.96300       5.7450450     0.021302729
       1542.0000       289.10016       98850.466       14201.020       3.0935000      -2.6067500      0.12825000       341.74100       4.7439788     0.014868696
       1547.0000       289.11461       98847.333       14295.693       2.8030000      -3.2345000     0.077500000       341.86200       4.6430659     0.023969635
       1553.0000       289.10002       98850.283       14342.992       3.5480000      -1.3712500      0.15150000       341.44000       4.1236733     0.014565112
       1558.0000       289.04925       98856.378       14356.693       2.3300000     -0.38925000     0.029750000       341.93100       4.8229709     0.017678539
       1563.0000       289.04297       98861.788       14379.312       3.5085000      -1.0500000     -0.36000000       341.88100       4.1650340     0.013488156
       1568.0000       289.04356       98870.434       14373.609       2.8777500     -0.15775000      0.12475000       341.84100       5.1372603     0.015363961
       1573.0000       289.04727       98878.534       14373.090       4.0022500     -0.96500000    -0.018000000       341.45100       5.8709126     0.020570183
       1578.0000       289.09500       98887.314       14391.052       4.2475000     -0.97275010     -0.47250000       341.43600       4.7621806     0.021139351
       1583.0000       289.11142       98892.909       14394.848       3.3090000      0.60475000      0.52250000       341.66500       4.1163542     0.017739284
       1588.0000       289.08700       98899.397       14352.289       3.0947500     -0.91475000    -0.037500000       341.50100       5.5505428     0.018992644
       1593.0000       289.10060       98902.639       14366.114       6.1650000     -0.80325000     -0.43050000       341.41600       7.1043825     0.029161008
       1598.0000       289.13767       98902.963       14423.105       5.1965000     -0.51575010     -0.10275000       341.24600       5.6814234     0.012699541
       1603.0000       289.15784       98900.173       14456.434       4.4505000      -1.9847500     -0.34025000       341.29200       5.2832030     0.018554355
       1608.0000       289.22009       98894.008       14534.519       3.8885000      -1.6760000      0.29150000       341.34600       7.4230938     0.023872149
       1613.0000       289.20854       98888.615       14548.155       3.9870000      -1.1442500     0.012750000       341.44000       3.1138816     0.011931318
       1618.0000       289.10953       98879.800       14483.113       3.4947500      -1.3625000     0.012000000       341.38600       5.4374741     0.014402375
       1623.0000       289.08301       98871.746       14480.258       4.1197500      -1.0175000    -0.098000000       341.39100       4.1232104     0.014259855
       1628.0000       289.06087       98863.092       14493.008       3.9590000      -1.4317500     0.013000000       341.36800       4.1251965     0.012549161
       1633.0000       289.03503       98857.531       14485.330       2.1552500      -1.0945000      0.81125000       341.55900       2.3520672     0.011208054
       1638.0000       289.05676       98852.552       14497.548       2.6602500      -1.1392500      0.83650000       341.66200       3.2052264     0.015583138
       1644.0000       289.05089       98847.162       14506.211       3.8267500     -0.94275000     -0.16500000       341.44200       2.2552033     0.013166131
       1649.0000       289.00070       98844.982       14475.235       2.8430000     -0.63650000     -0.21400000       341.57200       2.0557020     0.010459405
       1654.0000       288.98699       98844.606       14476.806       2.5770000     -0.67350010      0.26600000       341.45800       1.9892657     0.010208367
       1659.0000       289.01150       98842.283       14526.270       3.0517500      -1.6192500     0.021500000       341.65200       2.8121108     0.014164166
       1664.0000       288.99543       98846.129       14525.212       2.5390000     0.027750000       1.0047500       341.77500       5.6288085     0.015505451
       1669.0000       288.96871       98857.562       14511.496       1.8132500      0.21575000      0.96325000       341.84500       10.311831     0.033093394
       1674.0000       288.93267       98864.533       14473.897       4.2307500      -2.1615000    -0.095000010       341.64300       7.3220437     0.024329607
       1679.0000       288.85873       98872.222       14397.415       3.3537500      -1.2637500     0.068000000       341.57700       3.1073287     0.013735071
       1684.0000       288.82530       98880.206       14341.578       2.2972500      -2.1832500      0.36850000       341.71400       2.8781499     0.011945663
       1689.0000       288.82456       98890.941       14291.084       4.1230000     -0.55500000     -0.46400000       341.31700       2.4140552     0.010471053
       1694.0000       288.77818       98893.061       14209.480       3.6317500    -0.054750000     0.053000000       341.55500       3.9891166     0.013560538
       1699.0000       288.71615       98891.850       14109.686       5.7675000    -0.070500000     -0.38175000       341.28700       2.6642766     0.010966797
       1704.0000       288.67616       98890.681       14027.720       5.2912500      0.90550010      0.54975000       341.49100       8.0455615     0.024109915
       1709.0000       288.60074       98881.354       13909.904       6.6717510      -2.6350000      0.60075000       341.43800       5.4276179     0.012904672
       1714.0000       288.57303       98876.915       13844.621       5.2815000     -0.33100000    0.0080000000       341.49400       7.0578344     0.015253412
       1719.0000       288.60028       98878.342       13816.420       5.1340000      0.34675000     -0.75000010       341.50900       4.6896041     0.013751293
       1724.0000       288.60040       98873.132       13794.538       5.1670000      0.15450000     -0.10675000       341.38600       4.8823128     0.012124295
       1729.0000       288.59979       98863.199       13793.989       3.8567500      0.97400000     -0.12725000       341.41900       5.6945883     0.013977134
       1735.0000       288.59958       98854.879       13794.883       3.7397500     -0.93300000     -0.20075000       341.33500       4.6594515     0.011379913
       1740.0000       288.60037       98844.286       13811.272       3.4350000     -0.30650000      0.68425010       341.49400       4.6503932     0.011439741
       1745.0000       288.60055       98841.906       13831.337       3.3132500     -0.18500000     0.057750000       341.47800       4.8974201     0.012270316
       1750.0000       288.60907       98841.912       13863.421       3.8550000     -0.14525000     0.098500010       341.52900       2.8866559     0.011144506
       1755.0000       288.59045       98848.412       13876.190       2.1677500     -0.93000010      0.36850000       341.63400       2.5430946     0.012184719
       1760.0000       288.54447       98862.808       13880.643       3.3177500   -0.0055000000    -0.053250000       341.51100       3.5019871     0.014574959
       1765.0000       288.54302       98873.683       13907.420       3.0985000    0.0092500000    -0.065000010       341.56700       2.8006058     0.015762022
       1770.0000       288.53410       98892.384       13920.694       1.9487500       1.0580000      0.57025000       341.59200       2.2744236     0.011419547
       1775.0000       288.56129       98896.052       13970.349       3.6112500      -1.5935000     -0.10250000       341.43400       2.1135856    0.0096561137
       1780.0000       288.65774       98891.954       14083.397       3.2315000      -1.1065000     -0.55850010       341.43700       2.0836020     0.011563063
       1785.0000       288.66994       98890.206       14106.502       5.0107500     -0.23625000     -0.26725000       341.40400       3.7069517     0.016291937
       1790.0000       288.65738       98879.735       14102.020       4.2962500      -2.6550000     0.090500000       341.30700       3.6194566     0.010650441
       1795.0000       288.64895       98877.477       14104.119       4.8502500      -1.7840000     -0.15325000       341.16100       4.3592733     0.017104637
       1800.0000       288.59574       98881.263       14058.514       6.0205000      -3.3660000     -0.42250000       341.14800       2.4192482     0.014257291
       1805.0000       288.58403       98879.465       14043.058       3.9897500      -3.6012500    -0.090250010       341.16300       2.0162389     0.010498520
       1810.0000       288.60907       98877.497       14063.878       2.6085000     -0.87150000      0.17300000       341.47600       2.3462445     0.010241679
       1815.0000       288.59045       98871.795       14037.450       5.3335000      -3.1417500     -0.41450000       341.19900       3.2129755     0.011467295
       1821.0000       288.54994       98859.694       13966.709       4.4755000      -1.7350000    -0.069500010       341.26000       6.1223889     0.013981579
       1826.0000       288.53004       98854.855       13944.704       4.0642500     -0.17975000     0.054500000       341.41100       3.7766750     0.011764039
       1831.0000       288.49455       98847.885       13918.886       4.2792500      -2.0877500      0.84575000       341.41500       3.7500971     0.015594338
       1836.0000       288.48617       98850.522       13920.821       3.9177500      -1.0102500      0.25775000       341.34700       3.0163240     0.010287854
       1841.0000       288.50663       98861.503       13959.845       2.7702500     -0.60975000       1.4990000       341.45900       5.0907312     0.011304755
       1846.0000       288.44010       98856.679       13909.089       3.1050000     0.047500000     0.038500000       341.49800       6.5221313     0.012402284
       1851.0000       288.43696       98859.454       13915.197       2.9155000      -1.2300000    -0.031750000       341.49800       4.0534980     0.011391973
       1856.0000       288.47526       98862.314       13942.905       3.3185000      -1.4910000       1.4712500       341.42500       2.3077184    0.0099101274
       1861.0000       288.49403       98864.074       13969.647       4.4530000      -1.3252500      0.65150000       341.40000       3.3154055     0.010763596
       1866.0000       288.52516       98868.292       14016.278       3.1505000     -0.48900000     0.086500000       341.38800       2.4531141    0.0094992235
       1871.0000       288.61964       98884.041       14131.121       5.9897500     -0.94825010     0.094750000       341.20500       4.5583481     0.012371128
       1876.0000       288.61530       98880.079       14148.017       7.5562510      -2.4817500     -0.24275000       341.23600       2.8339192     0.010187618
       1881.0000       288.54932       98865.241       14121.886       6.2332500      -1.3482500      0.52175000       341.20600       2.2244005    0.0090280235
       1886.0000       288.51482       98854.610       14080.515       4.5395000      -1.5805000    -0.012000000       341.23600       3.2685373     0.011972232
       1891.0000       288.49342       98848.129       14058.398       6.5002500      -1.7780000     -0.42025000       341.15800       2.5237093     0.010270670
       1896.0000       288.49971       98847.470       14047.794       4.9197500      -1.4420000      0.52750000       341.26300       2.7861668    0.0096882889
       1901.0000       288.49946       98849.309       14041.307       4.3912500      -1.8347500      0.37600000       341.23600       3.4150051     0.010350238
       1906.0000       288.50023       98854.839       14044.670       6.8395000      -2.6272500     -0.77850000       341.17700       2.6182026    0.0092352320
       1912.0000       288.50037       98860.853       14052.566       3.4757500     -0.50325000      0.43150000       341.33900       2.3082562     0.010408313
       1917.0000       288.51487       98868.585       14068.420       4.0577500      -1.5490000      0.97375010       341.33200       5.4732796     0.013545147
       1922.0000       288.50368       98876.521       14079.998       3.8440000      -1.5922500       1.5640000       341.34100       5.3099289     0.011539131
       1927.0000       288.46597       98885.918       14106.365       5.1307500      -2.6627500     -0.57625000       341.19400       3.3979681    0.0094710904
       1932.0000       288.44595       98891.786       14107.529       4.1270000      -1.7662500     -0.21775000       341.22100       2.2334176    0.0090831154
       1937.0000       288.42364       98901.183       14112.893       4.0542500      -1.4100000     -0.55625000       341.29000       2.3245820    0.0095345822
       1942.0000       288.39350       98902.802       14077.067       2.7047500       1.1095000       1.5057500       341.32200       2.6853262     0.011165062
       1947.0000       288.35174       98894.826       13957.490       1.8875000     -0.24600000      0.39450000       341.37900       3.6906881     0.010400598
       1952.0000       288.34306       98889.681       13912.066       5.1027500      -1.2100000     -0.51600000       341.26600       3.2212513     0.011221978
       1957.0000       288.34339       98881.866       13871.494       3.6800000     -0.37550000     -0.28975000       341.27600       4.1158521     0.011547440
       1962.0000       288.34494       98873.875       13852.717       5.2392500     0.065000010     -0.40300000       340.96600       5.5284832     0.016218286
       1967.0000       288.38987       98861.651       13905.589       5.0117500      0.20100000      0.20850000       341.27000       4.2832742     0.010366919
       1972.0000       288.40871       98858.021       13932.978       3.6057500      -1.0792500      0.23300000       341.47000       3.3956774     0.010219150
       1977.0000       288.41389       98854.886       13949.650       3.5560000      -1.4720000      0.68525000       341.46700       3.4640678     0.014906125
       1982.0000       288.40272       98858.495       13965.366       3.7285000      -3.0575000      0.80200000       341.25300       4.5416265     0.010858513
       1987.0000       288.36586       98878.719       14001.982       3.7822500      -1.5925000      0.31000000       341.37700       2.4096469    0.0090611434
       1992.0000       288.34607       98888.359       14001.713       5.1805000     -0.88175000     -0.11175000       341.38500       3.1837316    0.0090014621
       1997.0000       288.29560       98897.469       13966.556       3.9035000      0.39325000       1.2942500       341.33100       4.9720210     0.011191981
       2003.0000       288.28954       98903.806       13938.539       5.5192500     -0.51475000      0.31275000       341.14000       3.8055610     0.010746368
       2008.0000       288.31015       98903.046       13864.480       2.7922500      -1.0890000     -0.58600000       341.28400       3.8366725    0.0095554126
       2013.0000       288.35792       98900.295       13860.498       4.2025000      -1.1430000     -0.46275000       341.12000       4.7073401     0.012595812
       2018.0000       288.47022       98897.851       13902.247       3.8920000      -1.1375000     -0.50850000       341.12700       4.0679803     0.011202991
       2023.0000       288.52669       98888.326       13939.199       3.9060000     -0.88375000     -0.51550000       341.07300       5.6151486     0.013790441
       2028.0000       288.60356       98864.518       14044.880       1.5332500    -0.029500000      0.17325000       341.34300       3.6407034    0.0098060225
       2033.0000       288.62325       98854.524       14079.180       3.4490000     -0.55325000     -0.55900000       341.37800       3.0912345    0.0093582645
       2038.0000       288.56235       98842.182       14069.430       4.3365000      -1.8137500      0.58925000       341.26100       4.9074863     0.010254248
       2043.0000       288.54268       98841.777       14069.742       3.4592500     -0.40275000     -0.97275010       341.08200       2.8926436    0.0090241918
       2048.0000       288.49100       98860.998       14018.745       3.1955000     -0.90075000      0.50475000       341.33700       5.2394529     0.010553983
       2053.0000       288.48871       98868.630       14015.941       3.5900000      -1.0497500      0.17775000       341.25000       5.0026106     0.012390134
       2058.0000       288.53795       98876.431       14055.571       3.2087500     -0.68775000      -1.1225000       341.26800       5.9959123     0.011255693
       2063.0000       288.55801       98884.275       14064.094       3.9872500     -0.34575000      0.61325000       341.42800       3.8590327     0.011598782
       2068.0000       288.59588       98890.614       14077.384       4.1730000      -2.1835000      0.57550000       341.23200       2.6619042    0.0099272601
       2073.0000       288.61255       98891.892       14082.132       3.7070000      -3.0172500      0.25650000       341.27800       2.0737208    0.0089771708
       2078.0000       288.58738       98895.543       14038.029       3.5975000      -1.3765000      0.32050000       341.24700       2.4324868    0.0082037315
       2083.0000       288.60131       98890.660       14055.668       1.8042500      -1.1682500     -0.11250000       341.53700       3.4292045    0.0099196878
       2088.0000       288.65093       98869.965       14135.412       1.8400000      -1.6220000      -1.0982500       341.50500       2.4782694    0.0097258469
       2094.0000       288.65695       98859.235       14159.953       2.6152500      0.52700000     -0.16375000       341.36800       3.1022173     0.011590719
       2099.0000       288.65830       98848.184       14190.255       4.8542500     -0.99750010      0.13075000       341.25900       3.3331143     0.011776662
       2104.0000       288.65184       98847.350       14194.418       4.9127500     -0.48400000      0.24875000       341.30700       2.8102674    0.0092423000
       2109.0000       288.60172       98855.436       14141.689       3.5780000      0.21350000      0.94225010       341.35300       2.5882986    0.0082184198
       2114.0000       288.58804       98864.422       14121.850       5.1537500     -0.95450000     -0.36875000       341.21400       2.4284187     0.011609220
       2119.0000       288.60063       98883.012       14123.208       5.1455000      -1.2117500    -0.065500010       341.26100       2.1719054     0.012313016
       2124.0000       288.60086       98891.815       14106.014       4.5780000      -1.9135000     -0.33775000       341.39100       2.4172172    0.0091440379
       2129.0000       288.58910       98902.258       14062.073       3.6170000      -1.5570000      0.36400000       341.32600       1.9477370    0.0094997294
       2134.0000       288.60539       98903.083       14058.081       4.1245000      -1.4660000    -0.033750000       341.31700       1.9439165     0.011938823
       2139.0000       288.62985       98893.032       14048.819       3.7002500     -0.24750000      0.27150000       341.43600       1.9060636     0.013331795
       2144.0000       288.66662       98887.285       14087.262       5.2385000      0.67650000      0.18825000       341.52900       1.9978982    0.0093359841
       2149.0000       288.75246       98878.526       14199.881       4.6240000       1.4980000     -0.20150000       341.23800       2.0010229    0.0084998633
       2154.0000       288.77012       98870.510       14236.358       4.3157500     -0.57750000     0.077000010       341.49200       1.9711262     0.011222992
       2159.0000       288.75649       98859.366       14258.952       5.8580000      -1.0352500     -0.19325000       341.33500       1.9713728     0.010655798
       2164.0000       288.75023       98857.160       14284.874       5.5645000    -0.098000000     -0.31250000       341.42500       1.9124519    0.0098218387
       2169.0000       288.68932       98855.522       14255.084       6.1287500     -0.68375000      0.16250000       341.15600       1.9325855    0.0091461580
       2174.0000       288.69195       98861.636       14280.319       5.3280000      -1.9620000     0.075750000       341.33900       1.8970540    0.0079020823
       2179.0000       288.73095       98882.494       14354.153       3.6440000      -1.5230000    -0.065750000       341.57400       1.9187042    0.0082104641
       2185.0000       288.77560       98892.563       14408.859       5.0002500      -2.4412500     0.072750000       341.28500       1.9715734    0.0082467584
       2190.0000       288.85729       98901.005       14476.685       4.0685000      -1.2252500    -0.055750000       341.48400       1.9171172    0.0092917976
       2195.0000       288.86958       98904.299       14475.522       2.0722500     -0.51275000      0.55925000       341.75300       1.8850539     0.013116703
       2200.0000       288.84756       98904.771       14421.713       1.6702500     -0.88125000      0.53925000       341.67800       1.9218953     0.010547298
       2205.0000       288.85770       98895.397       14426.314       2.4442500      -1.9697500      0.39975000       341.66700       1.9156567    0.0084188004
       2210.0000       288.84326       98876.857       14410.963       1.3080000      -1.4780000      0.78125010       341.85400       1.9728300    0.0088778058
       2215.0000       288.85160       98866.813       14421.332       5.4580000      -1.8810000     -0.51075000       341.40900       1.8987249    0.0087404722
       2220.0000       288.90311       98846.162       14499.437       4.7740000      -1.2935000     -0.20800000       341.38700       1.9010898    0.0080672320
       2225.0000       288.91428       98846.181       14503.727       4.7007500      -1.6307500      0.29725000       341.35400       1.9206270    0.0084717312
       2230.0000       288.89942       98861.861       14469.185       2.7205000      -1.7122500      0.36000000       341.58900       1.9184042    0.0085982698
       2235.0000       288.89912       98871.710       14441.978       4.2672500      -2.8722500     -0.82150010       341.38800       1.9313006    0.0087415562
       2240.0000       288.88273       98890.165       14382.433       3.8905000     -0.19075000     0.018250000       341.74100       1.9239742    0.0096605087
       2245.0000       288.92060       98897.585       14381.340       5.2770000      -2.5000000     -0.76950000       341.19400       1.9080740    0.0083218494
       2250.0000       288.99344       98902.589       14401.315       6.6540000      -3.1932500     -0.15375000       341.44500       1.9676580    0.0085315037
       2255.0000       289.03336       98901.061       14415.378       4.0487500      -1.4562500     -0.18650000       341.41900       1.9085367     0.017437191
       2260.0000       289.10630       98893.742       14470.202       3.3372500      -3.7785000      0.92100010       341.43400       1.9097992    0.0093299490
       2265.0000       289.12838       98884.159       14480.436       4.4225000      -1.2235000    -0.025500000       341.52000       1.9055512     0.010810078
       2270.0000       289.10953       98864.163       14452.525       4.4510000      0.43800000      0.14800000       341.40800       1.9165509    0.0095617348
       2276.0000       289.08609       98859.356       14471.360       4.3210000      -1.3687500      0.53200000       341.51400       1.9270002    0.0085751068
       2281.0000       289.05097       98857.563       14505.582       6.1505000     -0.37475000      0.48050000       341.18400       1.9127912     0.010706755
       2286.0000       289.03072       98861.177       14494.182       5.1687500      0.47450000      0.23550000       341.55400       1.9838701    0.0098180080
       2291.0000       288.99436       98875.292       14493.155       5.6742500      -1.7590000     -0.18250000       341.59500       1.9432667    0.0082806937
       2296.0000       288.97060       98887.782       14367.337       4.5295000      -1.7292500     -0.36275000       341.10200       1.8959748    0.0098772559
       2301.0000       288.98772       98892.278       14310.634       3.3377500      -1.7602500     0.082500000       341.57500       1.8984061    0.0094888411
       2306.0000       289.01547       98892.810       14257.023       3.9025000      -1.4530000     -0.33700000       341.60100       1.9193744    0.0093757412
       2311.0000       289.08136       98892.173       14253.531       4.2235000      -4.6960000    -0.071750000       341.59300       1.8998241     0.011227997
       2316.0000       289.18418       98887.856       14296.060       3.1022500      -3.0152500      0.58650000       341.78000       1.9040404     0.011314279
       2321.0000       289.36708       98875.617       14410.563       3.5512500      -2.1487500     -0.10275000       341.77200       1.9385234    0.0093697278
       2326.0000       289.42338       98867.647       14488.747       4.3127500      -1.4957500     -0.67550000       341.52700       1.9647652    0.0085141170
       2331.0000       289.45617       98857.848       14586.679       4.2060000    -0.076250000     -0.27600000       341.91600       1.9334717    0.0087752030
       2336.0000       289.47573       98859.468       14710.623       3.1252500      -1.5455000     -0.52450000       341.99700       1.9149179    0.0096618446
       2341.0000       289.49451       98862.975       14798.570       4.8250000     -0.36400000     -0.55725000       341.44300       1.9240176     0.013343417
       2346.0000       289.58595       98885.113       14915.543       4.1422500     -0.76550000    -0.019500000       341.81700       1.9056651     0.010001016
       2351.0000       289.61924       98893.653       14974.313       2.8705000      -1.2555000     -0.77275000       342.11900       1.8974366     0.010975639
       2356.0000       289.54004       98895.856       14941.985       3.7597500     -0.80700000      0.25975000       342.14600       1.8940248     0.010965947
       2362.0000       289.53988       98892.329       14933.301       2.4947500      -2.2817500     -0.60475000       342.26300       1.9874047     0.012482590
       2367.0000       289.54701       98872.468       14901.900       4.1850000      0.68075000      0.13050000       342.30000       1.9368943    0.0095859193
       2372.0000       289.59115       98862.830       14880.533       2.6310000       1.0460000     0.040000000       342.27500       1.8549035     0.011021165
       2377.0000       289.73343       98849.177       14843.518       5.7567500     0.022250000    -0.012250000       341.97800       1.9205000    0.0099001032
       2382.0000       289.82276       98846.904       14858.080       4.2940000     -0.29225000     -0.47200000       341.40000       1.9356959    0.0083204440
       2387.0000       289.91529       98857.841       14900.492       4.8020000     -0.70700000    -0.064750000       341.44900       1.9321876     0.010024638
       2392.0000       289.97360       98866.124       14949.328       3.9875000      0.11375000     -0.16475000       341.53500       1.9517749    0.0093926941
       2397.0000       290.00467       98884.324       15088.111       3.9282500      0.23450000    -0.025750000       341.76300       1.9791657    0.0084798335
       2402.0000       290.01202       98893.876       15148.351       3.6435000      0.61025010     -0.10450000       342.19100       1.9414831    0.0080417983
       2407.0000       289.98169       98902.965       15163.294       4.7537500      -3.0537500      -1.2000000       341.97300       1.9413423    0.0097162615
       2412.0000       289.95041       98903.330       15173.455       4.5612500     -0.30575000     0.077500000       342.68300       1.9461007    0.0095358861
       2417.0000       289.87605       98890.056       15116.047       6.0820000      -1.1060000     -0.60100000       341.11700       1.9534201     0.010262962
       2422.0000       289.83725       98884.028       15107.620       4.9405000      -1.0617500     -0.15675000       341.48700       1.9013144    0.0097230545
       2427.0000       289.83734       98871.567       15168.486       3.5705000     -0.42950000      0.21075000       341.74400       1.9173366    0.0094296576
       2432.0000       289.79591       98866.944       15147.069       4.3572500      0.28900000      0.16100000       342.49200       1.9219782     0.010732369
       2437.0000       289.71734       98873.737       15079.341       4.5365000     -0.57625000     -0.29075000       341.73200       1.9111509    0.0099614904
       2442.0000       289.68885       98875.731       15036.967       3.7710000      0.24775000     -0.42450000       342.16000       1.8837689     0.010100085
       2447.0000       289.66773       98883.726       14956.084       4.5762500      0.33775000     -0.33825000       341.42500       1.8967160     0.010065755
       2453.0000       289.63482       98881.430       14860.184       3.0907500      0.74900000    -0.045000000       342.46300       1.9015417     0.012672476
       2458.0000       289.65817       98869.245       14804.768       2.5897500       1.4127500      0.60200010       342.80100       1.9415195    0.0094015098
       2463.0000       289.65438       98863.293       14750.180       4.3910000      0.22000000     -0.15375000       341.75700       1.9414944    0.0092710150
       2468.0000       289.61808       98848.119       14665.321       3.0585000      0.76700000     -0.19775000       342.27200       1.8960296     0.010097797
       2473.0000       289.58784       98847.355       14606.600       4.3580000      0.61200000     0.072000000       341.48000       1.9703858    0.0098129708
       2478.0000       289.57378       98859.305       14569.374       4.5452500    -0.068750000     -0.63850000       341.86300       1.8933798     0.011424081
       2483.0000       289.53985       98868.071       14553.447       2.2702500      0.36575000     0.019750000       342.57900       1.9275733     0.010008248
       2488.0000       289.45417       98889.194       14571.942       3.6415000     0.042000000     -0.27475000       342.82300       1.9057220     0.010846337
       2493.0000       289.43195       98895.323       14550.327       2.9405000      -1.3595000    -0.052500000       341.98900       1.9376658     0.010140497
       2498.0000       289.46905       98893.203       14522.177       3.9807500     -0.72600000      0.36200000       341.89100       1.9225794     0.010247620
       2503.0000       289.44512       98890.977       14515.335       3.7857500      0.53850000     -0.43350000       342.21700       1.8862800     0.016381903
       2508.0000       289.40529       98876.207       14470.774       5.5020000       1.1540000      0.46850000       341.98500       1.9346787     0.012268926
       2513.0000       289.39518       98872.276       14472.371       4.5855000      0.81700000     -0.47450000       341.46800       1.9091665     0.014289171
       2518.0000       289.36100       98871.963       14560.614       2.6200000       1.2875000     -0.24950000       341.93500       1.8998574     0.011581542
       2523.0000       289.33475       98875.046       14575.558       3.6355000      0.49500000      -1.0705000       342.07300       1.9307302     0.011186250
       2528.0000       289.38253       98887.488       14562.986       5.0950000     -0.62225000     -0.31150000       341.57900       1.8921464     0.012023532
       2533.0000       289.35100       98893.049       14547.833       5.6625000      0.85875000     -0.31575000       341.84400       1.9144426     0.011135683
       2538.0000       289.22938       98901.862       14491.403       4.9585000     0.091500010     0.083000000       342.15000       1.9193711     0.015186763
       2544.0000       289.16387       98901.918       14451.493       2.8762500      0.16750000      0.41200000       342.45300       1.8987394     0.010438382
       2549.0000       289.11330       98895.557       14438.457       4.9455000      -1.9517500      0.18750000       341.84000       1.8699246     0.016830329
       2554.0000       289.06968       98886.621       14399.452       6.7280000     -0.42975000     -0.38975000       341.20100       1.9476048     0.010447547
       2559.0000       289.06937       98865.975       14347.986       5.6170000      -1.4105000     -0.18275000       341.33500       1.9293655     0.010763094
       2564.0000       289.03305       98860.538       14302.721       6.5910000      0.45600000     -0.55550000       341.09100       1.9219632     0.011200003
       2569.0000       288.94672       98855.648       14225.674       5.3582500      0.99600010      0.34600000       341.55000       1.8938743     0.012194078
       2574.0000       288.92886       98860.317       14204.046       4.6615000      0.25225000      0.40475000       341.82600       1.9349519     0.013599421
       2579.0000       288.94318       98882.884       14212.593       5.3050000      0.48275000     -0.55000000       341.41600       1.9182981     0.010350942
       2584.0000       288.94957       98891.620       14225.094       4.9595000      0.15800000    -0.012250000       341.62800       1.8868209     0.012661015
       2589.0000       288.99993       98902.428       14270.142       4.7325000     -0.14675000    -0.063250010       341.05200       1.9093208     0.011364673
       2594.0000       289.01361       98903.211       14306.942       5.0715000      -2.2645000     -0.45725000       341.47500       1.8912973     0.013172365
       2599.0000       288.98900       98895.072       14331.366       3.1292500      0.65100000       1.0525000       341.91500       1.9171900     0.013342413
       2604.0000       289.00546       98886.099       14393.059       4.1822500     0.042250000      0.10850000       341.77400       1.8879219     0.014375993
       2609.0000       289.05418       98864.153       14497.448       3.3652500     -0.76100000      0.35150000       341.57700       1.9769483     0.010449438
       2614.0000       289.05815       98860.238       14558.780       5.1602500     -0.68075000      0.29675000       341.60900       1.9270698    0.0099310246
       2619.0000       289.05676       98859.877       14637.195       4.0870000     -0.51450000     -0.51325010       341.53400       1.9175729     0.010517863
       2624.0000       289.05033       98866.634       14668.443       2.9005000      -1.1122500      0.21625000       341.65400       1.9438709     0.010848164
       2629.0000       288.98970       98896.142       14635.650       2.7890000      0.32775000      0.75800000       341.82000       1.9330092    0.0096018854
       2635.0000       288.99540       98901.673       14651.611       2.6045000    -0.067500000      0.13750000       341.88200       1.9218940     0.011141682
       2640.0000       289.05446       98898.706       14679.486       3.2325000      -1.2227500     -0.63075000       341.51700       1.9170717    0.0096862799
       2645.0000       289.05567       98894.126       14668.307       2.7815000     -0.69025000     -0.46500000       341.51700       2.0010842     0.012378755
       2650.0000       289.03931       98872.285       14646.189       1.5222500     -0.43525000      0.83975010       341.90700       1.9260941     0.012706971
       2655.0000       289.06829       98872.536       14646.281       3.8520000     -0.42500000      0.17400000       341.69000       1.9131484     0.011547930
       2660.0000       289.06275       98883.147       14607.047       4.2162500     -0.62025000      0.97125010       341.40000       1.8759579     0.014782320
       2665.0000       289.14698       98889.903       14634.639       4.2860000     -0.56500000     -0.37325000       341.56600       1.9183360     0.011264887
       2670.0000       289.35303       98906.906       14731.619       2.9580000      0.11300000      0.34700000       341.85700       1.9844460    0.0086149904
       2675.0000       289.41621       98910.429       14775.147       3.6777500      0.66325000       1.2927500       341.71200       1.9945615     0.010521494
       2680.0000       289.46413       98908.810       14809.416       4.0882500      0.52925000      0.25425000       341.56700       1.9452729     0.010084229
       2685.0000       289.47712       98902.148       14866.247       4.0640000      0.50125000     0.050250000       341.44600       1.9348395    0.0097160178
       2690.0000       289.38041       98886.272       14905.758       3.3495000      0.44025000      0.20725000       341.52900       1.9087330     0.011092374
       2695.0000       289.40722       98879.208       14993.697       3.9702500      0.70375000     -0.17150000       341.58700       1.9357950    0.0094985843
       2700.0000       289.50271       98865.572       15156.017       5.7312500     -0.20350000     -0.37975000       341.49200       1.9344763     0.012033115
       2705.0000       289.52391       98869.549       15207.621       3.9735000      -2.2935000      -1.0262500       341.30900       1.9643878     0.013554820
       2710.0000       289.55144       98889.540       15232.109       3.4845000      -1.5037500     -0.44950000       341.54900       1.9214026     0.011077996
       2715.0000       289.57245       98895.602       15247.439       3.0180000      -1.7022500     0.029500000       341.75500       1.9207865     0.010753650
       2720.0000       289.53403       98908.672       15187.098       3.5282500      -1.0842500      0.43450000       341.90100       1.8803037     0.015952162
       2726.0000       289.56929       98906.345       15185.222       3.9465000     -0.84375010      0.38250000       342.11600       1.9275781    0.0098799804
       2731.0000       289.65509       98891.960       15223.250       2.6717500     -0.82300000      0.53175000       341.97700       1.9461327     0.010770059
       2736.0000       289.68383       98880.584       15207.322       2.4342500      -1.7467500      0.89075010       342.58000       1.9295917     0.010218677
       2741.0000       289.69980       98861.031       15169.161       2.9107500     -0.48775000      0.42025000       342.03200       1.9220334     0.010565898
       2746.0000       289.71573       98870.097       15143.477       3.3927500      -2.9812500     -0.33450000       342.18900       1.9019416     0.015992476
       2751.0000       289.74455       98873.812       15123.844       2.3040000     -0.75825010      0.50425000       342.54000       1.9129782     0.011157131
       2756.0000       289.78524       98895.998       15102.227       2.4400000      -2.3860000      0.68100010       341.95400       1.9633294     0.011647874
       2761.0000       289.84346       98904.807       15114.009       2.3275000      -1.6247500      0.80150000       341.98800       1.9428395     0.010600878
       2766.0000       289.91398       98904.992       15143.872       4.1777500      -1.8627500     -0.21825000       341.86300       1.9166032     0.010445252
       2771.0000       289.99828       98891.008       15167.325       3.6572500      -1.8355000     -0.19475000       341.63600       1.8963661     0.014788145
       2776.0000       290.06884       98884.737       15271.025       3.8120000      0.70600000      0.52925000       341.73500       1.9413663     0.010739145
       2781.0000       290.16784       98872.255       15454.236       3.3585000      -1.0315000      0.60775010       342.15300       1.9496475     0.011153819
       2786.0000       290.15476       98880.975       15559.976       5.0112500     -0.58675000    -0.072250000       341.59600       1.9861162     0.010503139
       2791.0000       290.15598       98884.893       15627.348       3.0472500     -0.65850000     -0.11750000       342.19400       1.8603894     0.012564300
       2796.0000       290.11496       98898.864       15612.298       4.6157500     -0.43200000      0.36750000       341.71500       1.9679751     0.013495840
       2801.0000       290.09423       98903.340       15589.393       3.7272500     -0.36300000     -0.15525000       342.27600       1.9391024     0.011704576
       2806.0000       290.10022       98898.942       15543.872       3.5012500     0.041000000     0.056000000       342.04200       1.9006199     0.012308513
       2811.0000       290.10020       98892.456       15498.216       3.8277500     -0.51675000    0.0087500000       342.51900       1.9189094     0.011817604
       2817.0000       290.09984       98863.541       15405.758       3.7577500      0.20350000    -0.043250000       341.62900       1.8810822     0.014316851
       2822.0000       290.09969       98860.576       15340.394       3.7460000      -1.6982500     -0.41650000       342.17900       1.9747720     0.011312028
       2827.0000       290.07217       98873.724       15235.386       3.5447500     -0.48150000     -0.70125000       342.39600       1.9212155     0.013038072
       2832.0000       290.09509       98880.094       15220.678       2.9937500     -0.17650000    -0.085000000       342.94700       1.9336934     0.011355779
       2837.0000       290.21170       98910.206       15318.342       4.6170000      0.24800000     -0.43300000       341.98400       1.9406528     0.011927078
       2842.0000       290.21895       98917.270       15324.082       2.1070000    0.0030000000       1.3842500       343.51000       1.9332836     0.016065618
       2847.0000       290.19241       98895.295       15337.804       5.7100000     -0.89125000     -0.50700000       342.10200       1.9344116     0.011144149
       2852.0000       290.15875       98888.529       15342.539       4.8775000    -0.085250010      0.23250000       342.88900       1.8907911     0.014455361
       2857.0000       289.99551       98872.968       15250.424       5.5242500     -0.20150000     -0.13650000       341.57100       1.9299972     0.012672939
       2862.0000       289.91976       98870.917       15206.908       6.0057500     -0.88250010     -0.13250000       342.03200       1.9223668     0.011869207
       2867.0000       289.92472       98889.519       15240.758       4.3570000     -0.92375000     -0.32675000       341.54500       1.9255421     0.015133481
       2872.0000       289.89492       98897.488       15217.939       3.4500000     -0.59525000     0.081000000       342.58400       1.8881374     0.015147663
       2877.0000       289.86522       98912.980       15136.560       3.2190000      -1.4310000     -0.40225000       342.34300       1.9112732     0.018203476
       2882.0000       289.84507       98914.166       15099.420       4.4030000      -2.2065000     0.084000010       342.31200       1.8789807     0.019393302
       2887.0000       289.80951       98892.307       15046.948       4.2127500     -0.19600000     -0.59350000       342.56700       1.9004975     0.011578279
       2892.0000       289.79100       98887.762       15031.576       3.6072500      0.27975000       1.7550000       343.25400       1.9067457     0.017610969
       2897.0000       289.84306       98882.898       15130.303       7.7562500      -1.8787500     -0.31375000       341.19300       1.9323151     0.014660707
       2903.0000       289.79883       98883.138       15104.255       5.3705000     -0.85125010       1.0417500       342.43000       1.9227540     0.013361579
       2908.0000       289.68910       98903.872       15020.277       7.3175000     -0.77050010    -0.078500000       342.09800       1.9414863     0.010887925
       2913.0000       289.62906       98909.359       14952.567       6.0972500      -1.4695000      -1.0065000       341.87700       1.9083113     0.010959934
       2918.0000       289.51658       98909.751       14799.588       4.3477500      -1.3077500    -0.012750000       342.25400       1.9119008     0.016360269
       2923.0000       289.46738       98905.225       14711.514       6.3070000      0.31800000     -0.88025000       341.73400       1.9195072     0.014635262
       2928.0000       289.52542       98885.281       14699.315       3.8075000     -0.14800000     -0.81075010       341.71400       1.9487202     0.015690180
       2933.0000       289.49818       98881.655       14629.404       7.2260000      0.47150000     -0.24100000       341.46500       1.9281179     0.013927475
       2938.0000       289.44982       98881.908       14538.397       6.8955000      0.37450000     0.050500000       341.35400       1.9274810     0.010407873
       2943.0000       289.38280       98884.372       14448.956       6.2640000    -0.054000000     -0.37625000       341.43900       1.8796876     0.013894727
       2948.0000       289.23541       98906.736       14335.164       4.5492500     -0.43500000      0.21100000       342.09400       1.9140148     0.014349608
       2953.0000       289.16326       98909.453       14232.771       5.2842500     0.086000000     0.026000000       341.52600       1.9039680     0.015006801
       2958.0000       289.12321       98899.666       14138.062       5.8235000     -0.24150000      0.68025000       341.44900       1.9325055     0.015490324
       2963.0000       289.07661       98893.939       14039.007       3.7165000     -0.61575000     -0.39250000       341.52900       1.9397082     0.010330537
       2968.0000       289.04848       98872.628       13892.387       5.5230000     -0.21625000      0.65450000       341.51600       1.9380407     0.011489418
       2973.0000       289.04209       98871.137       13835.433       4.3925000     -0.16375000     -0.29150000       341.61500       1.9485276     0.010201405
       2978.0000       289.04296       98887.484       13821.517       3.8450000      0.84525000     -0.86350010       341.52200       1.9313221     0.016782013
       2983.0000       289.04670       98892.503       13823.898       3.4375000      0.63150000     -0.19400000       341.80300       1.9485675     0.011242800
       2988.0000       289.10828       98908.422       13921.721       2.6395000      -1.3192500      0.19225000       341.65700       1.8623872     0.014308325
       2994.0000       289.10876       98907.927       13960.327       4.8440000      0.15725000     0.089750010       341.68800       1.9360113     0.015952195
       2999.0000       289.04701       98886.944       13944.931       3.3217500      0.48350000      0.41150000       341.76500       1.9472504     0.011544118
       3004.0000       289.04320       98881.203       13986.165       3.9737500      -2.1140000      0.76300000       341.65200       1.9405940     0.010867720
       3009.0000       289.05461       98871.507       14056.405       5.3142500     -0.62525000      0.28000000       341.61200       1.9130018     0.012277245
       3014.0000       289.04471       98874.266       14083.127       5.5715000      0.29825000      0.37900000       341.64900       1.9551176     0.010585580
       3019.0000       289.05678       98896.482       14134.887       5.1542500     -0.24100000     -0.24075000       341.36500       1.9313188     0.014815682
       3024.0000       289.05073       98899.122       14142.421       2.5725000      -1.0130000      0.19950000       341.75400       1.9161659     0.013414693
       3029.0000       289.00074       98898.511       14066.198       6.1860000     -0.18500000      0.35800000       341.40500       1.9029148     0.016570389
       3034.0000       288.98705       98895.004       14061.406       6.5547500     -0.62725000     -0.82550000       341.56000       1.9617594     0.010549723
       3039.0000       289.00066       98876.595       14095.986       4.9030000     -0.36100000    -0.020750000       341.52100       1.9181964     0.016522578
       3044.0000       289.00090       98870.564       14094.713       4.5470000      -1.7537500     0.099750000       341.30300       1.8686659     0.021497644
       3049.0000       288.99988       98866.050       14101.608       5.4955000     -0.38700000    -0.082000000       341.56600       1.9274364     0.011863915
       3054.0000       288.99977       98871.285       14093.010       5.6655000      -1.8192500     -0.82575010       341.37600       1.8987531     0.013395783
       3059.0000       289.01108       98891.788       14047.351       4.5880000     -0.24100000      0.19075000       341.79000       1.9339756     0.010868159
       3064.0000       288.99489       98893.337       14030.358       5.7237500      -1.1447500     -0.13225000       341.46700       1.9251346     0.012469959
       3069.0000       288.96907       98889.839       14036.343       5.0817500      0.69900010      0.46075000       341.64700       1.8823622     0.015210395
       3074.0000       288.93313       98892.189       14018.597       7.7855010      -1.1812500    -0.064750000       341.14300       1.9897312    0.0096930855
       3079.0000       288.85904       98882.087       13993.731       5.9450000      -1.4800000     0.036750000       341.14900       1.9071720     0.013307049
       3085.0000       288.82030       98885.280       13965.975       4.8667500      0.80225000     -0.36975000       341.39000       1.9446990    0.0099090132
       3090.0000       288.79720       98908.700       13935.416       5.7877500      -2.7787500     -0.64000000       341.42000       1.9399714     0.010571147
       3095.0000       288.78607       98908.460       13899.004       5.9185000      -1.2465000     -0.40150000       341.39500       1.9177610     0.011733646
       3100.0000       288.80000       98897.716       13859.538       6.0135000      -1.4137500      0.14700000       341.29300       1.9071967     0.013736451
       3105.0000       288.80006       98891.019       13827.124       2.9982500       1.0202500    -0.018500000       341.68400       1.9644024    0.0099618917
       3110.0000       288.79073       98870.986       13770.243       5.6425000      -1.2582500       1.6252500       341.67700       1.9222458     0.010383563
       3115.0000       288.80929       98872.975       13769.952       5.0215000      0.12150000    -0.013250000       341.57000       1.9387609     0.010764768
       3120.0000       288.84614       98889.252       13800.256       4.5022500     -0.72775010     -0.51750000       341.56400       1.9410410    0.0098980868
       3125.0000       288.86604       98894.217       13837.617       6.0107500     -0.12025000      0.18450000       341.27700       1.9297324     0.010135690
       3130.0000       288.90315       98909.922       13912.006       7.0447500      -1.5910000      -1.0302500       341.19300       1.9207214     0.011622974
       3135.0000       288.91424       98906.676       13964.827       4.5577500    -0.021000000     -0.11500000       341.13500       1.9036143     0.012323109
       3140.0000       288.89996       98883.870       14024.822       4.9492500      -1.2555000      0.79500000       341.74200       1.9638075     0.010796713
       3145.0000       288.89996       98882.495       14063.386       5.4735000     -0.62700000     0.020250000       341.43300       1.9039219     0.011521865
       3150.0000       288.90017       98882.510       14099.484       3.2400000      -1.0547500      0.31950000       341.64700       1.9472674     0.011250432
       3155.0000       288.90035       98887.008       14110.018       3.5500000     -0.54075000      0.75150000       341.60700       1.9189027     0.011004855
       3160.0000       288.90893       98908.677       14105.978       5.3432500      -1.0390000      0.24300000       341.42700       1.8752014     0.011532157
       3165.0000       288.89032       98908.461       14075.311       3.6950000      -1.5490000     -0.45825000       341.37900       1.9280472     0.010156353
       3170.0000       288.84493       98896.989       13996.498       3.9022500     -0.12350000      0.52950000       341.69600       1.9086857     0.011007718
       3176.0000       288.84462       98891.126       13979.342       3.4750000     -0.53250000     -0.55775000       341.55800       1.9167638     0.010505217
       3181.0000       288.84330       98876.590       13965.477       3.2397500     0.020750000      0.57800000       341.89200       1.9613140     0.011146162
       3186.0000       288.85498       98880.502       13970.716       1.7357500      0.43050000     0.030250000       342.07900       1.9402208    0.0099036709
       3191.0000       288.90601       98897.200       14017.372       2.0387500     -0.59475000      0.75400000       342.00400       2.0435766     0.011998188
       3196.0000       288.89996       98898.040       14045.683       3.5695000     -0.76775000      0.21025000       341.89900       1.9016386     0.010137422
       3201.0000       288.89998       98897.561       14064.620       2.1652500      0.11950000    -0.018750000       341.93800       1.9333206     0.013021108
       3206.0000       288.91500       98875.767       14113.562       3.6427500     -0.93275000      -1.0047500       341.35200       1.9274835    0.0096030606
       3211.0000       288.90631       98871.011       14125.873       3.8690000     -0.56900000     -0.36200000       341.57100       1.9172458    0.0097371996
       3216.0000       288.88534       98874.866       14114.203       3.5940000      -1.3287500      0.78275000       341.72100       1.9212734    0.0099620701
       3221.0000       288.84367       98889.895       14060.037       5.9822500      0.41825000     -0.57100000       341.41100       2.0135369     0.010395521
       3226.0000       288.84466       98894.921       14060.215       6.6277500     -0.35575000      0.10550000       341.50600       1.9052869     0.011016322
       3231.0000       288.83786       98909.398       14052.989       5.1560000     -0.62225000     0.070000000       341.55100       1.9318554    0.0087763961
       3236.0000       288.94557       98886.655       14142.573       5.7302500     -0.91550000     -0.10925000       341.36000       1.9090175    0.0099131568
       3241.0000       288.97011       98881.892       14165.249       3.0555000      0.57150000      0.28800000       341.68800       1.9221315    0.0095857658
       3246.0000       288.92490       98888.423       14141.112       5.8237500      0.25850000     -0.51975000       341.27900       1.9480197    0.0092023100
       3251.0000       288.90614       98889.254       14120.693       4.6640000     -0.53775000     -0.36650000       341.18100       1.9691292    0.0095599855
       3256.0000       288.81500       98905.798       14025.101       4.4215000     -0.11825000     -0.17650000       341.34700       1.9157686     0.010320293
       3261.0000       288.78141       98909.675       13985.521       2.8927500     -0.51775000    -0.026750000       341.62900       1.9201922     0.011576968
       3267.0000       288.83296       98885.414       14007.332       3.8172500    -0.054000000     -0.64600000       341.79000       1.9390601    0.0099247675
       3272.0000       288.85280       98882.067       13999.897       2.6232500     -0.99000010     0.063250010       341.75300       1.9657593    0.0095247606
       3277.0000       288.88942       98886.698       14002.045       3.0022500      -1.0702500     -0.27925000       341.46500       1.8829116     0.015097417
       3282.0000       288.90827       98888.942       14002.518       2.9567500   -0.0030000000      0.80200000       341.83500       1.8956293     0.010609739
       3287.0000       288.87180       98912.089       13947.576       4.7997500     -0.29275000     -0.24275000       341.43000       1.8980574     0.011191330
       3292.0000       288.89397       98915.291       13956.793       4.4987500     -0.55225000     -0.24675000       341.57800       1.9554298     0.013423176
       3297.0000       288.96855       98890.903       14025.774       3.6667500     -0.88675000    -0.010000000       341.79600       1.9216808     0.013445402
       3302.0000       289.00837       98887.406       14078.622       3.7060000     -0.50450000      0.45750000       341.94000       1.8970911     0.012683164
       3307.0000       289.09572       98887.392       14170.292       5.3877500     -0.33000000     -0.61450000       341.51800       1.8977528     0.013325549
       3312.0000       289.12156       98887.921       14238.184       4.7690000      -1.3882500     -0.68475000       341.35700       1.9541022    0.0096530550
       3317.0000       289.07967       98911.811       14305.024       3.4540000     -0.31825000      0.25875000       341.65800       1.8908656     0.011813305
       3322.0000       289.04805       98914.760       14336.343       4.4935000      0.65850000     -0.33850000       341.70800       1.9621448     0.013790126
       3327.0000       288.98877       98892.036       14365.818       4.3775000      -1.9985000     0.026500000       341.73000       1.9009935     0.010312272
       3332.0000       288.93858       98887.256       14346.442       4.6887500     -0.87175010     -0.43250000       341.52700       1.9751055     0.010277056
       3337.0000       288.86096       98884.419       14238.119       3.9245000      -1.9862500     -0.70900010       341.54400       1.9023801     0.013662620
       3342.0000       288.83387       98883.015       14182.090       4.1952500      -1.1252500     -0.64450000       342.10000       1.9362065     0.013962882
       3347.0000       288.84376       98901.737       14124.183       3.1372500      -1.1207500     0.059000000       341.52000       2.0034033     0.011711946
       3352.0000       288.84497       98904.049       14067.723       5.7392500      -1.1747500    -0.038000000       341.33200       1.9051770     0.013331259
       3358.0000       288.90834       98885.281       14039.919       5.9855000      -1.5275000    -0.030500000       341.22300       1.9468212     0.010383160
       3363.0000       288.91057       98883.513       13997.970       4.4557500      -1.1715000      -1.0400000       341.34300       1.9199938    0.0093019473
       3368.0000       288.86162       98883.365       13915.093       3.0792500     -0.77100000      0.84975000       341.69800       1.9546427    0.0089185517
       3373.0000       288.84128       98884.481       13877.800       3.7687500     0.096250010     -0.67100000       341.65200       1.9503597    0.0086287828
       3378.0000       288.80476       98902.644       13861.060       3.3575000     -0.64800000      0.65050010       341.80300       1.9582426    0.0097732151
       3383.0000       288.78826       98903.526       13852.313       3.5102500     -0.82175000     0.054000000       341.81600       1.8929119     0.014296192
       3388.0000       288.80011       98885.061       13867.260       4.0302500      0.18850000     -0.97900000       341.42300       1.9538201    0.0095631961
       3393.0000       288.80006       98883.218       13886.742       3.5825000      0.41650000     0.032500000       341.56900       1.9487420    0.0093209991
       3398.0000       288.78702       98881.646       13903.844       5.2060000      -1.1575000      0.10025000       341.69900       1.9835231    0.0094242152
       3403.0000       288.80108       98884.229       13948.015       5.8727500     -0.34925000     -0.28175000       341.37200       1.9192528    0.0090588130
       3408.0000       288.85109       98907.800       14038.620       3.0580000     -0.63100000     -0.17675000       341.65900       1.9228098    0.0093489698
       3413.0000       288.85739       98909.237       14087.114       4.6407500      -2.5347500    -0.011750000       341.09200       1.9102820    0.0087255727
       3418.0000       288.86978       98890.323       14153.539       3.3060000      -1.1042500      0.68150000       341.58800       1.8758375     0.011204732
       3423.0000       288.85245       98887.941       14168.811       4.0342500      -2.5645000      0.83225010       341.65100       1.9305365    0.0089730738
       3428.0000       288.76634       98883.537       14117.637       5.1850000      -2.1937500     -0.39325000       341.48000       1.9186327    0.0092831530
       3433.0000       288.73054       98883.060       14097.105       5.7220000    -0.080250000     0.038750000       341.44900       1.9236827    0.0088192536
       3438.0000       288.70492       98902.573       14058.441       2.7977500     0.018750000      0.74150000       341.89400       1.9202007    0.0091172977
       3443.0000       288.68857       98903.287       14034.777       3.8205000     0.070500000     -0.16200000       341.63200       1.9122421    0.0090685374
       3449.0000       288.71144       98883.268       14044.624       2.5982500      -1.0100000    -0.082250010       341.95800       1.9135053    0.0090068034
       3454.0000       288.69484       98883.765       14007.446       3.7147500      -2.1050000      0.30475000       341.72700       1.8917054    0.0096189401
       3459.0000       288.64715       98887.502       13928.943       3.8262500      -1.1055000     -0.19850000       341.63100       1.9277189    0.0092749433
       3464.0000       288.64354       98891.435       13899.365       4.1467500      0.53250000     -0.11525000       341.64400       1.9369176    0.0088052270
       3469.0000       288.64365       98914.631       13861.744       4.7967500      -2.1287500     -0.71475010       341.71000       1.9263233    0.0093563525
       3474.0000       288.64976       98913.825       13846.869       5.2452500      -1.9185000     -0.55575000       341.47600       1.9046839    0.0092909808
       3479.0000       288.71075       98890.050       13894.836       4.6637500     -0.21825000     -0.13925000       341.85700       1.9143147    0.0088371644
       3484.0000       288.70849       98886.925       13884.571       3.7747500     -0.82150010    -0.095250000       341.61300       1.9405429    0.0096922259
       3489.0000       288.64720       98881.659       13823.733       3.5295000      -1.3955000      0.61000000       341.65800       1.9057484    0.0094242878
       3494.0000       288.64355       98883.907       13823.688       5.9135000      -3.2832500      0.15000000       341.19100       1.8882700     0.010217077
       3499.0000       288.63252       98908.789       13818.215       3.5245000      -1.3400000     -0.40375000       341.43400       1.9352248    0.0087149288
       3504.0000       288.65531       98908.472       13858.126       3.0227500      -1.6532500      0.33900000       341.73900       1.8943784    0.0096599401
       3509.0000       288.72006       98889.641       13956.476       4.8925000      -2.8195000      0.17325000       341.48600       1.8847895     0.011038132
       3514.0000       288.78629       98887.808       14042.875       4.8017500      -1.6325000     -0.24525000       341.67700       1.9021056    0.0091416483
       3519.0000       288.87290       98882.072       14144.438       2.5640000     -0.24100000     -0.11350000       341.70500       1.8929200     0.010607054
       3524.0000       288.94235       98884.215       14246.754       5.9152500      -1.1322500      0.60275000       341.31900       1.9029748    0.0097493089
       3529.0000       289.05183       98908.527       14399.455       5.0337500     -0.68050000      0.23600000       341.43000       1.9718194    0.0096183298
       3535.0000       289.08523       98907.029       14464.070       3.8460000      -1.7197500      0.23875000       341.55700       1.9185173    0.0099835597
       3540.0000       289.04844       98889.687       14477.985       3.8872500      -2.4650000     -0.77875010       341.26700       1.9116742    0.0098833044
       3545.0000       289.05843       98888.403       14480.624       3.4757500     -0.44350000      0.64675000       341.64700       1.9321225    0.0085454879
       3550.0000       289.02560       98882.223       14399.243       4.9740000      0.30825000     0.019000000       341.15700       1.9745754    0.0089835343
       3555.0000       289.07189       98885.599       14403.280       4.5770000     -0.35950000     -0.37750000       341.09200       1.8935695     0.011086761
       3560.0000       289.21468       98909.594       14462.692       3.6230000       1.0680000      0.37200000       341.84800       1.9517897    0.0086549479
       3565.0000       289.22879       98907.605       14453.405       2.6342500    -0.020000000      0.54550000       341.81300       1.9055879     0.010059375
       3570.0000       289.20463       98888.538       14440.564       4.0142500     -0.42200000     -0.42700000       341.60800       1.9157888    0.0087142246
       3575.0000       289.20573       98889.143       14410.192       5.0270000     -0.73400000    0.0027500000       341.95300       1.9619860    0.0093481267
       3580.0000       289.13909       98887.037       14325.547       5.0695000     -0.33875000      0.12625000       341.55800       1.9514111    0.0084305374
       3585.0000       289.13720       98890.685       14289.693       4.0030000     -0.14750000     0.037250000       341.79200       1.9052931    0.0099427463
       3590.0000       289.18539       98914.957       14263.353       6.0880000      -1.2980000      -1.0535000       341.32000       1.9279278    0.0089051652
       3595.0000       289.23462       98911.972       14266.503       4.0827500       1.4672500     -0.36050000       342.06600       1.8840300     0.010350166
       3600.0000       289.29381       98887.936       14283.456       4.6780000       1.6612500      0.14425000       341.73300       1.8783822     0.011032658
       3605.0000       289.33385       98887.435       14325.733       3.2810000     -0.12375000       1.0175000       342.19000       1.9266056    0.0095916220
       3610.0000       289.40641       98888.500       14411.281       5.1687500       1.2212500     -0.21550000       341.51900       1.8958362    0.0095454029
       3615.0000       289.42849       98890.189       14469.505       4.9245000      0.37925000    -0.050500000       341.66200       1.9036929     0.010555247
       3620.0000       289.40952       98909.637       14550.467       8.0272500      0.81550000     -0.13600000       341.83900       1.9258027    0.0087616685
       3626.0000       289.38608       98905.003       14579.602       5.9675000      0.41750000      0.34850000       341.42000       1.9352895    0.0089792128
       3631.0000       289.34423       98882.134       14570.166       4.0915000      0.19825000      0.23700000       341.52500       1.9165647    0.0097178061
       3636.0000       289.34558       98883.745       14583.120       4.2517500       1.5230000   -0.0032500000       341.47200       1.8916586    0.0097155031
       3641.0000       289.34449       98890.102       14577.629       4.7590000     -0.29950000     -0.29525000       341.57500       1.9616373    0.0093579197
       3646.0000       289.38515       98892.034       14591.445       3.8410000      0.93900010     -0.36850000       341.63900       1.9217828     0.010032206
       3651.0000       289.40676       98896.219       14592.104       4.0860000      0.65000000      0.55800000       341.55200       1.9163741     0.011029226
       3656.0000       289.38488       98889.341       14554.279       6.0855000       1.8510000     -0.14150000       341.44300       1.9047917     0.012076829
       3661.0000       289.39343       98887.883       14534.394       4.4797500      -1.0300000     -0.42575000       341.82900       1.9249674    0.0096165717
       3666.0000       289.41421       98891.341       14520.507       5.3515000       1.8560000     0.071750000       341.50500       1.9090700     0.010335417
       3671.0000       289.44367       98909.231       14500.659       4.0602500      0.63475000     0.012000000       341.60000       1.9253768     0.010220609
       3676.0000       289.48570       98904.361       14538.843       3.6175000     -0.67525010     -0.24675000       341.36100       1.8862675     0.012072855
       3681.0000       289.58006       98888.373       14623.154       3.7622500      0.32125000      0.14450000       342.31700       1.8929258     0.012333139
       3686.0000       289.46272       98888.471       14648.534       3.9332500      0.44400000      0.25925000       342.40500       1.9642771     0.010219619
       3691.0000       289.40321       98887.983       14637.011       3.3285000     -0.35500000      0.46525000       342.66100       1.9346614    0.0095288133
       3696.0000       289.25841       98910.483       14508.191       3.3255000    -0.066000000      0.37350000       342.29800       1.9178717    0.0098756711
       3701.0000       289.17481       98915.359       14426.575       3.3387500     -0.47800000    -0.077750000       342.53100       1.8963948     0.011789568
       3706.0000       289.18508       98892.428       14345.159       2.1422500     -0.28100000      0.30475000       342.95800       1.9137935     0.010124601
       3711.0000       289.19367       98888.003       14292.351       2.7540000      -1.3342500      0.46800000       342.78100       1.8856736     0.011656614
       3717.0000       289.21888       98891.916       14251.703       2.8630000       1.2302500     -0.57150000       342.69900       1.9166878     0.011538699
       3722.0000       289.25032       98889.038       14252.480       4.4735000      0.29925000      0.21050000       342.25400       1.9149367     0.010564774
       3727.0000       289.33766       98897.433       14310.662       3.9832500      -1.6375000      0.25100000       341.88900       1.9001529     0.014343078
       3732.0000       289.36533       98897.879       14342.441       4.0112500     -0.37475000     -0.36750000       342.34700       1.9165678     0.010374368
       3737.0000       289.36962       98874.053       14410.732       2.9780000      0.30450000      0.15675000       342.58700       1.9491244     0.010727196
       3742.0000       289.35729       98870.716       14432.390       2.9622500       1.1977500      0.41400000       342.39300       1.9012542     0.010963746
       3747.0000       289.23300       98889.213       14374.420       2.8772500     -0.38925000      0.72050010       342.45200       1.8979088     0.010981197
       3752.0000       289.22818       98891.939       14381.731       3.7065000     -0.38650000      0.25975000       342.32400       1.9211091     0.010423307
       3757.0000       289.29475       98893.791       14398.688       3.9412500      -1.4032500      0.86025010       342.29500       1.9224274     0.010852680
       3762.0000       289.34763       98897.615       14428.073       2.8092500     -0.11275000      0.26000000       342.28400       1.9136110     0.011075802
       3767.0000       289.51750       98888.596       14509.214       2.1167500     -0.49075000      0.73300000       342.65100       1.9667390     0.011053461
       3772.0000       289.58259       98888.030       14577.362       3.8685000     0.053000000    -0.019750000       342.80700       1.9172047     0.013650401
       3777.0000       289.55571       98907.510       14656.276       3.3982500      0.35025000      0.24175000       341.98200       1.9519711    0.0098760858
       3782.0000       289.55435       98908.879       14703.606       4.8727500     -0.67725000     -0.56850000       341.65400       1.8726044     0.014517611
       3787.0000       289.50961       98889.920       14757.611       4.2540000     -0.95200000     -0.49150000       341.72400       1.9281966     0.010093053
       3792.0000       289.49140       98888.356       14774.387       3.1377500      -1.1140000      0.55100000       342.12300       1.8704785     0.015293330
       3797.0000       289.52862       98889.305       14731.952       5.6132500     -0.11425000     -0.30175000       341.80600       1.9546072     0.010011558
       3802.0000       289.50642       98888.710       14706.955       4.2965000     -0.39575000     0.077000010       342.30100       1.9681204     0.015266811
       3808.0000       289.42591       98907.357       14683.246       5.3967500      0.43275000     -0.39775000       341.17800       1.9321479     0.010374690
       3813.0000       289.38585       98909.083       14627.592       6.0770000     -0.55975000      0.40925000       341.75500       1.9558021     0.010810686
       3818.0000       289.34987       98889.311       14573.767       4.4232500      0.42250000     -0.28225000       341.25200       1.9269567     0.010152080
       3823.0000       289.27580       98887.754       14475.039       4.8067500      0.66575000     -0.87275000       341.23900       1.9592729     0.010789794
       3828.0000       289.15767       98897.896       14291.565       5.6125000      0.52325000      0.29300000       341.75100       1.9012710     0.010745979
       3833.0000       289.12412       98895.186       14172.407       5.1377500      0.11700000     0.066000000       341.67100       1.9194392     0.013257430
       3838.0000       289.09082       98889.685       14047.533       5.3572500     -0.46600000     -0.17475000       341.65200       1.9197331     0.010682987
       3843.0000       289.08209       98890.693       13957.030       3.7755000     0.064750000     -0.17350000       341.91100       1.9023047     0.010988909
       3848.0000       289.19052       98883.439       13896.106       4.9915000     -0.83975010     0.053500000       341.95900       1.9265061     0.015232251
       3853.0000       289.22273       98883.018       13864.836       3.8470000     -0.36800000      0.77025000       341.88400       1.9373246    0.0092483978
       3858.0000       289.17468       98902.640       13836.008       2.4692500      -1.5935000    0.0077500000       342.44300       1.8358347     0.018921926
       3863.0000       289.20260       98903.425       13873.855       2.3897500      -1.2320000   -0.0095000010       342.05900       1.9471547     0.012842030
       3868.0000       289.27772       98883.475       13994.536       3.3927500      0.16300000    -0.036250000       341.94000       1.8639972     0.017885412
       3873.0000       289.31811       98882.913       14089.129       1.7857500      -1.4967500     -0.32925000       342.01900       1.9749736     0.010705857
       3878.0000       289.39072       98892.279       14237.076       2.0815000     -0.39050000      0.16400000       342.23500       1.9104588     0.010637162
       3883.0000       289.42277       98889.917       14336.442       3.0497500      -1.9675000       1.1837500       342.49000       1.9468437     0.011151943
       3888.0000       289.38709       98889.168       14393.657       2.3257500      -1.0195000      0.14550000       342.26300       1.8735821     0.014594196
       3893.0000       289.40071       98891.786       14473.043       2.8135000     -0.23825000      0.51275000       342.15100       1.9027803     0.014931998
       3899.0000       289.46389       98882.934       14606.007       3.1997500      0.21975000      0.25500000       342.27400       1.9240734     0.011678583
       3904.0000       289.45097       98883.523       14619.459       3.0647500      -1.1310000      0.36450000       342.45500       1.8728499     0.014121440
       3909.0000       289.40420       98902.088       14589.340       2.2390000      -1.6197500      0.17875000       342.23100       1.9079432     0.011118092
       3914.0000       289.39448       98902.990       14556.749       2.4945000      -1.8420000       1.0075000       341.98100       1.9091926     0.010674492
       3919.0000       289.34317       98888.391       14423.927       3.6075000      -2.3110000     -0.35575000       341.78400       1.9485057     0.011037856
       3924.0000       289.33509       98889.193       14371.357       3.1750000      -3.1410000     -0.24000000       341.78500       1.9142239     0.011035678
       3929.0000       289.39928       98897.505       14367.167       1.3717500     -0.57900010     -0.44875000       342.20800       1.9426427     0.010362625
       3934.0000       289.41297       98894.270       14351.722       4.5152500     -0.48775000     -0.22225000       341.68300       1.8993665     0.011085457
       3939.0000       289.38867       98889.969       14324.188       4.7645000     -0.22025000    -0.049750000       341.42900       1.9348833     0.010189053
       3944.0000       289.40526       98890.848       14350.092       3.2722500      -1.6995000      0.25075000       341.78200       1.9112483     0.010436705
       3949.0000       289.44221       98883.318       14420.012       3.2835000      -1.0632500      0.17975000       342.16300       1.9240711     0.011360825
       3954.0000       289.46235       98883.803       14467.590       4.8232500     -0.93650010      0.10150000       341.32900       1.9366073    0.0098288119
       3959.0000       289.51092       98903.452       14563.883       3.9657500     -0.53150000     -0.32075000       341.43900       2.0973473     0.013125773
       3964.0000       289.50874       98902.757       14593.273       3.5560000      -1.3542500     -0.33500000       341.77100       1.8988638     0.010978914
       3969.0000       289.45803       98883.266       14570.957       2.6107500      -1.4910000     -0.73300000       341.86100       1.9455767     0.010699876
       3974.0000       289.43818       98883.834       14567.676       3.2937500      -2.1917500    -0.012750000       341.71300       1.9144940     0.016353238
       3979.0000       289.40087       98891.880       14538.094       1.8372500      -1.7220000      0.53075000       342.38100       1.9360259     0.011266642
       3984.0000       289.38725       98889.316       14530.962       2.1515000      -1.4462500      0.17550000       342.30500       1.9197474     0.011047119
       3990.0000       289.41921       98890.481       14550.411       2.3150000      -1.4787500    -0.078750010       342.16600       1.9316639     0.010856949
       3995.0000       289.38138       98892.490       14525.437       2.5040000      -1.3952500    -0.063250010       342.31600       1.9082275     0.014494094
       4000.0000       289.30793       98883.025       14485.561       3.7000000      -2.4812500     -0.80200000       342.01700       1.9285774     0.010925925
       4005.0000       289.26777       98884.467       14444.833       5.4280000      -2.2727500     -0.37750000       342.18700       1.9138433    0.0098714471
       4010.0000       289.19334       98902.994       14379.675       3.7060000      -2.2695000     0.013250000       342.15500       1.8650437     0.017328025
       4015.0000       289.17046       98902.677       14321.575       4.2605000      -1.3832500     0.031250000       342.20200       1.8856424     0.011751242
       4020.0000       289.19981       98888.525       14261.432       5.1717500      -1.0512500     0.043000000       341.76600       1.8900738     0.011097999
       4025.0000       289.19969       98890.151       14218.958       2.8157500     -0.50825000     -0.26375000       341.93800       1.9312153     0.010650869
       4030.0000       289.19042       98896.849       14148.154       3.0742500     -0.82400010      0.66975000       342.07600       1.9208319    0.0093210679
       4035.0000       289.20925       98893.009       14163.435       4.6535000      0.83400010     -0.17475000       341.78300       1.9589461     0.010010623
       4040.0000       289.26341       98889.986       14261.106       4.0890000     -0.45525000     -0.53350000       341.93700       1.9239064    0.0092105656
       4045.0000       289.24569       98891.039       14265.139       3.3712500      -1.3290000       1.0547500       342.32100       2.0044003     0.013880963
       4050.0000       289.20076       98883.027       14266.437       4.2125000      -1.6635000    -0.047250000       341.61300       1.9235047     0.011666244
       4055.0000       289.19063       98884.502       14278.473       4.2267500     -0.24775000      0.29800000       342.21300       1.8919846     0.011633810
       4060.0000       289.13933       98903.747       14221.527       5.2075000     -0.99525000      0.27075000       341.89000       1.9213131     0.010732550
       4065.0000       289.13674       98901.410       14257.295       5.5055000      -1.0502500     -0.10475000       341.73900       1.9036619     0.014576830
       4070.0000       289.21203       98883.000       14404.480       3.9827500      -1.3882500      0.58375000       341.80600       1.8852906     0.013722957
       4076.0000       289.20026       98885.362       14411.435       4.1925000       2.7037500     -0.78500000       341.90600       1.9172974    0.0099990229
       4081.0000       289.14407       98890.581       14377.756       4.5820000     -0.24700000      0.35725000       341.65100       1.9243815     0.010077674
       4086.0000       289.14515       98887.458       14365.002       4.0192500     0.035750000     0.066000000       341.80900       1.9666407    0.0088771796
       4091.0000       289.13806       98890.049       14288.975       2.7100000     -0.48525000     0.039250000       342.05700       2.0064010     0.010561267
       4096.0000       289.24498       98894.452       14353.172       1.2217500     -0.53525000      0.15775000       342.41600       1.8983516     0.010027529
       4101.0000       289.26971       98890.510       14376.040       3.7910000     -0.87750010     -0.16000000       341.89900       1.9142481     0.016581222
       4106.0000       289.22540       98890.919       14382.099       2.9015000     -0.72650000      0.19800000       342.10600       1.9531664    0.0099169615
       4111.0000       289.20699       98892.285       14385.477       3.9220000      -3.4540000     -0.92150000       341.84800       1.9292587     0.010438879
       4116.0000       289.17629       98889.943       14377.912       2.8742500      -2.2302500      -1.0880000       341.77700       1.9336083     0.014103831
       4121.0000       289.08726       98870.797       14353.526       4.3085000      -3.0222500    -0.048250000       341.63900       1.9542339     0.011272524
       4126.0000       289.07001       98875.886       14307.608       4.9175000     -0.84450010     -0.41550000       341.79500       1.9029464     0.011154898
       4131.0000       289.10000       98898.319       14245.107       5.1600000      -1.9217500     -0.91975000       341.50300       1.9216052    0.0092830989
       4136.0000       289.08533       98887.737       14173.252       3.8035000     -0.76775000   -0.0025000000       342.01000       1.8296367     0.011554017
       4141.0000       289.09396       98889.525       14153.208       4.4692500      -4.2960000      0.40250000       341.70700       1.9314683     0.013170821
       4146.0000       289.14543       98894.267       14244.010       4.5312500      -2.3465000      0.12100000       342.06000       1.9216990     0.010146420
       4151.0000       289.15655       98890.320       14266.741       3.8305000      -1.3625000     -0.50375000       342.05700       1.9368434    0.0095426632
       4156.0000       289.17029       98886.310       14290.616       2.6462500      -3.4847500      0.72100000       342.13000       1.8667450     0.013801407
       4161.0000       289.16305       98890.280       14284.539       5.3260000      -3.5705000     -0.63100000       341.52600       1.9031127     0.010639528
       4167.0000       289.07683       98888.902       14177.157       3.2995000      -3.3627500      0.37750000       341.53500       1.9006021     0.011264250
       4172.0000       289.03822       98888.288       14123.011       3.5612500      -1.0495000     -0.26050000       341.58600       1.9097520    0.0091629464
       4177.0000       289.01042       98905.670       14081.248       3.2597500      -1.5912500      0.52925000       341.81900       1.9710343    0.0093755250
       4182.0000       288.99160       98909.026       14040.512       3.3502500      -2.7442500      0.48925000       341.50000       1.8745436     0.010743347
       4187.0000       288.98598       98890.118       14007.757       4.5975000      -2.3802500    -0.048500000       341.59600       1.9152831    0.0098051941
       4192.0000       288.99702       98887.485       13989.715       4.8500000      -1.6005000      0.14500000       341.75600       1.9384440    0.0093875638
       4197.0000       289.04862       98898.048       13958.810       3.3452500      0.20950000     -0.24150000       342.18300       1.9397770    0.0095800750
       4202.0000       289.05753       98895.797       13967.291       3.3457500     -0.18550000       1.0095000       342.25100       1.9196030    0.0089769965
       4207.0000       289.07196       98888.102       14066.159       3.5010000      -1.2880000      0.49600000       341.87500       1.9529526     0.011280097
       4212.0000       289.05917       98890.171       14075.950       5.3080000    -0.081000000     -0.49750000       341.72300       1.9186873    0.0088965868
       4217.0000       288.97653       98893.533       14058.739       2.6510000      0.67275010       1.1580000       342.05100       1.9431599    0.0095947295
       4222.0000       288.93794       98889.482       14033.228       4.9572500     -0.93775000     -0.37600000       341.63000       1.9124604     0.010560024
       4227.0000       288.89530       98886.877       13907.810       4.8922500      -1.7812500      0.12675000       341.55000       1.9161889    0.0094106833
       4232.0000       288.88745       98890.814       13854.056       3.6937500      -1.8292500     -0.67975000       341.60800       1.9536252    0.0085570308
       4237.0000       288.90584       98892.160       13832.281       2.8807500     0.074250010      0.19950000       342.01400       1.9471050    0.0090519066
       4242.0000       288.94811       98889.374       13838.122       3.6527500      0.42425000      0.46000000       341.58000       1.9588444    0.0094757698
       4247.0000       289.05822       98893.188       13892.333       4.5105000      -2.7472500      0.53600000       341.81600       1.9444578    0.0092463637
       4252.0000       289.11659       98896.882       13941.059       4.1130000      -1.8025000      0.23125000       341.57700       1.9246158    0.0089809050
       4258.0000       289.18995       98891.781       14022.971       3.3880000     -0.26075000     0.018250000       341.72000       1.9459622    0.0089771292
       4263.0000       289.22224       98888.121       14102.338       2.2590000     -0.72925000      0.17925000       342.18800       1.9784891     0.010359874
       4268.0000       289.21311       98892.893       14208.545       3.3600000    -0.080500010      0.21600000       342.15600       1.9045271    0.0095720597
       4273.0000       289.19948       98890.828       14278.367       1.9702500      -2.1917500      0.94875000       341.98500       1.9214470    0.0099382307
       4278.0000       289.13553       98872.151       14337.065       4.9587500      -3.6975000     -0.47250000       341.35400       1.9493659    0.0085580390
       4283.0000       289.14246       98872.238       14401.912       4.7022500      -2.2025000      0.63325010       341.65400       1.9237028    0.0091486458
       4288.0000       289.21974       98891.179       14503.103       3.6937500     -0.99425010       1.1442500       341.81100       2.0643425     0.013782105
       4293.0000       289.20221       98892.033       14488.617       3.9285000      -1.8717500      0.10900000       341.21800       1.8860880     0.012221923
       4298.0000       289.16533       98888.110       14403.864       3.0192500      -1.4477500      0.31000000       341.76200       1.9723005    0.0093415529
       4303.0000       289.15128       98892.135       14351.143       2.0772500      -1.1985000      0.44900000       341.68500       1.8993136     0.011602575
       4308.0000       289.05401       98888.933       14202.798       2.1127500     -0.71150000      0.44175000       341.72600       1.8816352     0.010320948
       4313.0000       289.02498       98889.035       14120.574       2.2742500     -0.59325000      0.49150000       341.69200       1.9708648    0.0090066523
       4318.0000       289.08230       98904.386       14103.653       3.0812500      -1.4312500       1.2405000       341.87600       1.9301667    0.0093443672
       4323.0000       289.11231       98908.886       14083.271       3.4660000     0.083250000     -0.68700000       341.86400       1.9392781    0.0081854884
       4328.0000       289.11250       98899.633       14019.108       2.7432500      -2.1762500      0.63225000       341.69700       1.9928607     0.010231168
       4333.0000       289.15985       98899.474       14049.107       3.7980000     -0.87300000     -0.55025010       341.52500       1.9897981    0.0095537344
       4338.0000       289.27105       98907.894       14180.463       2.7215000     -0.59575000      0.24625000       341.93300       1.9168276    0.0089651904
       4343.0000       289.32711       98905.751       14261.854       2.6415000     -0.89925000     -0.21825000       342.02900       1.9056905     0.014162873
       4349.0000       289.39778       98894.309       14397.386       3.7287500      -1.6765000      0.24225000       341.95700       1.9844065    0.0098213346
       4354.0000       289.42485       98894.565       14489.329       2.9430000     -0.23525000     -0.13550000       341.90800       1.9995863     0.010077606
       4359.0000       289.42211       98897.766       14562.302       2.8995000      0.13150000      0.57800000       342.31500       1.9063004     0.010385780
       4364.0000       289.38951       98893.141       14609.341       3.1792500      0.14925000     0.053750000       341.84000       1.9739682    0.0091616600
       4369.0000       289.32598       98888.502       14688.362       2.8427500     -0.89925000     -0.15175000       341.99300       1.9996321     0.012268443
       4374.0000       289.26989       98891.082       14661.297       2.0047500      0.34300000      0.27375000       342.20900       1.9742914    0.0093995901
       4379.0000       289.14803       98890.921       14516.225       2.6007500    -0.033500000     -0.21675000       341.62600       1.9330697    0.0089742860
       4384.0000       289.11698       98888.619       14455.317       1.3427500     -0.35250000     0.026750000       342.03100       1.9388137     0.010509259
       4389.0000       289.11917       98894.278       14340.721       3.6010000      0.18475000      0.30325000       341.97200       1.9684511     0.012181227
       4394.0000       289.15897       98898.632       14319.925       2.9785000      -1.4015000     -0.21650000       341.81100       1.9248369    0.0086397253
       4399.0000       289.30511       98894.216       14417.122       4.0105000     -0.92275010     0.020000000       341.98400       1.9285403    0.0091154004
       4404.0000       289.32622       98894.405       14408.235       3.0510000     -0.15950000   -0.0080000000       341.58500       1.9575471    0.0095407527
       4409.0000       289.30188       98908.037       14392.562       2.1970000     -0.40375000      0.56000000       341.98700       1.9133682    0.0095902938
       4414.0000       289.30550       98906.932       14348.416       3.3262500      -1.9425000     -0.12225000       342.05800       1.9771016     0.010509089
       4419.0000       289.22144       98889.822       14190.042       2.0235000      -1.6662500    -0.046750000       342.32600       1.9991900    0.0098624807
       4424.0000       289.24677       98887.822       14180.654       3.7052500      -3.0230000     -0.26200000       342.15800       1.9486983     0.010379741
       4429.0000       289.37185       98891.221       14240.495       4.5360000      -1.3807500     -0.11900000       341.73900       1.9460161     0.010031711
       4434.0000       289.44130       98889.266       14285.306       4.5855000     -0.18325000      0.35250000       341.86500       1.9756872     0.011433427
       4440.0000       289.54159       98889.043       14403.084       3.7572500      -1.1995000     -0.92200010       341.78900       1.9760230     0.010187467
       4445.0000       289.60296       98892.931       14523.505       3.0867500      -1.8730000      0.26600000       341.96300       1.9687170    0.0084554528
       4450.0000       289.64888       98897.067       14647.909       4.0602500      -1.4830000      0.34600000       342.03000       1.9528913    0.0086071309
       4455.0000       289.68055       98893.287       14768.585       3.4050000    -0.062000000      0.49875000       341.87500       1.9833405     0.014192058
       4460.0000       289.71285       98888.909       14973.948       2.7372500      -1.4590000     -0.22325000       342.01400       1.9628990     0.010585956
       4465.0000       289.70595       98891.762       15041.385       2.9207500      -1.3525000       1.0187500       342.01200       1.9566815     0.010397226
       4470.0000       289.65441       98891.149       15037.721       3.2382500      -1.0565000      0.71725000       342.17500       1.9210853     0.010237623
       4475.0000       289.63480       98887.226       15000.989       2.3640000      -3.0385000      0.24925000       341.76000       1.9058726     0.010609121
       4480.0000       289.57833       98889.607       14876.920       2.2615000      -1.9612500      0.45225000       342.77000       1.9501837    0.0099465311
       4485.0000       289.60551       98893.569       14814.981       3.4215000      -2.0872500    -0.044750000       342.34200       1.9310200    0.0099095550
       4490.0000       289.70104       98890.234       14726.602       2.7092500      -3.0272500      0.14500000       341.48300       1.8833923     0.010441327
       4495.0000       289.72230       98888.068       14676.930       1.9340000      -2.1017500      0.67900000       342.26900       1.9489095    0.0097626774
       4500.0000       289.75029       98894.884       14658.274       1.5620000      -1.9832500      0.12000000       342.27600       1.9705603     0.010938119
       4505.0000       289.77135       98898.999       14647.414       1.4977500      -2.5560000     -0.20650000       341.77000       2.0194826     0.011483691
       4510.0000       289.73445       98895.883       14649.299       1.8320000      -2.6677500    -0.039500000       341.80400       1.9584604     0.010887738
       4515.0000       289.76203       98892.920       14651.837       3.4382500      -1.0977500     -0.10875000       341.85900       1.9404477    0.0094286666
       4520.0000       289.83101       98894.681       14654.879       3.3015000      -1.3685000      0.19625000       343.07800       1.9969269     0.015132072
       4525.0000       289.89926       98897.644       14713.221       5.1445000     -0.30750000     -0.48800000       341.93400       1.9316930     0.010756286
       4531.0000       290.01116       98895.293       14802.267       3.6935000     -0.69850000      0.26375000       342.47500       1.8825432     0.012005913
       4536.0000       290.03890       98892.398       14914.015       4.0970000      -1.0897500      0.32425000       341.96300       1.9842781     0.012630413
       4541.0000       290.06754       98895.749       15100.407       2.9917500     -0.36300000      0.60650000       343.24200       1.9333600     0.010816940
       4546.0000       290.01407       98890.759       15247.600       2.2357500      -1.1190000       1.1127500       342.79700       1.9172651     0.010591057
       4551.0000       289.95509       98888.281       15296.946       5.0410000      -1.6535000     -0.30450000       341.32300       1.9221342     0.010494174
       4556.0000       289.83962       98897.440       15246.782       4.2325000       1.1605000     -0.44875000       341.97500       1.8938444     0.014784041
       4561.0000       289.78766       98901.701       15193.361       4.7947500      0.12750000       1.2082500       342.57000       1.9041355     0.012486176
       4566.0000       289.76028       98903.518       15101.536       1.8225000     -0.45850000      0.62350000       343.34900       1.8799761     0.014926020
       4571.0000       289.74334       98900.294       14925.346       3.3767500     -0.86200000      0.19350000       342.73400       1.9424633     0.011363709
       4576.0000       289.72491       98900.255       14816.039       3.7602500     -0.38975000      0.30975000       342.61600       1.9090941     0.010391524
       4581.0000       289.74994       98902.200       14710.166       2.0957500     -0.34100000    -0.099250000       343.12000       1.9215375     0.010644857
       4586.0000       289.76022       98885.140       14662.267       2.2905000     -0.31250000     -0.41775000       341.81200       1.9649862     0.015308524
       4591.0000       289.75030       98882.521       14600.869       3.5910000     -0.54250000      0.22900000       342.25000       1.9866965     0.011235392
       4596.0000       289.77017       98892.874       14574.453       3.3695000     -0.65700000      0.53400000       342.24000       1.8951125     0.010743215
       4601.0000       289.76242       98891.012       14523.848       2.5192500     -0.76350000      0.76125000       343.32000       1.9463089     0.010901844
       4606.0000       289.68524       98886.279       14413.332       3.0575000       1.1727500    -0.052000000       342.56300       1.9502658     0.010954445
       4611.0000       289.64443       98890.261       14354.449       1.8987500    -0.092250000    -0.026000000       342.33300       1.9186760     0.011382832
       4616.0000       289.61596       98894.271       14316.753       3.7442500     -0.42700000    -0.095250000       342.69100       1.9462133    0.0097953336
       4622.0000       289.59509       98889.295       14285.144       4.5170000      0.93100010     0.016000000       341.71400       1.9807832     0.010547804
       4627.0000       289.59445       98886.825       14339.634       3.6357500     0.074750010     -0.23900000       342.30300       1.9061484     0.013633796
       4632.0000       289.55192       98890.855       14328.703       2.8545000      -1.1040000      0.25175000       342.93400       1.9155900     0.010476556
       4637.0000       289.44044       98893.670       14258.903       2.7125000     -0.26550000      0.44375000       342.21000       1.9120084     0.010475124
