MIRICO/SHELL project - Processed LDS file generated on
Mon Jul 24 19:28:13 2017
Time stamp for record start
05/12/2017  12:01:15.0000
Nb of points in the record
         918
Beam position index
       6.0000000
Beam angle (degrees)
       13.594000
Open Path length (m)
       58.300000
****************** Temporal data record ************************
Elapsedtime_sec Temp_K Press_Pa Humidity_ppmv WindX_m/s WindY_m/s WindZ_m/s Speedofsound_m/s CH4vmr_ppmv CH4vmrerror_ppmv  
      0.00000000       287.82935       98875.758       14110.907       3.3637500     -0.87275000      0.30375000       341.08300       2.0797589     0.013072239
       5.0000131       287.85989       98861.136       14074.330       4.0605000      -1.9987500     -0.69700000       341.05100       2.1143279     0.014820291
       10.000026       287.85005       98853.967       14009.533       2.6132500      0.30350000      0.37325000       341.18800       2.0406866     0.015204766
       14.999999       287.85513       98843.317       13943.747       2.9822500      0.63950000    -0.048250000       341.16800       2.0516778     0.011895434
       20.000012       287.85647       98841.510       13890.814       3.8665000     -0.70625000     0.013500000       341.11600       2.0400762     0.011780623
       25.000025       287.84547       98847.063       13834.210       4.8682500      -3.0592500     -0.12725000       341.13100       2.0673758     0.013345543
       29.999998       287.78785       98865.657       13734.306       4.2420000      0.91975000      0.16675000       341.13100       2.1294877     0.017040594
       35.000011       287.80076       98872.599       13727.664       2.9757500      0.80525000      0.27550000       341.21800       2.1523019     0.014280998
       40.000024       287.84979       98882.580       13773.359       3.3930000      -2.5807500      0.12500000       341.10500       2.0475273     0.011934908
       44.999997       287.89930       98875.737       13830.601       5.3482500     -0.88850000      0.70375000       341.00600       2.0640839     0.013180845
       50.000010       287.91211       98874.575       13859.161       3.2817500     -0.49450000     0.085000000       341.16600       2.0372068     0.015965583
       55.000024       287.85507       98876.387       13843.472       3.4745000      0.16700000      0.33875000       341.14200       2.1078636     0.016286760
       59.999996       287.84394       98875.427       13854.631       5.5057500     -0.14925000     -0.48800000       340.90500       2.0803069     0.013616465
       65.000010       287.84504       98874.439       13872.600       3.7765000      0.83475010      0.18875000       341.10000       2.0839570     0.012589740
       71.000017       287.84405       98876.730       13894.525       3.9712500      0.17150000   -0.0087500000       341.05500       2.0625965     0.014965639
       76.000030       287.88994       98861.586       13926.515       4.7985000      0.82050000      0.10775000       341.12600       2.1000893     0.013288632
       81.000003       287.90880       98857.934       13931.253       2.6212500     -0.76025000      0.30200000       341.25300       2.0540536     0.013712536
       86.000016       287.88616       98857.700       13883.373       5.7692500      0.10650000      0.18925000       340.90600       2.0877754     0.015512676
       91.000029       287.89730       98859.031       13872.239       6.1205000      -1.1970000     -0.43275000       340.92800       1.9228243     0.015679324
       96.000002       287.92009       98868.932       13858.170       7.5312500       1.5960000     -0.53950000       341.03700       2.0496328     0.018828986
       101.00002       287.95124       98876.834       13872.618       7.8282500      0.43975000     -0.11550000       340.87800       2.0076081     0.021121489
       106.00003       288.03881       98886.125       13950.991       6.3535000      0.95500000     -0.27525000       340.83100       1.8395342     0.024731837
       111.00000       288.06638       98891.953       13979.632       5.8480000     -0.79600010    -0.075500000       340.87700       1.9605318     0.018416034
       116.00001       288.05735       98901.381       13990.980       6.1907500      -1.2850000     -0.47775000       340.81500       1.8151245     0.018014778
       121.00003       288.05606       98902.898       14009.202       5.2317500      -1.6342500     -0.54800000       340.76000       1.9386398     0.025296560
       126.00000       287.99610       98894.975       13979.986       4.4882500      -1.5167500     -0.25700000       340.97100       2.0213241     0.023963619
       131.00001       287.98837       98889.880       13994.840       4.9580000      -2.4855000      0.24350000       340.85400       1.9747064     0.021434136
       136.00003       288.04923       98881.646       14076.125       5.0567500      -3.2772500     -0.52550000       340.88900       2.0302141     0.023793467
       141.00000       288.05854       98873.618       14106.945       3.9697500      -1.8725000     -0.17850000       340.96000       2.0291710     0.016620137
       146.00001       288.04210       98864.272       14113.861       4.3765000      -1.2742500     -0.33725000       341.09100       2.0342359     0.013222184
       151.00003       288.05202       98858.377       14137.408       5.1577500     -0.85875000     -0.60175000       340.93600       2.0925317     0.013766510
       156.99999       288.02870       98848.579       14116.823       4.7572500      -1.1680000      0.27025000       340.95900       2.0659566     0.014149700
       162.00001       288.04657       98848.173       14151.339       4.2157500      0.12575000      0.13375000       340.97900       2.0909885     0.015725838
       167.00002       288.13295       98856.776       14254.973       4.5897500     -0.71475010      0.11500000       340.88000       2.1152866     0.014971029
       171.99999       288.16950       98862.229       14311.020       4.0450000      0.12375000      0.19900000       341.07000       2.0549031     0.015671740
       177.00001       288.19525       98870.600       14380.369       3.4782500     -0.51350000     -0.21825000       341.11200       2.0201399     0.019040840
       182.00002       288.21173       98878.576       14416.466       5.1897500      0.60250000     -0.19450000       340.88600       2.1101689     0.014671790
       186.99999       288.17413       98887.561       14377.687       5.5045000      0.27325000     -0.14325000       341.09200       2.0540111     0.015600356
       192.00000       288.20152       98893.163       14413.205       4.5922500     -0.28375000    -0.027250000       340.89100       2.0229914     0.014331479
       197.00002       288.28912       98901.780       14485.174       4.7165000      0.79125010      0.91350010       341.10300       2.0886693     0.015178310
       202.00003       288.31527       98902.236       14536.419       3.7687500     -0.86200000      0.23450000       340.95600       2.0716524     0.015821850
       207.00000       288.37984       98894.060       14674.773       4.1427500     -0.58850000     -0.80950000       340.90700       2.0628035     0.013182437
       212.00002       288.36456       98888.590       14685.708       3.7310000      -1.6330000      0.26100000       341.04100       2.0662997     0.017218350
       217.00003       288.21713       98880.195       14573.447       3.4577500      -1.0985000      0.16375000       341.17500       2.0266626     0.012817045
       222.00000       288.17456       98872.176       14538.381       4.4867500      -1.0817500     -0.29125000       341.14600       2.0554382     0.015816476
       227.00002       288.13580       98864.321       14461.270       4.6445000     -0.97025010     -0.26500000       340.88700       2.0759328     0.012387357
       232.00003       288.13662       98857.314       14429.795       4.6917500     -0.53275000      0.22925000       340.98000       2.0203185     0.013461656
       237.00000       288.24630       98846.312       14497.351       3.1360000      -1.4762500      0.33775000       341.24900       2.0829526     0.011574825
       242.00002       288.26864       98842.496       14484.686       2.2767500     -0.73525010      0.18675000       341.29900       2.0791069     0.013645756
       248.00002       288.25841       98842.310       14417.044       3.3100000      -1.3942500     -0.30850000       341.02400       2.0149365     0.016536954
       253.00000       288.25196       98846.331       14379.153       3.3127500      -1.3257500     0.010250000       341.35800       2.0257578     0.013217018
       258.00001       288.21193       98857.324       14314.601       1.7655000     -0.91825000     0.069000010       341.47400       2.0082395     0.013828272
       263.00002       288.18160       98864.301       14279.519       3.4650000      0.10800000     -0.20075000       341.06200       2.0455702     0.014517655
       267.99999       288.16812       98872.201       14277.211       2.5797500     -0.98100010      0.14475000       341.29500       2.0615849     0.013638048
       273.00001       288.13187       98880.163       14250.901       3.0422500      -1.8700000    -0.011750000       341.23500       2.0150229     0.013996042
       278.00002       288.04695       98891.070       14210.892       3.6977500      -2.3082500      0.92125000       341.06700       2.1018451     0.013699042
       282.99999       288.02961       98893.189       14190.867       2.5922500    -0.067750010      0.42150000       341.50900       2.0637810     0.015567598
       288.00001       288.03117       98891.729       14157.757       4.3357500      -1.1792500      0.30450000       341.34300       2.0721329     0.014118413
       293.00002       288.05320       98890.529       14166.081       4.0252500     -0.58125000      0.19125000       341.29800       2.0476083     0.014520677
       297.99999       288.15194       98880.564       14230.192       3.8655000      -2.6965000      -1.1537500       340.98500       2.0696332     0.017267192
       303.00001       288.16934       98877.870       14238.207       2.2972500      -1.0365000      0.44700000       341.47800       2.0500646     0.016923770
       308.00002       288.15726       98881.373       14250.406      -65.536000      -65.536000      -65.536000       307.23200       2.0639594     0.016283660
       312.99999       288.15132       98879.726       14238.892       1.4085000      -1.0757500      0.73125000       341.63800       1.9964887     0.012998816
       318.00001       288.08932       98878.167       14165.448       2.5710000      -1.0922500      0.10550000       341.31000       2.2108818     0.016938546
       323.00002       288.09147       98872.936       14149.022       2.6270000      -1.4670000     -0.40450000       341.15900       2.0000538     0.015705085
       328.00003       288.13091       98863.144       14157.714       2.4420000     -0.77925000      0.81275000       341.49300       2.0378518     0.013549950
       333.00000       288.16694       98856.210       14159.914       3.0785000      0.19500000     0.071000000       341.37900       2.0090763     0.014919235
       339.00001       288.24881       98844.252       14184.792       5.3882500      -2.9160000    -0.037500000       341.04100       2.0239881     0.014199539
       344.00003       288.28028       98841.903       14193.711       3.1902500      -1.2720000      0.96675000       341.60800       1.9868195     0.014504628
       349.00000       288.28549       98844.671       14180.339       5.1132500     -0.76125000     -0.30575000       341.48700       2.0594178     0.012740274
       354.00001       288.33472       98845.607       14215.851       4.0642500      -1.9977500     -0.98400000       340.93800       2.0347155     0.022196779
       359.00002       288.38454       98848.792       14267.998       2.7547500      -1.8502500     0.081750010       341.42000       1.9941205     0.017724584
       364.00000       288.44311       98853.658       14333.809       3.1090000     -0.80700000      0.49025000       341.15900       1.8504743     0.019200393
       369.00001       288.56188       98858.735       14440.622       3.5892500     -0.79150000      0.21900000       341.56000       2.0621986     0.014565630
       374.00002       288.58543       98864.631       14518.688       2.8282500      -1.5662500     -0.87825010       341.29300       2.0291599     0.013575936
       379.00000       288.54778       98875.578       14586.457       3.6065000      -1.6847500    -0.071500000       340.98100       2.0522105     0.014185048
       384.00001       288.55762       98879.825       14670.618       3.0815000      -2.3475000     -0.56075000       341.28700       2.0478928     0.013229861
       389.00002       288.54306       98880.752       14776.808       1.9890000      -1.9577500      0.44000000       341.52300       2.1244566     0.015781748
       394.00000       288.55246       98881.914       14827.286       4.8867500      -1.6827500      0.46350000       341.57700       2.0637262     0.012573005
       399.00001       288.61165       98880.391       14883.692       4.5530000      -2.5552500      -1.1655000       341.07800       2.0512150     0.014770105
       404.00002       288.60443       98880.437       14871.566       3.9290000      -1.7230000    -0.041750000       341.29100       1.9800146     0.013886903
       408.99999       288.55318       98880.243       14779.633       4.2207500     -0.56900000     -0.51625000       341.06500       2.1209944     0.019353832
       414.00001       288.53319       98880.243       14731.780       3.5990000     -0.59775000   -0.0065000000       341.05300       2.0732345     0.014686276
       419.00002       288.49722       98880.449       14667.793       4.6347500      -1.0507500      0.38050000       341.44000       2.0015056     0.023392181
       423.99999       288.48611       98880.542       14613.090       3.4105000      -2.9767500      -1.2577500       341.32400       1.8989285     0.020073131
       430.00000       288.49965       98880.892       14559.856       3.1922500      -1.5277500     0.043000000       341.74400       2.0804782     0.014144407
       435.00001       288.49954       98878.759       14508.529       1.7345000     -0.78850000      0.36125000       341.92900       1.9753327     0.016374669
       440.00003       288.49427       98876.436       14435.480       5.3395000    -0.049250000      -1.1262500       341.18600       2.0247777     0.020605612
       445.00000       288.53061       98862.716       14440.567       5.0510000      -1.2445000      0.42725000       341.72800       2.0517600     0.015368142
       450.00001       288.55088       98858.260       14452.296       4.7272500      -1.6847500     -0.46300000       340.94700       2.0233835     0.020121689
       455.00003       288.60036       98863.824       14524.730       3.5092500      -2.2080000     -0.12825000       341.23900       1.9374608     0.020000595
       460.00000       288.61240       98860.991       14569.828       4.0292500     -0.94225010     -0.17825000       341.07900       2.0611306     0.014373071
       465.00001       288.56985       98858.421       14595.692       4.4095000      -2.3365000     0.056250000       341.22100       2.0521636     0.022582133
       470.00003       288.54994       98856.740       14627.876       4.4390000      -1.5047500      0.25500000       341.25400       1.8977367     0.020855417
       475.00000       288.53004       98852.601       14658.084       3.6297500      -1.2507500      0.16775000       341.68600       2.0554430     0.014070944
       480.00001       288.48727       98837.838       14679.822       3.6150000     -0.87175010      0.13275000       341.59900       2.0240164     0.014163933
       485.00002       288.50011       98837.414       14710.084       4.9965000     0.024500000      0.75000010       341.20500       2.0175248     0.015288249
       490.00000       288.54470       98845.360       14762.910       4.5722500     -0.18950000      -1.3117500       341.23200       2.0386337     0.014116612
       495.00001       288.60098       98845.774       14708.020       3.9982500      0.20325000     -0.23200000       341.44200       2.0673587     0.013403105
       500.00002       288.65154       98849.630       14687.565       4.9520000     -0.20375000     0.087000000       341.21200       1.9206543     0.021907339
       505.00000       288.68538       98856.522       14603.472       2.6185000      -1.1777500     -0.49700000       341.25300       2.0795546     0.015878520
       510.00001       288.74372       98860.587       14590.820       4.4085000      -2.1690000      0.33925000       341.21600       2.0956428     0.014904291
       515.00002       288.81434       98864.666       14625.969       3.1510000      -1.8387500      0.32175000       341.55300       2.0545011     0.016344738
       521.00003       288.92167       98871.766       14763.304       2.2755000      -1.7287500      0.48775000       341.85900       1.9931758     0.018362103
       526.00000       288.93345       98873.660       14744.630       3.4320000      -1.4290000     -0.88375000       341.12300       2.0445053     0.013107780
       531.00002       288.96405       98875.674       14753.092       2.5390000      -1.8817500      0.74250000       342.06600       2.0417535     0.018657021
       536.00003       288.99431       98879.127       14761.238       4.1617500      -1.7612500     -0.33325000       340.92500       1.9042825     0.013601663
       541.00000       289.02425       98880.937       14769.537       4.4637500      -1.5200000       1.2007500       341.72200       2.0586189     0.014932138
       546.00002       289.05386       98880.271       14778.115       4.2850000     -0.96825000     -0.83350000       341.27500       2.0134665     0.012790068
       551.00003       289.08313       98880.232       14786.505       2.0947500     -0.10125000      0.56475000       341.99200       2.0338317     0.015551899
       556.00000       289.11208       98880.406       14794.768       2.6882500     0.087250000      0.53950000       342.08400       2.0325020     0.012698791
       561.00001       289.14070       98880.482       14802.954       2.6770000     -0.18850000      0.28800000       342.42000       2.0432722     0.013004233
       566.00003       289.16899       98880.306       14811.086       2.9222500      -1.7492500      0.38350000       341.97500       1.9255368     0.012384781
       571.00000       289.19696       98880.289       14819.104       4.4530000      -1.5232500     0.084500010       340.97800       2.0277103     0.010947377
       576.00001       289.22459       98880.145       14827.052       2.6092500      -1.3170000      0.48375000       341.66500       1.9466209     0.012775067
       581.00003       289.25189       98880.070       14834.901       3.6565000      -1.9872500     -0.30675000       341.85900       1.9742448     0.013102972
       586.00000       289.27887       98884.382       14841.993       4.0645000      -1.8147500     0.078500000       341.77500       1.9322663     0.014307427
       591.00001       289.30551       98881.019       14850.168       4.0372500      -1.5532500      0.36075000       342.16500       2.0174692     0.012175101
       596.00003       289.33183       98867.123       14859.864       3.2240000      -1.1660000      0.59475000       342.13800       1.9515986     0.013640588
       601.00000       289.35781       98863.352       14867.932       3.2620000      -1.6480000    -0.082750010       341.44400       1.9623057     0.012796520
       606.00001       289.38347       98859.882       14875.871       4.7327500      -1.6412500      0.30375000       341.17300       1.9217579    0.0099501100
       612.00002       289.41382       98858.463       14884.869       3.9372500      -1.7317500    -0.015500000       341.82000       1.9555230     0.012547972
       616.99999       289.43875       98871.688       14890.075       3.7217500      -2.0087500      0.29875000       342.18200       1.9508545     0.015368820
       622.00001       289.46336       98872.138       14897.151       3.1117500      -1.3535000      -1.0500000       342.36600       1.9564457     0.011577231
       627.00002       289.48763       98863.749       14905.499       4.4692500      -2.3697500      0.29400000       341.79800       1.9291763     0.019895237
       631.99999       289.51158       98858.320       14913.316       2.8355000      -1.7162500      0.25050000       342.46800       1.9703578     0.014470362
       637.00000       289.53519       98842.407       14922.661       4.7297500      -3.1675000     -0.34925000       341.83600       1.9828468     0.012677244
       642.00002       289.55848       98842.755       14929.438       3.9350000      -1.7497500      0.10875000       341.97300       2.0090831     0.010938352
       647.00003       289.58144       98855.998       14934.161       4.0872500      -3.6722500     -0.12250000       341.61100       2.0358490     0.013506529
       652.00000       289.60407       98862.305       14939.870       4.8765000      -2.5087500     -0.61975000       341.33400       1.9482007     0.012645577
       657.00002       289.62636       98883.626       14943.199       3.7907500      -3.1967500    0.0022500000       342.18700       2.0272548     0.014968191
       662.00003       289.64833       98884.538       14949.584       3.4417500      -2.8652500    -0.098500010       340.76400       2.0040475     0.015209301
       667.00000       289.66997       98863.863       14959.209       2.9582500      -2.2845000    -0.085000000       341.71000       2.0905856     0.013796452
       672.00002       289.69129       98857.235       14966.606       3.9372500      -2.2075000     -0.41475000       341.12500       2.0438407     0.016179496
       677.00003       289.71227       98846.017       14974.637       3.1277500      -2.1097500     0.015500000       341.72500       1.9479301     0.012001629
       682.00000       289.73292       98841.439       14981.578       3.9662500      -2.0112500    -0.092500000       341.44300       1.9878367     0.015553927
       687.00002       289.75324       98849.896       14986.442       3.8427500      -2.0412500     -0.18450000       341.02500       2.0379340     0.015457274
       692.00003       289.77324       98851.556       14992.281       3.0947500     -0.79200010      0.55650000       341.66300       1.9679018     0.016450381
       698.00000       289.79680       98850.302       14999.697       4.1897500      -1.1422500     -0.47850000       341.61600       2.0201624     0.025688497
       703.00001       289.81607       98850.274       15005.644       3.1665000      -1.5697500     -0.92925010       341.91800       2.0163212     0.015173599
       708.00002       289.83501       98850.246       15011.524       3.7797500      -2.2452500     -0.28975000       341.95400       2.0284395     0.016391680
       713.00000       289.85362       98850.274       15017.328       2.1805000      -2.0500000      0.41025000       341.80900       2.0135108     0.023118431
       718.00001       289.87190       98848.152       15023.397       4.7067500       1.5882500      0.16525000       342.19400       2.0336435     0.017065233
       723.00002       289.88986       98851.399       15028.572       4.0835000     -0.96725000      0.26375000       341.82500       2.0025783     0.016235477
       727.99999       289.90748       98860.828       15032.728       4.1895000      -2.5305000     -0.24700000       341.20600       1.9788862     0.018011386
       733.00001       289.92477       98861.500       15038.170       3.6387500      -1.0515000    -0.061500000       341.59200       1.9476232     0.015727697
       738.00002       289.94174       98861.836       15043.600       3.9942500      -1.1092500     -0.49425000       341.23800       1.9662129     0.016502167
       742.99999       289.95838       98860.651       15049.202       3.6232500     -0.91525010     -0.17525000       341.33800       2.0140633     0.018350479
       748.00001       289.97468       98846.829       15056.695       3.3457500      0.25725000      0.40250000       342.26700       2.0681327     0.016048364
       753.00002       289.99066       98848.986       15061.656       2.9870000     -0.29650000     -0.53475000       342.14600       1.9554609     0.022358336
       757.99999       290.00631       98863.948       15064.574       3.6650000     -0.65325000     -0.38100000       341.42400       2.0055201     0.020829872
       763.00001       290.02163       98868.329       15069.068       3.1837500     -0.15000000     0.038000000       342.34100       2.0124723     0.016599630
       768.00002       290.03662       98874.768       15073.182       3.1162500     -0.99425010     -0.11100000       342.12400       1.9907061     0.017902380
       772.99999       290.05128       98878.567       15077.645       1.8497500    -0.038250000      0.90850000       342.88200       1.9166852     0.017589501
       778.00000       290.06561       98874.478       15083.269       3.5342500     -0.81500010    -0.037000000       342.31200       1.9406990     0.018754192
       783.00002       290.07962       98875.080       15088.108       2.8385000      -1.9097500    -0.095000010       341.63800       1.9521209     0.018932366
       789.00003       290.09598       98880.600       15093.095       3.2235000     -0.94750010      0.83300010       342.79600       1.9704397     0.016664513
       794.00000       290.10926       98881.692       15097.730       4.8842500      0.13725000     -0.17525000       342.33100       1.9569855     0.015887891
       799.00001       290.12221       98880.360       15102.684       4.9102500     -0.37825000     -0.13225000       341.08700       2.0746893     0.020425545
       804.00002       290.13483       98880.407       15107.367       4.1397500     0.010750000      0.30450000       342.53000       1.9605730     0.015019202
       809.00000       290.14712       98880.243       15112.026       3.7922500      0.13375000     -0.26825000       341.92000       2.0252363     0.021435477
       814.00001       290.15908       98880.243       15116.604       3.1617500      0.14500000    -0.049750000       342.31000       1.9699554     0.018254457
       819.00002       290.17072       98880.306       15121.117       2.0542500     -0.45275000      0.25750000       342.79000       1.9710405     0.014183983
       824.00000       290.18202       98880.306       15125.584       2.6170000      0.55775000    -0.063250010       342.72500       1.9842861     0.014657128
       829.00001       290.19299       98880.108       15130.027       3.5515000     -0.25425000    -0.068000000       341.89700       2.0753075     0.026633612
       834.00002       290.20364       98880.048       15134.394       3.9567500    -0.051000000    -0.058750000       341.38500       1.9705295     0.013107928
       839.00000       290.21395       98880.306       15138.658       2.5217500      0.63675000      0.85300000       343.10000       1.9872305     0.015985001
       844.00001       290.22394       98880.306       15142.908       2.3957500     -0.17950000      0.19175000       343.15700       2.0009172     0.016692098
       849.00002       290.23360       98880.360       15147.096       3.8122500     -0.54275000     -0.96325000       341.86200       1.9622507     0.015529403
       853.99999       290.24292       98880.406       15151.232       3.6257500     -0.70850000     -0.20150000       342.07500       1.9750515     0.013473572
       859.00001       290.25192       98880.300       15155.339       3.7515000     -0.54850000      0.38775000       342.51700       1.9441326     0.015250402
       864.00002       290.26059       98880.267       15159.382       2.7645000      -1.0542500     -0.32775000       342.07600       2.0216492     0.015719506
       868.99999       290.26893       98878.438       15163.652       3.8342500       1.0907500     -0.12900000       341.68000       1.9845718     0.014535355
       874.00001       290.27694       98882.118       15167.012       1.5872500    -0.043500000      0.34800000       343.07700       1.9169778     0.013043565
       880.00001       290.28612       98891.433       15170.213       2.9820000     0.018000000      0.16575000       341.85800       1.9917851     0.013630625
       885.00003       290.29341       98891.175       15174.072       3.8342500     0.062750000      0.24250000       341.85800       2.0860891     0.013062045
       890.00000       290.30037       98890.147       15177.999       3.4827500      0.16225000      0.10550000       341.50700       2.0548574     0.011564542
       895.00001       290.30699       98892.258       15181.386       5.5302500      0.16150000     -0.54000000       341.67700       1.9624952     0.015140941
       900.00003       290.31329       98890.267       15185.361       3.9402500     -0.58450000      0.10600000       341.89600       2.0775640     0.014537104
       905.00000       290.31926       98891.267       15188.820       3.3445000      0.35900000    -0.069750000       341.70500       2.0887556     0.014805807
       910.00001       290.32490       98891.443       15192.355       4.4592500      -1.1415000     -0.47950000       341.73500       2.1057480     0.013126987
       915.00003       290.33021       98883.153       15197.161       2.7487500      -1.1485000      0.11800000       342.19500       2.1225595     0.013271227
       920.00000       290.33520       98878.884       15201.289       3.6737500     -0.90075000     -0.16450000       342.36400       2.0229629     0.014202513
       925.00001       290.33985       98877.087       15204.981       1.8430000     -0.61100000      0.38375000       342.43700       1.9474723     0.012887882
       930.00003       290.34417       98880.306       15207.839       4.2470000      -1.4170000      0.17100000       341.87500       1.9729428     0.014807437
       935.00000       290.34817       98880.306       15211.149       2.6942500      -2.2667500      0.64600000       342.05100       2.0185986     0.012083138
       940.00001       290.35183       98879.446       15214.543       3.5745000      -1.2220000      0.18450000       341.92000       1.9477973     0.021998986
       945.00002       290.35517       98886.267       15216.687       2.9952500      -1.0015000     -0.27400000       341.87000       2.0228105     0.013437965
       950.00000       290.35817       98890.276       15219.219       3.7810000      0.15675000     -0.25700000       342.00600       2.0035155     0.014435161
       955.00001       290.36085       98900.343       15220.754       2.5270000     -0.90125010      0.41900000       342.03800       1.9830409     0.014858740
       960.00002       290.36320       98902.773       15223.431       2.3142500     -0.78600000      0.10850000       342.07600       2.0145509     0.016384120
       965.00000       290.36522       98900.273       15226.829       2.0045000      -1.7635000      0.32700000       342.25400       1.9814860     0.014845951
       971.00000       290.36721       98889.804       15232.006       3.2772500     -0.15100000      0.42925000       342.62700       1.9510402     0.018614420
       976.00002       290.36850       98882.448       15236.052       3.1900000     -0.90175000     -0.10175000       342.16400       1.9824329     0.019639878
       981.00003       290.36947       98878.728       15239.479       1.7175000      -1.9015000      0.89425000       342.23000       1.9944455     0.017913245
       986.00000       290.37010       98880.243       15242.036       3.8805000      -1.3027500     -0.53000000       341.94900       1.9955960     0.017227684
       991.00002       290.37041       98880.243       15244.778       3.1142500     -0.53600000     -0.11750000       342.07600       1.9378739     0.018615425
       996.00003       290.37039       98880.407       15247.444       4.0297500      -1.3082500      0.32725000       341.94700       2.0336236     0.019640916
       1001.0000       290.37004       98880.484       15250.072       3.3737500      -1.7140000      0.15500000       342.08200       2.0127561     0.020642555
       1006.0000       290.36936       98880.306       15252.688       3.7122500      -1.1837500    -0.073500000       341.72200       2.0032581     0.018306463
       1011.0000       290.36835       98880.306       15255.224       4.6522500      -1.5290000     -0.54875000       341.84200       1.9678274     0.020899222
       1016.0000       290.36701       98880.405       15257.693       4.7087500     -0.99275000     -0.20150000       341.57800       2.0799243     0.018930755
       1021.0000       290.36534       98880.464       15260.116       6.3800000      -3.2622500     0.022250000       341.41100       2.0115918     0.021633706
       1026.0000       290.36334       98877.500       15262.960       5.0967500      -2.2965000      0.32950000       341.40700       1.9532739     0.017944872
       1031.0000       290.36102       98879.782       15264.928       4.7497500      -1.7217500      0.18900000       341.66500       2.0628676     0.017922665
       1036.0000       290.35836       98889.992       15265.602       5.1945000      -2.1197500     -0.39950000       341.09300       2.0378796     0.016923248
       1041.0000       290.35538       98891.824       15267.534       4.3470000     -0.48075000      0.10300000       341.41600       2.0047041     0.017224355
       1046.0000       290.35206       98891.491       15269.753       3.5312500      0.81550000     -0.27400000       341.64700       2.0919524     0.024310631
       1051.0000       290.34842       98891.195       15271.911       2.9760000      -1.3907500      0.48825000       341.59400       2.4984042     0.018167879
       1056.0000       290.34445       98882.406       15275.347       5.9780000     -0.61075000      0.14725000       341.32900       3.1778436     0.024232428
       1062.0000       290.33924       98878.363       15278.379       3.2750000     -0.69700000       1.1875000       341.86000       3.1250222     0.019246239
       1067.0000       290.33455       98880.377       15280.000       4.4347500      -1.7720000     0.056750000       341.65100       3.7808932     0.029399768
       1072.0000       290.32952       98880.418       15281.875       2.6700000      -1.3077500     0.080000010       341.83200       4.0931602     0.021191871
       1077.0000       290.32417       98880.243       15283.727       4.2795000      -3.3225000     -0.49175000       341.36500       3.3704643     0.019383083
       1082.0000       290.31848       98880.243       15285.496       3.1772500      -1.3715000      0.42475000       341.94000       2.7941223     0.020324301
       1087.0000       290.31247       98880.420       15287.181       4.3140000      -2.2982500     -0.56500000       341.62000       4.9050965     0.017310396
       1092.0000       290.30612       98880.502       15288.822       4.1147500     -0.47825000      0.29050000       341.86200       3.7961231     0.021649670
       1097.0000       290.29945       98880.306       15290.450       4.4477500      -3.8425000     -0.75400000       342.03400       3.9261905     0.029400298
       1102.0000       290.29245       98880.306       15291.988       2.9247500      -2.9107500     -0.52775000       341.85200       3.2607975     0.022735904
       1107.0000       290.28512       98880.417       15293.451       3.1515000      -1.5915000      0.58775000       341.74300       3.8554604     0.020120894
       1112.0000       290.27746       98880.476       15294.862       3.1995000      -2.6007500   -0.0032500000       342.10600       4.3533691     0.025929709
       1117.0000       290.26947       98880.377       15296.238       4.6640000      -1.9805000     -0.15950000       341.30300       3.6264669     0.019738152
       1122.0000       290.26115       98880.417       15297.531       3.2885000      -1.4240000     -0.56950000       342.20300       3.4701437     0.028179872
       1127.0000       290.25250       98881.532       15298.595       2.6715000      -1.5075000       1.1587500       342.13000       5.3543369     0.024604405
       1132.0000       290.24353       98880.179       15299.985       2.7630000      -2.6160000     -0.30675000       341.97200       5.3293219     0.029430665
       1137.0000       290.23422       98876.534       15301.673       2.5627500      -1.2277500      0.38150000       342.42700       3.0735208     0.018151569
       1142.0000       290.22459       98874.579       15303.033       2.5782500     -0.91050000     -0.37375000       342.15600       2.9712031     0.025441014
       1147.0000       290.21462       98874.898       15303.972       3.2037500      -1.3192500      0.28000000       342.33900       3.3298627     0.020720561
       1153.0000       290.20223       98867.681       15306.208       3.3980000      -1.9565000     0.016250000       342.04800       2.9372699     0.016441682
       1158.0000       290.19154       98856.404       15308.829       5.0610000      -2.5687500     -0.20125000       341.52600       3.6865708     0.024103265
       1163.0000       290.18052       98851.946       15310.312       2.0290000      -2.5405000      0.61975000       341.84800       2.3910709     0.024852816
       1168.0000       290.16918       98844.524       15312.195       3.2120000      -2.8490000      0.43700000       341.72000       2.3377196     0.024942308
       1173.0000       290.15750       98842.340       15313.187       1.8392500      -4.2485000      0.15775000       341.69800       3.2875535     0.021947336
       1178.0000       290.14549       98850.343       15312.510       4.5670000     -0.48200000      0.97675010       341.76700       3.2693483     0.028051569
       1183.0000       290.13316       98851.746       15312.802       4.8535000      -2.9335000     -0.12350000       341.36400       2.5096370     0.027985870
       1188.0000       290.12050       98851.360       15313.307       3.5982500      -1.8727500      0.36550000       341.89900       2.4401951     0.019558267
       1193.0000       290.10750       98849.745       15313.935       4.0585000      -2.2637500     0.061500000       341.73000       3.2856180     0.018193012
       1198.0000       290.09418       98846.174       15314.800       3.1997500      -1.6760000      0.40750000       341.76200       2.9111747     0.026142380
       1203.0000       290.08053       98844.175       15315.347       2.6775000      -1.3075000      0.67725000       342.10400       2.5873456     0.025718310
       1208.0000       290.06655       98840.626       15316.065       4.6810000      0.62675010      0.25900000       342.24000       2.5915475     0.019501579
       1213.0000       290.05224       98839.326       15316.357       3.8560000      0.23500000     -0.24200000       342.08700       5.1088593     0.022814482
       1218.0000       290.03760       98839.039       15316.416       5.3900000      0.55475000     -0.39150000       342.08800       3.8828675     0.022554905
       1223.0000       290.02263       98840.607       15316.108       6.5745000      0.65675000     -0.10175000       341.36100       2.3482790     0.025674296
       1228.0000       290.00733       98844.561       15315.349       3.8452500     -0.57600000     0.087500010       341.44500       3.9879716     0.023789665
       1233.0000       289.99170       98846.576       15314.819       4.0680000      0.39150000      0.54975000       341.83400       4.5811687     0.017620917
       1238.0000       289.97575       98846.672       15314.513       3.2787500      0.66550000     -0.17450000       341.57900       3.5440867     0.021909885
       1244.0000       289.95617       98854.523       15312.827       3.5737500      0.84325000      0.54725000       341.84400       2.2736700     0.025492805
       1249.0000       289.93949       98863.930       15310.885       4.5827500      -1.5185000      0.10050000       342.15700       2.0608550     0.019049982
       1254.0000       289.92248       98869.869       15309.408       4.5127500     -0.21850000      0.61450000       341.87400       6.8097070     0.027700657
       1259.0000       289.90514       98879.372       15307.291       4.2025000      0.94300000     -0.20625000       342.01400       4.1400430     0.023164990
       1264.0000       289.88747       98886.457       15305.472       4.0402500       1.3005000       1.3467500       342.85800       2.3807695     0.023228091
       1269.0000       289.98959       98891.359       15400.792       3.3677500      -1.6875000     -0.86000000       342.01300       4.9171520     0.019827906
       1274.0000       289.98802       98891.596       15398.836       6.5027500     -0.71775000     -0.21325000       342.06200       2.9978654     0.025090191
       1279.0000       290.15697       98889.917       15609.985       5.8155000      -1.4082500     -0.21400000       341.22000       3.1286314     0.015920428
       1284.0000       290.14833       98891.932       15584.875       5.3115000      -1.2245000     0.060250000       341.65200       4.7846896     0.018805635
       1289.0000       290.09698       98890.726       15484.588       3.8760000      0.43650000     -0.75225000       342.11100       3.5621066     0.023625638
       1294.0000       290.08572       98888.791       15420.023       5.0617500     -0.80875000     -0.67325000       341.87300       4.7385018     0.014089888
       1299.0000       290.11747       98889.815       15391.527       3.5357500     -0.34625000    -0.082750010       342.00600       4.3000380     0.025217434
       1304.0000       290.07980       98891.797       15297.860       5.6377500      -1.7255000    -0.075500000       342.11800       4.3439894     0.025655294
       1309.0000       290.00651       98890.660       15147.737       5.0850000     -0.38900000     -0.26575000       341.68700       5.7806223     0.023165556
       1314.0000       289.96654       98888.613       15046.645       4.8417500      -1.1080000     -0.75750010       341.77800       4.0303994     0.026856625
       1319.0000       289.90321       98891.856       14940.463       2.2727500    -0.051250000      0.50925000       342.88500       4.3371781     0.021787827
       1324.0000       289.86235       98890.157       14846.611       2.7845000     -0.29750000      0.71250000       343.20200       4.2869833     0.018536190
       1330.0000       289.85036       98878.972       14752.861       3.3507500     -0.73600010     -0.31900000       341.59000       4.1484705     0.016309439
       1335.0000       289.82972       98877.205       14701.680      0.98050000      0.86650000      0.36025000       343.38800       3.3656452     0.020316131
       1340.0000       289.78886       98880.853       14648.076       4.5772500       2.8617500     -0.94575010       342.10600       3.5056615     0.023452647
       1345.0000       289.83100       98880.253       14674.997       3.8757500      0.53075000     -0.15300000       343.02400       2.0116986     0.020192052
       1350.0000       289.85135       98876.526       14697.661       7.1977510    -0.024000000     0.010500000       341.54200       1.9424721     0.014484753
       1355.0000       289.87044       98865.542       14706.874       5.9525000      0.87250010     -0.25250000       341.68900       2.3909354     0.015393244
       1360.0000       289.90016       98859.415       14766.918       6.0650000     -0.15475000     -0.15275000       341.78000       2.2581842     0.015357439
       1365.0000       289.92980       98853.451       14883.272       4.9315000     -0.12850000      0.19250000       341.89700       2.8264335     0.015989772
       1370.0000       289.94948       98849.325       14975.206       3.9107500      0.85325000     0.096500000       341.98300       4.8492162     0.026794433
       1375.0000       289.96916       98847.657       15074.354       4.3047500      0.45475000     0.046750000       341.95100       2.7681836     0.021627664
       1380.0000       290.01925       98850.294       15243.542       4.4665000     0.073000010      0.43775000       341.81800       2.3008824     0.017660479
       1385.0000       289.98478       98850.255       15244.178       3.7052500      0.66925000     -0.11175000       342.06800       2.4843404     0.015069883
       1390.0000       289.90022       98850.834       15167.015       3.0727500      0.61475000      0.16550000       342.08200       2.0658105     0.015936635
       1395.0000       289.84471       98847.131       15042.650       5.7170000      0.17025000     -0.10150000       341.33200       2.6052595     0.014833645
       1400.0000       289.79294       98845.077       14946.980       4.1802500      0.84225000      0.33300000       341.68500       2.3819437     0.015950649
       1405.0000       289.76971       98840.168       14871.935       3.7552500       1.6050000     -0.30125000       341.87900       2.3561844     0.015384558
       1410.0000       289.74967       98838.870       14805.334       4.5550000      0.71100000      0.58000000       342.11700       1.9259521     0.016446705
       1415.0000       289.72957       98840.017       14745.713       3.9395000     -0.58700000     -0.24650000       341.61300       2.0563906     0.015918645
       1421.0000       289.69131       98845.009       14675.300       3.7417500      0.17150000     0.098750000       341.98500       2.0383662     0.013385871
       1426.0000       289.71423       98854.862       14673.909       2.3032500      0.28650000      0.51050000       342.40900       2.0439495     0.016621434
       1431.0000       289.70304       98861.973       14655.882       3.4382500       1.0100000      0.70950000       342.31000       2.0127550     0.021525683
       1436.0000       289.66564       98871.911       14650.376       4.1870000      0.89500000    0.0050000000       342.66100       2.0492681     0.017473128
       1441.0000       289.64554       98877.735       14639.919       4.8362500     -0.20075000     -0.10100000       342.06000       2.1181619     0.015114957
       1446.0000       289.60951       98879.238       14577.267       4.6410000      0.54625000     -0.10550000       341.54100       2.1873414     0.015849681
       1451.0000       289.59112       98881.054       14589.380       4.2522500      0.87325010      0.45175000       341.87000       3.8091973     0.029142452
       1456.0000       289.62828       98880.271       14689.183       5.5180000       2.2317500      0.17900000       341.61700       3.5274342     0.016763044
       1461.0000       289.60593       98880.233       14719.403       5.5605000      0.51650000    0.0022500000       341.63900       2.0702250     0.012116375
       1466.0000       289.57804       98880.306       14799.301       2.2655000   -0.0062500000      0.72175000       342.08400       2.0766880     0.013613072
       1471.0000       289.50405       98880.289       14794.208       4.3550000     -0.44025000     -0.17375000       341.56300       2.2968791     0.031081501
       1476.0000       289.31914       98880.339       14668.661       2.8240000     -0.98225000      0.63475000       342.15800       2.1097742     0.013660075
       1481.0000       289.22113       98880.377       14584.451       2.9625000      0.40675000    -0.019750000       342.09900       2.2584929     0.013749718
       1486.0000       289.14334       98881.685       14492.647       4.8285000       1.4192500      0.43175000       341.55700       2.5580338     0.017506266
       1491.0000       289.07519       98880.564       14390.518       2.9435000      0.71475010    -0.092250000       341.99200       4.4894511     0.018918914
       1496.0000       289.06559       98876.828       14268.206       4.9280000     -0.45800000      0.43225000       341.71500       2.8358973     0.016290132
       1501.0000       289.04568       98874.834       14182.306       3.5600000      0.56325000      0.97600010       341.91900       2.1462118     0.015829818
       1506.0000       288.99506       98874.023       14067.585       4.2710000     -0.75425000      0.72625010       341.90300       2.1992686     0.017278262
       1512.0000       288.98960       98868.815       14014.814       3.9170000     -0.96425000      0.21200000       341.93100       2.4465468     0.015470352
       1517.0000       289.03838       98862.707       14053.241       2.5107500      0.24875000      0.55525000       341.90600       2.1124258     0.014942625
       1522.0000       289.05868       98858.718       14068.364       4.0185000     0.084750000      0.16925000       341.75000       2.0545571     0.016152564
       1527.0000       289.09518       98851.248       14111.044       2.7305000     -0.80375000    -0.048750000       342.01300       2.0086687     0.014919000
       1532.0000       289.11150       98847.952       14146.961       2.4150000     -0.17900000     0.079500000       342.14500       2.0628437     0.015300988
       1537.0000       289.10016       98850.418       14165.742       4.5470000      -1.6777500      -1.0685000       341.71200       4.6453519     0.017630110
       1542.0000       289.10016       98850.478       14211.232       3.6640000      -2.4600000      0.17350000       341.50300       5.2945289     0.020058342
       1547.0000       289.11341       98847.577       14305.456       2.7145000      -2.9492500       1.0450000       341.81400       3.0758818     0.018258165
       1552.0000       289.10002       98850.283       14342.992       2.8395000      -1.7200000     -0.13525000       341.73700       5.9489099     0.021475485
       1557.0000       289.04925       98856.378       14356.693       2.3770000     -0.43775000      0.36450000       342.08500       3.9000190     0.026621115
       1562.0000       289.04297       98861.788       14379.312       2.7030000    -0.072750000      0.53550000       342.03600       3.3557863     0.019210328
       1567.0000       289.04356       98870.434       14373.609       3.0122500     -0.44825000     0.039250000       341.82200       2.3549838     0.015054404
       1572.0000       289.04727       98878.534       14373.090       3.7482500     -0.49275000      0.20100000       341.41500       7.0314118     0.024947301
       1577.0000       289.09500       98887.314       14391.052       3.9977500      -1.1682500     -0.61975000       341.56000       4.0639167     0.019748880
       1582.0000       289.11142       98892.909       14394.848       5.6007500      -1.2442500      0.25400000       341.58900       3.8749536     0.017457196
       1587.0000       289.08700       98899.397       14352.289       2.6845000    -0.015250000      0.13625000       341.81300       5.5701831     0.017810506
       1592.0000       289.10060       98902.639       14366.114       6.4565010    -0.082500000     -0.56050000       341.37900       4.8553237     0.022039678
       1597.0000       289.13767       98902.963       14423.105       5.4422500     -0.50350000     -0.11675000       341.24200       10.225501     0.057774844
       1603.0000       289.16192       98899.312       14463.500       4.1737500     -0.84050010    -0.065500010       341.41200       5.7070948     0.024481886
       1608.0000       289.22078       98893.029       14539.871       3.8740000      -1.1382500    -0.017750000       341.33700       5.8954814     0.028901004
       1613.0000       289.20173       98887.386       14546.942       5.0690000      -1.9372500     -0.50525000       341.31300       6.8103258     0.018485092
       1618.0000       289.10316       98878.183       14481.569       4.2452500      -2.1457500      0.41500000       341.48300       3.0504661     0.018197558
       1623.0000       289.07931       98870.146       14481.146       4.6965000      -1.9145000     -0.53175000       341.47600       4.7905686     0.018234849
       1628.0000       289.05471       98861.880       14491.301       4.4352500      -1.5220000     0.050500000       341.44400       4.5530015     0.017544898
       1633.0000       289.03134       98856.567       14484.053       3.8417500      -1.4695000     -0.23125000       341.39700       4.1014001     0.026474747
       1638.0000       289.05701       98851.532       14499.704       3.7692500     -0.92000000      0.82875000       341.74200       3.1280717     0.016748062
       1643.0000       289.05089       98847.162       14506.211       3.5230000     -0.99100010     -0.57825010       341.44800       4.0245225     0.017593608
       1648.0000       289.00070       98844.982       14475.235       3.4187500     -0.41675000      0.47700000       341.43000       3.5160998     0.016173495
       1653.0000       288.98699       98844.606       14476.806       2.1995000     -0.63175000     0.087000000       341.50900       2.9198504     0.024746785
       1658.0000       289.01150       98842.283       14526.270       2.8062500      -1.4675000     0.072000000       341.48000       3.9509869     0.018991842
       1663.0000       288.99543       98846.129       14525.212       1.8640000     -0.56975000      0.33300000       341.71500       3.4816946     0.018309678
       1668.0000       288.96871       98857.562       14511.496       2.4495000      -1.6397500     -0.10175000       341.71200       4.6519476     0.023205359
       1673.0000       288.93267       98864.533       14473.897       3.7395000      -2.1920000    -0.090750000       341.50100       7.8600681     0.023095352
       1678.0000       288.85873       98872.222       14397.415       3.5515000      -1.5030000     -0.36700000       341.54800       5.1157145     0.017707344
       1683.0000       288.82530       98880.206       14341.578       1.3690000      -1.1970000      0.64500000       341.64300       2.9464702     0.016282561
       1688.0000       288.82456       98890.941       14291.084       3.7852500     -0.55100000     -0.71250000       341.39900       5.9569789     0.017279210
       1694.0000       288.76736       98893.038       14191.521       3.6620000      -1.7347500     -0.24650000       341.77500       5.4305624     0.023055143
       1699.0000       288.70815       98891.815       14093.418       5.4230000     -0.45375000     -0.43425000       341.35800       4.2453821     0.020253803
       1704.0000       288.66817       98890.149       14011.140       5.3425000      0.83000000      0.37775000       341.42900       2.9067619     0.017083263
       1709.0000       288.59316       98880.363       13894.786       5.3640000      -2.5672500      0.31750000       341.47500       3.9437798     0.018449414
       1714.0000       288.57055       98876.182       13834.644       5.2707500    -0.096750010     0.065250000       341.51200       5.6300748     0.021235117
       1719.0000       288.60030       98877.497       13810.759       3.7330000      0.11875000      0.95150010       341.66900       4.0745206     0.016479959
       1724.0000       288.60042       98871.795       13792.089       5.1182500     -0.63925000     -0.18925000       341.37700       5.4683508     0.019323770
       1729.0000       288.59976       98861.813       13793.245       3.8917500     -0.89275000      0.56975000       341.41000       3.3113117     0.022936608
       1734.0000       288.59958       98854.879       13794.883       3.7260000    -0.069000010    -0.016250000       341.37700       9.2245097     0.035679156
       1739.0000       288.60037       98844.286       13811.272       3.6270000     -0.28625000      0.27100000       341.51100       5.4802053     0.017609388
       1744.0000       288.60055       98841.906       13831.337       3.1325000     -0.38725000     -0.16150000       341.55600       5.0323985     0.019529010
       1749.0000       288.60907       98841.912       13863.421       2.5482500     -0.24175000      0.63025000       341.71200       2.7888224     0.018338960
       1754.0000       288.59045       98848.412       13876.190       3.4552500     -0.86575000      0.21950000       341.57100       2.3594338     0.015375262
       1759.0000       288.54447       98862.808       13880.643       3.5567500      0.26700000     -0.10375000       341.55000       2.8059470     0.017391391
       1764.0000       288.54302       98873.683       13907.420       3.3230000    -0.085750010    -0.060000000       341.54600       2.8037777     0.017880979
       1769.0000       288.53410       98892.384       13920.694       3.1092500     -0.49975000      0.10550000       341.56100       2.2106800     0.015325478
       1774.0000       288.56129       98896.052       13970.349       4.2717500     -0.74300000     -0.10900000       341.47600       2.1386439     0.015862791
       1779.0000       288.65774       98891.954       14083.397       3.0462500     -0.73975000      0.17225000       341.54500       2.0433168     0.016166066
       1785.0000       288.66939       98889.548       14107.610       3.3187500      -1.6742500      0.40475000       341.55500       5.4820120     0.016889283
       1790.0000       288.65669       98879.083       14103.571       4.5730000      -2.9730000      0.30325000       341.28800       3.4886283     0.019535626
       1795.0000       288.61424       98881.811       14076.002       4.4495000      -2.3022500     -0.92125000       341.22400       3.2570216     0.015775200
       1800.0000       288.59239       98881.002       14054.854       6.2565000      -2.8610000    -0.015500000       341.14400       5.2785518     0.019753640
       1805.0000       288.61511       98880.288       14072.338       3.8285000      -2.1420000      0.36200000       341.28300       3.4122580     0.019621372
       1810.0000       288.60633       98876.553       14060.000       2.3832500     -0.95650010      0.66625010       341.36700       3.3067325     0.023295695
       1815.0000       288.56985       98865.769       13997.534       4.2875000      -1.3960000       1.2180000       341.24900       5.5171607     0.016832249
       1820.0000       288.54994       98859.694       13966.709       3.3597500      -2.2630000      0.78425000       341.36900       3.5876305     0.022896815
       1825.0000       288.53004       98854.855       13944.704       4.5905000      0.25875000     -0.79575000       341.25900       5.2351507     0.018774161
       1830.0000       288.49455       98847.885       13918.886       3.6677500     -0.49375000     -0.34400000       341.45100       4.1520271     0.017221116
       1835.0000       288.48617       98850.522       13920.821       3.5905000      -1.4475000     -0.13525000       341.35600       3.0655127     0.016155663
       1840.0000       288.50663       98861.503       13959.845       3.7542500      0.70100000      0.62525000       341.45600       6.2550741     0.020995796
       1845.0000       288.44010       98856.679       13909.089       3.4252500     -0.92875000     -0.17825000       341.42200       2.9546180     0.017852953
       1850.0000       288.43696       98859.454       13915.197       2.8005000      -1.0147500     0.041250000       341.47900       4.3957815     0.015491351
       1855.0000       288.47526       98862.314       13942.905       2.8880000      -2.0575000      0.73950000       341.42500       4.9835054     0.019956130
       1860.0000       288.49403       98864.074       13969.647       3.6235000      -1.0182500       1.0467500       341.46400       3.4031184     0.015585155
       1865.0000       288.52516       98868.292       14016.278       4.4860000     -0.87375000     -0.20475000       341.39700       3.4063688     0.016166954
       1870.0000       288.61964       98884.041       14131.121       6.2902500     -0.87900010      0.41100000       341.24700       3.1289708     0.018133550
       1876.0000       288.56553       98870.059       14124.421       7.8202510      -1.3302500     -0.51050000       341.08100       7.7909443     0.022404954
       1881.0000       288.54527       98864.036       14119.883       5.3565000      -1.2612500     0.085750010       341.15700       2.9399661     0.016336360
       1886.0000       288.50952       98853.008       14075.379       3.5927500      -2.0827500     -0.25175000       341.29500       5.8396541     0.017787323
       1891.0000       288.49066       98847.291       14055.042       6.4345000      -2.4087500     -0.42025000       341.21600       5.1045790     0.016218690
       1896.0000       288.49967       98847.641       14045.994       4.7590000      -1.7460000     0.047750000       341.20800       3.9750617     0.014651623
       1901.0000       288.49940       98849.971       14040.765       2.6375000      -3.1430000      0.33125000       341.35900       3.3134670     0.021923233
       1906.0000       288.50026       98855.718       14045.557       5.8347500      -1.5885000     -0.26750000       341.22800       3.8084286     0.019194623
       1911.0000       288.50037       98860.853       14052.566       3.6080000     0.012500000      0.93450000       341.36600       2.5302045     0.015183294
       1916.0000       288.51487       98868.585       14068.420       2.6047500     -0.59975000      0.14775000       341.36000       3.1229697     0.017898795
       1921.0000       288.50368       98876.521       14079.998       4.1687500      -1.5222500     -0.44325000       341.25100       5.7164158     0.019033755
       1926.0000       288.46597       98885.918       14106.365       4.8937500      -2.3822500      0.24675000       341.22000       4.9503210     0.015445823
       1931.0000       288.44595       98891.786       14107.529       4.7317500      -2.3760000    -0.096250010       341.17200       3.8554833     0.016959578
       1936.0000       288.42364       98901.183       14112.893       3.7810000      -1.1912500     -0.40300000       341.27900       3.4144307     0.013689750
       1941.0000       288.39350       98902.802       14077.067       1.8575000     -0.90900000      0.67750000       341.41000       4.0436085     0.014510240
       1946.0000       288.35174       98894.826       13957.490       2.4660000      -1.2365000     -0.42675000       341.38500       4.6414350     0.017214005
       1951.0000       288.34306       98889.681       13912.066       5.2707500     -0.91850010      0.17425000       341.27100       3.2332216     0.014255825
       1956.0000       288.34339       98881.866       13871.494       4.2667500     -0.29100000     -0.69050000       341.17800       6.5433400     0.020275338
       1962.0000       288.34679       98872.266       13852.523       5.5175000     0.051000000      0.38475000       341.19600       4.7587912     0.018384943
       1967.0000       288.39465       98860.626       13911.476       5.0617500      0.21200000     -0.39875000       341.27900       6.8303720     0.019355487
       1972.0000       288.41097       98857.743       13937.841       1.5952500    -0.024500000       1.3342500       341.39000       3.6649922     0.014656244
       1977.0000       288.41266       98855.107       13952.891       4.3612500      -1.6165000     -0.38325000       341.35500       2.9216449     0.015000892
       1982.0000       288.39897       98859.969       13968.360       4.5545000     -0.61325000      -1.3005000       341.30400       3.6073277     0.018585737
       1987.0000       288.36190       98880.844       14003.495       3.6747500     -0.80525000      0.14925000       341.43900       3.6428873     0.015096637
       1992.0000       288.34211       98889.992       13999.312       5.5217500      -1.1577500     -0.25675000       341.21400       2.8376651     0.017634396
       1997.0000       288.29212       98898.893       13962.449       3.3595000     -0.11425000      0.75375000       341.19400       6.2064855     0.016691410
       2002.0000       288.28954       98903.806       13938.539       5.4177500     -0.36675000      0.60825000       341.23400       3.5796873     0.017545951
       2007.0000       288.31015       98903.046       13864.480       3.2925000     -0.50125000     -0.44300000       341.36000       5.6249030     0.017765989
       2012.0000       288.35792       98900.295       13860.498       4.3510000      -1.3947500     -0.40700000       341.24400       5.1969619     0.016471417
       2017.0000       288.47022       98897.851       13902.247       3.4895000      -1.1675000      0.17125000       341.17500       4.8947979     0.017093614
       2022.0000       288.52669       98888.326       13939.199       2.9467500      0.30225000      0.14275000       341.31300       3.9342143     0.020456833
       2027.0000       288.60356       98864.518       14044.880       2.3495000     -0.59975000     -0.54650000       341.36000       4.0214004     0.014827456
       2032.0000       288.62325       98854.524       14079.180       3.3705000     -0.37750000      0.58525000       341.47500       3.7398757     0.015333758
       2037.0000       288.56235       98842.182       14069.430       4.7847500      -1.5547500     -0.86525010       341.22200       3.2290996     0.015770929
       2042.0000       288.54268       98841.777       14069.742       2.9632500     -0.64750000      0.36750000       341.44700       2.9895268     0.024729093
       2047.0000       288.49100       98860.998       14018.745       2.9317500      -1.2260000      0.76100000       341.34500       5.2727457     0.017301507
       2053.0000       288.49128       98870.017       14017.615       3.1842500     -0.84225000    -0.088250000       341.28200       4.9825433     0.019611959
       2058.0000       288.54196       98878.098       14057.622       3.3817500     -0.75700000      0.44250000       341.34900       4.2706308     0.016636438
       2063.0000       288.56203       98885.697       14065.278       2.8477500      -1.6857500     -0.96475010       341.31100       5.0355388     0.018851666
       2068.0000       288.60023       98891.076       14079.039       2.4887500      -1.8467500      0.88500010       341.29200       4.1666824     0.015877421
       2073.0000       288.61437       98891.837       14082.024       4.2975000      -2.9747500      0.88575010       341.32400       4.0340805     0.015516140
       2078.0000       288.58918       98895.058       14039.509       3.7335000      -1.2507500      0.49650000       341.34600       3.8372674     0.017237190
       2083.0000       288.60557       98888.945       14062.272       3.7237500      -1.7935000     0.013500000       341.39400       3.5127019     0.019269429
       2088.0000       288.65317       98867.931       14140.672       3.4095000     -0.80900000      0.17900000       341.32500       3.2533173     0.015963757
       2093.0000       288.65695       98859.235       14159.953       4.5867500      0.27025000     -0.63425000       341.22200       2.8384936     0.013808360
       2098.0000       288.65830       98848.184       14190.255       3.4817500      -1.3885000      0.78600000       341.37300       3.3213932     0.012646822
       2103.0000       288.65184       98847.350       14194.418       4.4325000     -0.66150000      0.32025000       341.51100       2.9838839     0.014950904
       2108.0000       288.60172       98855.436       14141.689       3.8745000     -0.47175000      0.31750000       341.50000       2.7617012     0.015333586
       2113.0000       288.58804       98864.422       14121.850       4.6150000     -0.77025000     -0.23925000       341.15400       2.3710429     0.014269024
       2118.0000       288.60063       98883.012       14123.208       5.7197500      -3.3535000      0.35150000       341.44400       2.3663113     0.011903404
       2123.0000       288.60086       98891.815       14106.014       5.4227500      -1.1602500       1.4680000       341.36500       2.2620094     0.015455887
       2128.0000       288.58910       98902.258       14062.073       6.1547500      -1.9820000     0.069500010       341.15500       2.0395700     0.014685759
       2133.0000       288.60539       98903.083       14058.081       3.8482500      -1.4010000      0.54050000       341.27200       2.0956649     0.018855954
       2138.0000       288.62985       98893.032       14048.819       3.2552500      0.12800000     0.029000000       341.51400       2.0772527     0.016653442
       2144.0000       288.67554       98885.975       14098.643       5.2412500      0.44525000     -0.11350000       341.45500       2.1101181     0.015264367
       2149.0000       288.75799       98876.921       14208.650       5.0137500     -0.27250000     -0.56350000       341.23300       2.1168657     0.018803523
       2154.0000       288.77065       98868.908       14241.437       3.2970000      -1.6837500      0.36400000       341.59700       2.1050107     0.015111714
       2159.0000       288.75623       98858.617       14265.113       5.9037500      -2.0032500     -0.27625000       341.28100       2.0200788     0.014664958
       2164.0000       288.74749       98857.181       14288.591       4.9257500      -1.1692500      0.39300000       341.43200       1.9917199     0.015832140
       2169.0000       288.68788       98856.252       14258.374       6.4495000      -1.6932500     -0.59075000       341.21600       2.0745769     0.014515646
       2174.0000       288.69543       98863.597       14288.006       4.9000000      -3.2187500     -0.25750000       341.23400       2.0671617     0.017007177
       2179.0000       288.73716       98884.418       14363.434       3.6607500      -2.2012500      0.24350000       341.61400       1.9808157     0.012108430
       2184.0000       288.77560       98892.563       14408.859       4.7825000      -2.1027500     -0.10175000       341.34800       1.9321684     0.015581870
       2189.0000       288.85729       98901.005       14476.685       3.7827500     -0.40100000     0.022500000       341.52100       2.0254984     0.013595591
       2194.0000       288.86958       98904.299       14475.522       2.5370000     -0.64750000     0.032000000       341.82300       2.0144407     0.015760396
       2199.0000       288.84756       98904.771       14421.713       2.0297500     -0.56825000      0.10700000       341.92700       1.9353970     0.013557104
       2204.0000       288.85770       98895.397       14426.314       3.2175000      -1.4752500      0.69275000       341.78000       2.0070475     0.014145125
       2209.0000       288.84326       98876.857       14410.963       2.9430000      -2.1292500      0.12850000       341.65400       2.0338565     0.015119008
       2214.0000       288.85160       98866.813       14421.332       5.4012500      -2.4747500      0.63075000       341.35500       2.0104472     0.015816684
       2219.0000       288.90311       98846.162       14499.437       3.1647500      -2.2802500     -0.10025000       341.49600       1.9966439     0.011707605
       2224.0000       288.91428       98846.181       14503.727       4.2880000      -1.6347500    -0.027250000       341.39500       1.9743075     0.015433197
       2229.0000       288.89942       98861.861       14469.185       3.8302500      -1.1497500      0.55875000       341.60300       2.0142463     0.015450617
       2235.0000       288.89906       98873.998       14435.327       6.0075000      -2.1302500      0.36300000       341.47900       1.9534920     0.013267875
       2240.0000       288.88830       98891.947       14380.491       4.2710000     -0.10775000     -0.30750000       341.15200       1.9012003     0.013527266
       2245.0000       288.96107       98900.180       14397.182       4.7280000      -3.7362500      0.15575000       341.27700       2.0129636     0.015263070
       2250.0000       289.00147       98902.687       14403.335       7.4935000      -2.6832500     -0.16325000       341.19200       2.0588508     0.014397695
       2255.0000       289.07090       98898.749       14450.778       5.1170000      -1.5172500    -0.032750000       341.25900       2.0124537     0.015417783
       2260.0000       289.11269       98892.121       14473.498       4.7860000      -3.7720000      0.20500000       341.29600       2.0038562     0.018942466
       2265.0000       289.11532       98871.301       14448.719       4.3910000      -1.0137500      0.29525000       341.45200       2.0021617     0.014843020
       2270.0000       289.10685       98862.870       14454.574       6.5565000      0.43800000     -0.21375000       341.23200       2.0090006     0.015246487
       2275.0000       289.08609       98859.356       14471.360       6.4755000     -0.91850010     -0.17925000       341.18900       2.0183188     0.014376335
       2280.0000       289.05097       98857.563       14505.582       5.1482500     -0.48625000      0.17025000       341.22900       1.9895593     0.013839805
       2285.0000       289.03072       98861.177       14494.182       4.2040000      -1.1830000      0.49875000       341.76000       2.0507687     0.026011030
       2290.0000       288.99436       98875.292       14493.155       5.0817500      -1.1072500      0.10475000       341.56300       1.9906244     0.018738647
       2295.0000       288.97060       98887.782       14367.337       3.9937500     -0.73275010      0.42600000       341.74200       1.9737760     0.012142668
       2300.0000       288.98772       98892.278       14310.634       3.7607500      -1.8742500     -0.28125000       341.71000       1.9628373     0.023176882
       2305.0000       289.01547       98892.810       14257.023       4.6142500       1.2580000    -0.069000010       341.68500       1.9419563     0.016162030
       2310.0000       289.08136       98892.173       14253.531       4.5055000      -3.0695000     -0.73025010       341.20400       1.9953964     0.015007068
       2315.0000       289.18418       98887.856       14296.060       3.3217500      -3.2845000      0.49725000       341.64900       1.9819235     0.014472587
       2320.0000       289.36708       98875.617       14410.563       3.4745000      -1.1390000      0.26475000       342.08000       1.9033672     0.013153375
       2326.0000       289.40774       98860.250       14509.743       4.9667500      -1.2965000     -0.11275000       341.40800       2.0492937     0.024006701
       2331.0000       289.46703       98857.749       14606.651       5.3485000     -0.72675000   -0.0010000000       341.85900       1.9751887     0.014617357
       2336.0000       289.47852       98859.773       14729.132       3.3082500      -1.0305000      0.84600000       342.07200       2.0142022     0.015910263
       2341.0000       289.49971       98864.271       14814.784       4.1520000      -1.1227500     -0.12000000       341.76100       1.9347764     0.018038508
       2346.0000       289.59556       98887.313       14930.817       4.6502500     -0.71950000     -0.66350000       341.68500       1.9683485     0.017051016
       2351.0000       289.62148       98894.623       14980.772       3.1457500     -0.32975000      0.10675000       342.17200       1.9430581     0.016862676
       2356.0000       289.53755       98895.883       14941.168       3.3175000     -0.24375000      0.80100010       342.34400       1.9992386     0.013490212
       2361.0000       289.53988       98892.329       14933.301       2.9872500     -0.54125010   -0.0047500000       342.07300       1.9657124     0.015178540
       2366.0000       289.54701       98872.468       14901.900       3.5230000      0.33400000      0.63825010       342.22900       1.9428202     0.014464868
       2371.0000       289.59115       98862.830       14880.533       3.3652500       1.1317500    -0.075500000       341.71000       1.9852106     0.014109287
       2376.0000       289.73343       98849.177       14843.518       4.6935000      0.64925000      0.52800000       341.72300       2.0115527     0.016130661
       2381.0000       289.82276       98846.904       14858.080       3.8900000      0.31825000     0.018250000       341.78700       1.9693646     0.016700112
       2386.0000       289.91529       98857.841       14900.492       4.2610000     -0.44950000      0.24575000       341.49000       1.9682150     0.015856215
       2391.0000       289.97360       98866.124       14949.328       3.2887500      0.33000000     -0.63725000       341.25400       2.0144953     0.018631008
       2396.0000       290.00467       98884.324       15088.111       3.7082500      0.30675000     -0.15125000       342.06600       2.0824597     0.016527840
       2401.0000       290.01202       98893.876       15148.351       3.8995000      0.23275000    -0.058750000       342.09600       1.9477584     0.013765257
       2406.0000       289.98169       98902.965       15163.294       4.8182500      -1.4450000       1.4390000       342.76400       2.0209596     0.014425128
       2411.0000       289.95041       98903.330       15173.455       4.6680000    -0.051750000       1.8040000       342.76700       2.0133132     0.014630810
       2417.0000       289.86728       98888.849       15112.980       6.9362500     -0.83775000      0.13625000       341.46700       1.9688302     0.018765004
       2422.0000       289.83102       98882.826       15108.005       5.1455000     -0.81500010     0.083000000       341.40700       1.9387736     0.015737580
       2427.0000       289.83005       98870.237       15166.661       3.2087500     -0.79000000      0.71850000       342.20900       2.1093800     0.019083491
       2432.0000       289.78613       98866.628       15139.106       3.5050000     -0.85500000    -0.078000000       341.80000       1.9304541     0.016728607
       2437.0000       289.71067       98874.134       15071.838       4.8477500     -0.25025000    -0.017250000       341.91700       1.9422418     0.018119185
       2442.0000       289.68462       98876.131       15027.035       3.0227500      0.32250000     -0.77000000       342.54400       1.9502222     0.017750646
       2447.0000       289.66101       98883.837       14939.538       4.5170000      0.97475000     -0.43100000       341.60900       1.9809057     0.026920520
       2452.0000       289.63482       98881.430       14860.184       3.0197500       1.1745000      0.13025000       342.55600       1.8815310     0.016223746
       2457.0000       289.65817       98869.245       14804.768       1.9372500       1.4822500       1.4067500       342.79000       2.0900836     0.022362124
       2462.0000       289.65438       98863.293       14750.180       4.6492500       1.2725000     0.087750000       341.40100       1.9736829     0.017745636
       2467.0000       289.61808       98848.119       14665.321       1.4120000      0.71325000      0.28675000       342.42900       1.9452505     0.024690005
       2472.0000       289.58784       98847.355       14606.600       4.0560000      0.42225000     -0.15225000       341.52800       1.9567899     0.027433657
       2477.0000       289.57378       98859.305       14569.374       3.9582500     0.018000000      -1.1402500       342.00200       1.8936691     0.023277648
       2482.0000       289.53985       98868.071       14553.447       2.3410000      0.18125000      0.92350010       342.79800       1.9564586     0.022303886
       2487.0000       289.45417       98889.194       14571.942       3.4692500     -0.60800000      0.10925000       342.54300       2.0176503     0.018011775
       2492.0000       289.43195       98895.323       14550.327       2.7695000     -0.86200000      0.11650000       342.15500       1.8906268     0.022215346
       2497.0000       289.46905       98893.203       14522.177       3.4902500     -0.30450000      0.29225000       342.20700       1.9570331     0.019604221
       2503.0000       289.43883       98890.068       14514.018       4.1932500      0.68675010      0.17925000       342.24400       1.9895727     0.017993866
       2508.0000       289.40328       98875.123       14468.829       6.0310000     -0.30300000     -0.53425000       341.44300       2.0379992     0.021134958
       2513.0000       289.39315       98871.937       14476.085       5.2315000       1.4187500     -0.10300000       342.10900       2.0035495     0.018042543
       2518.0000       289.35474       98872.279       14565.432       3.5865000      0.46575000      0.79700010       342.25800       1.9935530     0.018544063
       2523.0000       289.33101       98876.112       14575.811       2.8135000     -0.17200000      0.78125010       342.42600       1.9807639     0.026090860
       2528.0000       289.37918       98888.700       14561.213       6.0200000      0.59075000     -0.24150000       342.24500       2.0550048     0.025947310
       2533.0000       289.34026       98894.013       14542.914       5.1855000       1.1165000      0.10450000       341.86400       1.9731514     0.018088201
       2538.0000       289.21723       98902.363       14484.222       4.5272500     -0.46525000      0.52150010       342.11100       2.0749971     0.021351324
       2543.0000       289.16387       98901.918       14451.493       3.5247500      0.78475000      0.59200000       342.48200       2.0308699     0.018556492
       2548.0000       289.11330       98895.557       14438.457       5.8997500      -1.9547500      0.44875000       341.94200       2.0111994     0.018515129
       2553.0000       289.06968       98886.621       14399.452       6.8107500      -1.2405000      -1.4922500       341.15700       1.9861576     0.018057268
       2558.0000       289.06937       98865.975       14347.986       5.8312500      -1.4197500      0.39950000       341.21900       2.0594030     0.026024291
       2563.0000       289.03305       98860.538       14302.721       5.7912500      0.25350000     -0.43150000       341.10100       2.0199414     0.016602195
       2568.0000       288.94672       98855.648       14225.674       6.3400000       2.0255000     -0.42250000       341.50700       2.0617354     0.017959782
       2573.0000       288.92886       98860.317       14204.046       4.6302500      0.87750010      0.38200000       341.86400       2.0581563     0.015626520
       2578.0000       288.94318       98882.884       14212.593       5.4407500     -0.30100000     -0.34825000       341.57600       2.0027859     0.016094179
       2583.0000       288.94957       98891.620       14225.094       5.0380000      0.35125000     -0.11300000       341.72200       2.0433682     0.018905011
       2588.0000       288.99993       98902.428       14270.142       5.1217500   -0.0067500000      0.11800000       341.50100       1.8720538     0.022071379
       2594.0000       289.01483       98902.611       14314.747       4.5442500     -0.33750000      0.61600010       341.66600       2.0712652     0.017898813
       2599.0000       288.99129       98893.578       14342.155       4.2772500     -0.13325000     -0.41825000       341.47700       2.0260505     0.014371313
       2604.0000       289.01026       98883.852       14407.728       3.3097500      0.45925000       1.1512500       341.86400       1.9913764     0.015758252
       2609.0000       289.05600       98862.855       14510.419       3.4500000     -0.13225000      0.26525000       341.64100       1.9623573     0.020303539
       2614.0000       289.05740       98860.227       14569.983       4.7140000     -0.10025000    -0.071250010       341.64500       2.0386903     0.018004140
       2619.0000       289.05646       98860.639       14645.766       4.6650000     -0.65300010    -0.025500000       341.34100       1.9546865     0.018996428
       2624.0000       289.04757       98868.868       14671.208       2.7827500      0.29250000      0.30350000       341.70500       2.0508292     0.018278105
       2629.0000       288.98820       98897.801       14637.707       2.9077500    -0.065500010      0.37075000       341.75900       1.9839356     0.017245521
       2634.0000       288.99540       98901.673       14651.611       3.8482500     -0.40675000      0.41225000       341.78500       1.9622949     0.015682255
       2639.0000       289.05446       98898.706       14679.486       2.4800000     0.053750000      0.35450000       341.80400       2.1071818     0.021581371
       2644.0000       289.05567       98894.126       14668.307       2.7020000      0.45775000     -0.22275000       341.58500       2.0764761     0.018211891
       2649.0000       289.03931       98872.285       14646.189       2.6262500     -0.21550000     0.088250000       341.77200       2.0195722     0.016469754
       2654.0000       289.06829       98872.536       14646.281       3.8377500     -0.39650000      0.23200000       341.61000       1.9734677     0.018416480
       2659.0000       289.06275       98883.147       14607.047       4.7735000     -0.14175000     -0.14125000       341.35500       2.0747183     0.018797850
       2664.0000       289.14698       98889.903       14634.639       4.2267500      -1.1232500    -0.060500000       341.64000       2.0452530     0.018620208
       2669.0000       289.35303       98906.906       14731.619       3.0975000      0.62425010      0.54650000       341.83900       2.1054151     0.018657351
       2674.0000       289.41621       98910.429       14775.147       4.1432500     -0.50825000      0.36250000       341.46800       2.0152249     0.017330653
       2679.0000       289.46413       98908.810       14809.416       5.8927500      0.38025000       1.0487500       341.51300       2.0752337     0.025268016
       2685.0000       289.47515       98900.203       14878.365       4.0617500       1.8712500     -0.13500000       341.61800       1.9326379     0.016141171
       2690.0000       289.38276       98884.756       14921.202       4.4605000     -0.68050000     -0.20625000       341.59300       2.0503030     0.021082053
       2695.0000       289.47619       98868.722       15088.420       3.5215000    -0.065500010     -0.18475000       341.69500       2.0572119     0.021918450
       2700.0000       289.50801       98865.664       15169.269       4.9140000     -0.43100000      0.46375000       341.52200       1.9943669     0.015848017
       2705.0000       289.52573       98883.811       15200.926       5.6312500      0.70125000     -0.36125000       341.45800       2.0376539     0.022784769
       2710.0000       289.55663       98890.850       15237.281       2.5520000      -2.2152500      0.96550010       342.06800       2.0190887     0.016186838
       2715.0000       289.53014       98904.301       15198.952       3.2635000      -1.4275000     0.075750000       341.90400       2.1132533     0.017264572
       2720.0000       289.53745       98909.025       15185.463       3.4882500     -0.53550000      0.99650010       341.92200       2.0486081     0.018265939
       2725.0000       289.56929       98906.345       15185.222       3.0915000      -1.2365000       1.0305000       342.14200       2.0570110     0.017936797
       2730.0000       289.65509       98891.960       15223.250       4.4965000      -1.7747500      0.95625010       341.75000       2.0361841     0.018745985
       2735.0000       289.68383       98880.584       15207.322       3.2172500      -2.0482500    -0.050500000       341.70000       1.9547933     0.017518032
       2740.0000       289.69980       98861.031       15169.161       2.7532500     -0.92775010      0.40325000       342.26200       1.9096410     0.020267891
       2745.0000       289.71573       98870.097       15143.477       2.4282500      -2.3952500     0.043750000       342.31000       2.0139444     0.018922953
       2750.0000       289.74455       98873.812       15123.844       2.5157500      -1.8325000       1.3667500       342.53000       2.0283345     0.019010096
       2755.0000       289.78524       98895.998       15102.227       2.9575000      -1.9067500     -0.72675000       341.68800       1.9704833     0.017292559
       2760.0000       289.84346       98904.807       15114.009       1.2652500     -0.67925010       1.6020000       342.22200       1.9684482     0.025248230
       2765.0000       289.91398       98904.992       15143.872       4.0952500      -1.3620000     -0.68300000       341.76200       2.0507702     0.033483323
       2770.0000       289.99828       98891.008       15167.325       3.6677500      -1.5842500     -0.19400000       341.78600       1.9320776     0.019231138
       2776.0000       290.12782       98874.643       15375.152       2.9755000      0.45450000      0.58350000       342.09200       1.9731122     0.019327575
       2781.0000       290.17409       98872.286       15471.733       3.4155000      -1.4502500      0.62400000       342.31700       1.9500244     0.019033414
       2786.0000       290.15600       98881.666       15577.153       4.3297500      -1.1342500     -0.15575000       342.11900       1.9227746     0.023147911
       2791.0000       290.15473       98885.815       15635.262       4.0462500     -0.86400000    -0.042500000       341.90100       1.9655385     0.020163992
       2796.0000       290.10983       98900.253       15609.028       4.2342500     -0.20350000      0.10725000       341.68500       1.9634362     0.015998998
       2801.0000       290.09155       98903.495       15582.848       4.4935000     -0.13450000     -0.13175000       341.97000       1.9202748     0.021318421
       2806.0000       290.10022       98897.941       15535.689       3.5485000     0.026000000    -0.091250000       342.19000       1.9248657     0.019133084
       2811.0000       290.10019       98890.714       15487.661       4.3342500     0.037750000     -0.39525000       342.29500       1.9343693     0.017312381
       2816.0000       290.09984       98863.541       15405.758       3.0622500     0.069000010      0.21250000       341.70900       1.9224082     0.019335262
       2821.0000       290.09969       98860.576       15340.394       3.4925000      -1.0515000     -0.22550000       342.00400       1.9341580     0.017952707
       2826.0000       290.07217       98873.724       15235.386       3.2412500     -0.78825000    -0.060250000       342.90100       1.9134296     0.019734376
       2831.0000       290.09509       98880.094       15220.678       3.8557500     -0.30175000     -0.20325000       342.39000       1.8194665     0.019910342
       2836.0000       290.21170       98910.206       15318.342       3.8457500    -0.036250000      0.31850000       342.22400       1.9583742     0.023583562
       2841.0000       290.21895       98917.270       15324.082       3.1090000      -1.0862500    -0.065750000       342.61200       1.9614620     0.024273259
       2846.0000       290.19241       98895.295       15337.804       6.3322500      0.25200000     -0.30700000       342.56200       1.9524314     0.024751128
       2851.0000       290.15875       98888.529       15342.539       4.8950000      -1.4665000    -0.028750000       341.81900       1.9256314     0.023818044
       2856.0000       289.99551       98872.968       15250.424       6.0065000    -0.032500000    -0.017500000       341.67600       2.0344087     0.021471862
       2861.0000       289.91976       98870.917       15206.908       5.1387500     -0.40875000     -0.58425000       341.81500       1.9833578     0.023248367
       2867.0000       289.91875       98891.211       15237.963       4.2237500     -0.80300000     -0.23775000       341.53300       1.9074655     0.017871320
       2872.0000       289.88897       98898.936       15210.727       3.8927500     -0.50925000     0.044250000       342.08300       1.9928837     0.016455896
       2877.0000       289.86116       98913.924       15128.369       3.9775000     -0.85725000      0.35325000       342.62700       1.9975619     0.018096656
       2882.0000       289.84108       98913.343       15093.135       3.9375000      -1.6457500     -0.10975000       342.52000       1.9739403     0.015747179
       2887.0000       289.80482       98891.102       15041.603       3.1520000      -1.8712500       1.1390000       343.26500       1.8703322     0.020419156
       2892.0000       289.78878       98887.297       15031.905       2.4507500       1.6242500       1.2935000       343.27500       1.9220677     0.024957859
       2897.0000       289.83938       98882.323       15130.391       6.4222500     -0.62100010    -0.064250000       342.08800       2.0168943     0.018657339
       2902.0000       289.79883       98883.138       15104.255       6.7215000     -0.77500000     -0.69275000       341.75700       2.0533261     0.021558414
       2907.0000       289.68910       98903.872       15020.277       4.3960000      -2.3130000     0.085750010       342.34100       1.9762777     0.020090877
       2912.0000       289.62906       98909.359       14952.567       5.7305000     -0.72350000     -0.75375000       342.06700       2.0142201     0.023959096
       2917.0000       289.51658       98909.751       14799.588       5.3547500     -0.57525000     -0.10400000       342.26200       1.9434005     0.024468996
       2922.0000       289.46738       98905.225       14711.514       4.7835000     0.016500000     -0.47475000       341.46100       1.9242397     0.017120495
       2927.0000       289.52542       98885.281       14699.315       5.6982500       1.2235000    -0.055500000       341.81300       2.0415786     0.017221869
       2932.0000       289.49818       98881.655       14629.404       6.5562500      0.22750000     -0.28200000       341.57300       1.9925907     0.017344636
       2937.0000       289.44982       98881.908       14538.397       8.0585000     -0.12325000     -0.96250000       341.46800       1.9763876     0.024124579
       2942.0000       289.38280       98884.372       14448.956       6.0797500     -0.20075000      0.64575000       341.74600       2.0286834     0.021726625
       2947.0000       289.23541       98906.736       14335.164       4.3777500      -2.2027500      0.10950000       342.09300       1.9981250     0.017224720
       2952.0000       289.16326       98909.453       14232.771       5.6892500      0.52925000      0.53450000       341.41500       1.9820777     0.015089418
       2958.0000       289.11288       98898.719       14118.396       6.1212500     -0.45400000    -0.056000000       341.13100       2.0356985     0.020026891
       2963.0000       289.06880       98892.497       14018.975       3.3782500      0.21650000     -0.27975000       341.55500       2.0118388     0.017884022
       2968.0000       289.04616       98871.620       13877.655       5.7185000      0.30600000     0.052000000       341.20400       1.9974855     0.015294784
       2973.0000       289.04236       98871.905       13829.048       4.5145000     0.097500000      0.30650000       341.44500       2.0121744     0.019896482
       2978.0000       289.04272       98888.487       13819.265       4.5860000     0.063750010     0.064250000       341.57300       2.0576145     0.015969032
       2983.0000       289.04893       98893.509       13828.468       4.5412500      0.79225000      0.20800000       341.78200       2.0007518     0.013795345
       2988.0000       289.11082       98909.202       13929.787       2.2100000      -1.3052500       1.0910000       341.94700       2.0415098     0.020988160
       2993.0000       289.10876       98907.927       13960.327       3.7365000     -0.99400000      0.58350000       341.87200       1.9850880     0.022737161
       2998.0000       289.04701       98886.944       13944.931       3.9825000     -0.51525000      0.30900000       341.85300       2.0030904     0.017843088
       3003.0000       289.04320       98881.203       13986.165       3.6692500     -0.93675010      0.45550000       341.68700       1.9804886     0.015884198
       3008.0000       289.05461       98871.507       14056.405       4.7357500      0.31350000      0.14600000       341.71800       2.0314087     0.013105777
       3013.0000       289.04471       98874.266       14083.127       6.7600000      0.71625010     -0.17650000       341.38800       1.9960590     0.016564253
       3018.0000       289.05678       98896.482       14134.887       4.9385000     -0.19425000      0.58750000       341.50000       2.0635675     0.018252980
       3023.0000       289.05073       98899.122       14142.421       3.7277500     -0.43725000      0.43550000       341.89300       1.9920386     0.016428121
       3028.0000       289.00074       98898.511       14066.198       5.5257500     -0.53325000     0.043500000       341.41400       2.0136812     0.015961947
       3033.0000       288.98705       98895.004       14061.406       6.3150010     -0.94075010    -0.017500000       341.29400       1.9672414     0.015147882
       3038.0000       289.00066       98876.595       14095.986       4.5882500     -0.15500000      0.21650000       341.61900       2.0673777     0.015561404
       3044.0000       289.00094       98869.805       14093.845       4.6090000      -1.9840000     -0.70775000       341.48300       1.9822245     0.020968144
       3049.0000       288.99986       98866.593       14100.900       4.1830000      -1.2810000     -0.20650000       341.50700       1.9675974     0.017181626
       3054.0000       288.99974       98873.087       14089.775       5.2835000      -1.3687500      0.19475000       341.50500       2.0455130     0.014535583
       3059.0000       289.00885       98892.509       14043.287       3.7872500     -0.52525000      0.38100000       341.88600       2.0193248     0.017854555
       3064.0000       288.99014       98893.030       14027.956       4.5342500     -0.88850000    -0.058500000       341.68000       2.0991057     0.016457847
       3069.0000       288.96287       98890.408       14033.307       5.2855000    0.0032500000    -0.091750000       341.43400       2.0009195     0.015778620
       3074.0000       288.92446       98892.511       14014.278       6.7900000      -2.2150000     -0.57125000       341.23600       2.0294106     0.014167206
       3079.0000       288.85135       98882.004       13989.438       6.0992500     -0.90175000     -0.10800000       341.15200       1.9935955     0.016130514
       3084.0000       288.82030       98885.280       13965.975       5.6157500      0.31425000      0.49250000       341.39200       2.0790883     0.018876065
       3089.0000       288.79720       98908.700       13935.416       5.7050000      -2.2145000     0.084000010       341.36500       2.0264115     0.017258809
       3094.0000       288.78607       98908.460       13899.004       4.5330000      -1.8237500     -0.28800000       341.18600       2.0053473     0.018367299
       3099.0000       288.80000       98897.716       13859.538       5.1045000      -1.0487500      0.64425000       341.37700       2.0484590     0.016303197
       3104.0000       288.80006       98891.019       13827.124       5.3250000       1.2437500      0.12275000       341.15300       2.0419109     0.018401131
       3109.0000       288.79073       98870.986       13770.243       6.2090000      0.35050000     -0.65300010       341.30700       1.9988228     0.015789583
       3114.0000       288.80929       98872.975       13769.952       5.1730000       1.2317500      0.30600000       341.56800       1.9421278     0.017308124
       3119.0000       288.84614       98889.252       13800.256       4.3300000      0.45825000     -0.13725000       341.59100       2.0052660     0.014781604
       3124.0000       288.86604       98894.217       13837.617       6.2770000      0.33800000      0.13875000       341.30000       2.0701575     0.015637506
       3129.0000       288.90315       98909.922       13912.006       5.9497500     -0.59500000     -0.63750000       341.22300       2.0119809     0.014646198
       3135.0000       288.91496       98904.963       13975.366       5.5445000     -0.31625000      0.49150000       341.20200       2.0579401     0.016493813
       3140.0000       288.89996       98883.195       14033.338       6.2362500      -1.9550000     -0.31425000       341.42000       2.0553198     0.015199712
       3145.0000       288.90007       98882.493       14078.609       4.1212500     0.034000000      0.10750000       341.53200       2.0432743     0.018844928
       3150.0000       288.90021       98883.012       14102.974       4.8715000     -0.49800000      0.12600000       341.33200       2.0039285     0.014887783
       3155.0000       288.91497       98903.540       14114.954       3.8437500     -0.26850000      0.54325000       341.62900       2.0162534     0.019216011
       3160.0000       288.90619       98909.224       14101.571       4.5787500      -2.6397500      0.10225000       341.37100       2.0251847     0.018980116
       3165.0000       288.85497       98899.920       14020.675       3.3040000      -1.5682500      0.19600000       341.47800       1.9810297     0.019125061
       3170.0000       288.84365       98896.134       13992.048       4.1930000     -0.19825000     -0.52125000       341.54100       1.9409180     0.020097926
       3175.0000       288.84462       98891.126       13979.342       3.4812500     -0.28975000     -0.26550000       341.66200       1.9730885     0.017872598
       3180.0000       288.84330       98876.590       13965.477       2.4810000     -0.14100000     -0.48075000       341.83800       1.9832034     0.020467213
       3185.0000       288.85498       98880.502       13970.716       2.5765000      0.11525000      0.35575000       341.94000       1.9600377     0.020801201
       3190.0000       288.90601       98897.200       14017.372       3.3375000      -1.3687500      0.59250000       341.60000       2.0464956     0.017911773
       3195.0000       288.89996       98898.040       14045.683       3.3447500      -1.2775000      0.33075000       341.66000       1.9953094     0.018871506
       3200.0000       288.89998       98897.561       14064.620       4.1830000      0.29500000     -0.40225000       341.54400       1.9934111     0.020055977
       3205.0000       288.91500       98875.767       14113.562       5.3387500     -0.22400000     -0.16550000       341.29700       2.0287717     0.022431013
       3210.0000       288.90631       98871.011       14125.873       3.2905000      -1.7422500       1.1260000       341.70900       1.9612344     0.025616881
       3215.0000       288.88534       98874.866       14114.203       3.4227500      -2.1320000     -0.21425000       341.62900       2.0444681     0.024677007
       3220.0000       288.84367       98889.895       14060.037       6.2502500      0.15600000      0.47525000       341.59000       1.9900053     0.019048915
       3226.0000       288.82987       98906.998       14047.549       6.1535000      -1.2140000      0.10250000       341.17900       1.9698724     0.018813567
       3231.0000       288.84236       98909.121       14056.527       5.5860000      -1.3212500   -0.0067500000       341.40300       2.0600023     0.024762700
       3236.0000       288.95353       98885.190       14149.605       5.4860000      -1.0465000     -0.21200000       341.43900       2.0911453     0.021737681
       3241.0000       288.97044       98881.708       14166.034       3.5275000    -0.042250000      0.42750000       341.75300       2.0442830     0.025058289
       3246.0000       288.92214       98888.392       14138.512       4.7610000     -0.38800000      0.28250000       341.60400       2.0414366     0.018044973
       3251.0000       288.90091       98889.716       14114.388       4.4990000     -0.57725000      0.50050000       341.27600       2.0566804     0.021611050
       3256.0000       288.80533       98907.262       14014.934       4.7000000     -0.96500000      0.39250000       341.33700       2.0312504     0.018635277
       3261.0000       288.77912       98909.417       13980.973       3.1915000     -0.69600000      0.29375000       341.79300       2.0380030     0.011825527
       3266.0000       288.83296       98885.414       14007.332       4.7180000     -0.98400000    -0.040500000       341.53100       2.0078059     0.014207739
       3271.0000       288.85280       98882.067       13999.897       2.4457500      0.30700000      0.25750000       341.90500       1.9868738     0.018562666
       3276.0000       288.88942       98886.698       14002.045       2.5232500    -0.048250000      0.14875000       341.90600       2.0552326     0.020759852
       3281.0000       288.90827       98888.942       14002.518       3.5220000     -0.78250000     0.040750000       341.81100       1.9193459     0.019538112
       3286.0000       288.87180       98912.089       13947.576       2.9142500      -1.0370000      0.44825000       341.76600       2.0845794     0.017653616
       3291.0000       288.89397       98915.291       13956.793       5.0617500      0.42350000     -0.70475010       341.47200       1.9959967     0.014918510
       3296.0000       288.96855       98890.903       14025.774       3.7942500     -0.96075000    -0.084000010       341.80000       1.9895029     0.018084851
       3301.0000       289.00837       98887.406       14078.622       2.3455000      -1.5835000      0.48100000       342.11300       2.0318479     0.015398581
       3306.0000       289.09572       98887.392       14170.292       5.1965000     -0.22825000     -0.31925000       341.22300       1.9875124     0.015305208
       3311.0000       289.12156       98887.921       14238.184       4.0630000      -1.2387500      0.12600000       341.64000       2.0849184     0.017688250
       3317.0000       289.07435       98913.204       14313.062       3.7812500     -0.54850000     -0.10725000       341.80800       2.0443060     0.015759811
       3322.0000       289.04022       98914.144       14339.946       3.9540000      0.23975000      0.53425000       341.85800       1.9717211     0.016515993
       3327.0000       288.97869       98890.768       14364.991       3.7690000      -1.8077500     -0.24550000       341.63500       1.8946260     0.013345881
       3332.0000       288.92861       98886.769       14338.009       3.5942500     -0.88050000      0.12975000       341.70100       1.9416081     0.015276203
       3337.0000       288.85358       98883.744       14226.424       2.3245000      -1.4052500      0.20850000       341.65400       2.0194651     0.014730519
       3342.0000       288.83139       98883.326       14171.610       4.1197500     0.039250000     -0.70375000       342.11500       1.8824980     0.018640953
       3347.0000       288.84302       98902.790       14112.086       4.6635000      0.44700000     -0.30950000       341.73100       1.9720981     0.014288069
       3352.0000       288.84669       98903.626       14057.631       5.6295000     -0.89325000      0.17450000       341.44800       1.9504763     0.014053300
       3357.0000       288.90834       98885.281       14039.919       5.5407500     -0.31400000    0.0085000000       341.34800       1.9751719     0.016411827
       3362.0000       288.91057       98883.513       13997.970       4.1270000      -1.1795000      0.50825000       341.92800       1.9870427     0.018045189
       3367.0000       288.86162       98883.365       13915.093       3.3255000     -0.34225000     -0.25525000       341.76500       1.9758829     0.017919062
       3372.0000       288.84128       98884.481       13877.800       3.2907500     -0.21675000      0.97725000       341.64200       2.0456863     0.018470067
       3377.0000       288.80476       98902.644       13861.060       4.3292500     -0.27075000    -0.088000010       341.71400       1.9973118     0.014728024
       3382.0000       288.78826       98903.526       13852.313       3.2652500     -0.90375010     0.098750000       341.70700       1.9557640     0.015416938
       3387.0000       288.80011       98885.061       13867.260       3.3320000       1.4130000      -1.5415000       341.57100       1.9238062     0.013898595
       3392.0000       288.80006       98883.218       13886.742       4.8145000     -0.86925010    -0.022750000       341.61100       1.9464426     0.012636237
       3397.0000       288.78702       98881.646       13903.844       4.0622500      -1.7372500     -0.17650000       341.68400       2.0377072     0.014203151
       3402.0000       288.80108       98884.229       13948.015       5.3780000    -0.061750000     -0.24475000       341.35100       1.9922443     0.016320226
       3408.0000       288.85335       98908.789       14049.128       4.1397500     -0.55750000    -0.099750000       341.66400       2.0111740     0.019617993
       3413.0000       288.85715       98908.472       14095.595       3.8320000     -0.15250000     0.071250010       341.36100       2.0544103     0.019725479
       3418.0000       288.86832       98889.638       14159.248       5.1260000      -1.9065000     -0.19675000       341.55700       2.0352283     0.016444509
       3423.0000       288.84598       98887.778       14167.882       3.6707500      -1.8220000     0.035500000       341.61700       1.9363649     0.015901382
       3428.0000       288.75819       98883.047       14113.769       4.9462500      -1.9987500     -0.81025000       341.19300       2.1473778     0.016786544
       3433.0000       288.72487       98883.556       14092.642       4.4287500     -0.86950000     -0.28325000       341.53500       1.9887608     0.022280793
       3438.0000       288.70067       98903.309       14053.083       1.9437500     -0.76675000       1.0967500       341.78700       2.0046886     0.014790907
       3443.0000       288.68677       98902.539       14030.980       4.1615000     -0.17700000      0.35875000       341.61600       2.0341089     0.016317548
       3448.0000       288.71144       98883.268       14044.624       2.3177500     -0.57675000      0.19575000       342.02900       1.9800580     0.011054572
       3453.0000       288.69484       98883.765       14007.446       4.6420000      -1.4865000     0.034250000       341.72000       1.9122644     0.012328376
       3458.0000       288.64715       98887.502       13928.943       3.9437500     -0.38200000      0.71825000       341.67200       2.0310169     0.016860474
       3463.0000       288.64354       98891.435       13899.365       4.5430000     -0.12725000     -0.37625000       341.39800       2.0313754     0.015848033
       3468.0000       288.64365       98914.631       13861.744       4.2410000     -0.58375000      0.20550000       341.77500       1.9712223     0.012191578
       3473.0000       288.64976       98913.825       13846.869       5.7395000     -0.16375000     -0.45275000       341.56000       1.9862010     0.012832081
       3478.0000       288.71075       98890.050       13894.836       2.4490000      -1.4030000      0.64075010       341.84700       2.0456988     0.015335270
       3483.0000       288.70849       98886.925       13884.571       3.1675000     -0.14150000     -0.20025000       341.83400       1.9916730     0.017530866
       3488.0000       288.64720       98881.659       13823.733       6.1515000      -1.5775000     -0.42350000       341.55200       2.0208122     0.018803389
       3493.0000       288.64355       98883.907       13823.688       6.2770000      -2.4325000     -0.59250000       341.22100       2.0318969     0.021710778
       3499.0000       288.63507       98909.427       13823.554       3.0252500      -1.8345000     0.066750000       341.46000       2.0107462     0.015204995
       3504.0000       288.66287       98907.357       13870.082       3.2810000      -1.8822500       1.0012500       341.68600       2.0156752     0.015724762
       3509.0000       288.73233       98889.063       13972.891       4.6885000      -3.8305000     -0.13600000       341.46100       2.0103456     0.017070786
       3514.0000       288.80099       98887.759       14061.460       3.7990000      -1.8710000     0.031000000       341.67900       1.9700531     0.019198115
       3519.0000       288.88679       98882.008       14164.375       2.5030000     -0.45100000      0.48050000       341.91500       1.9949192     0.014587675
       3524.0000       288.95624       98885.382       14268.010       6.4552500      0.91600010      0.51700000       341.11000       1.9942297     0.016561116
       3529.0000       289.06108       98909.140       14414.223       4.8027500     -0.46125000     -0.19450000       341.26700       2.0371567     0.014389609
       3534.0000       289.08523       98907.029       14464.070       4.5710000      -1.9875000     -0.32450000       341.44100       2.0192306     0.015096608
       3539.0000       289.04844       98889.687       14477.985       4.9002500      -1.7350000    -0.027500000       341.39400       2.0137295     0.016283608
       3544.0000       289.05843       98888.403       14480.624       2.9857500     -0.71250000      0.34400000       341.92400       2.0402880     0.021344980
       3549.0000       289.02560       98882.223       14399.243       4.8145000      0.22450000      0.13750000       341.14900       1.9319870     0.020341887
       3554.0000       289.07189       98885.599       14403.280       4.6752500      0.31575000     -0.18400000       341.35400       2.0607273     0.019158232
       3559.0000       289.21468       98909.594       14462.692       3.2185000      0.34250000      0.13900000       341.98600       2.0015307     0.015412203
       3564.0000       289.22879       98907.605       14453.405       2.4415000     -0.60525000     0.098000000       341.91100       1.9972859     0.016660862
       3569.0000       289.20463       98888.538       14440.564       3.3792500     -0.52675000     -0.56125000       341.69600       1.9479000     0.012369801
       3574.0000       289.20573       98889.143       14410.192       3.2797500      -1.0732500      0.23700000       341.62900       1.9547577     0.015166013
       3579.0000       289.13909       98887.037       14325.547       5.1787500      0.56950000     -0.34550000       341.33700       1.9697634     0.015229777
       3584.0000       289.13720       98890.685       14289.693       4.3695000       1.4445000      0.22275000       341.77900       2.0536905     0.013633631
       3590.0000       289.19423       98915.162       14262.378       5.6452500     -0.63075000     -0.14975000       341.76900       2.0291815     0.020468872
       3595.0000       289.26135       98892.069       14266.269       3.6277500       1.0885000     -0.40850000       342.07800       2.0009611     0.014934059
       3600.0000       289.30187       98887.421       14290.059       3.8537500      0.97375010      0.16200000       341.66800       2.0090543     0.015097534
       3605.0000       289.37101       98889.818       14364.927       5.4245000      0.38125000     -0.18025000       341.64000       1.9558194     0.015705533
       3610.0000       289.41280       98888.541       14422.903       5.7290000      0.14600000     -0.80375000       341.42700       2.0414365     0.015449700
       3615.0000       289.41531       98905.826       14511.402       4.0767500       1.5527500      0.32025000       341.65200       1.9902259     0.023386815
       3620.0000       289.40684       98909.727       14557.779       6.9085000     0.037000000      0.13625000       341.27100       2.0147686     0.021608958
       3625.0000       289.38608       98905.003       14579.602       5.6572500      0.12850000     -0.33750000       341.18200       2.0378272     0.016477137
       3630.0000       289.34423       98882.134       14570.166       3.9122500      0.10850000    -0.094500010       341.63000       2.0316114     0.018289075
       3635.0000       289.34558       98883.745       14583.120       5.3367500       1.3457500     -0.50500000       341.48400       2.0055518     0.013463270
       3640.0000       289.34449       98890.102       14577.629       4.8830000      0.60400000    0.0065000000       341.63100       1.9672893     0.023296211
       3645.0000       289.38515       98892.034       14591.445       6.8150010       1.2132500      0.10200000       341.79000       2.0140321     0.022875152
       3650.0000       289.40676       98896.219       14592.104       3.6645000     -0.15800000      0.23600000       341.87200       1.9225359     0.019427778
       3655.0000       289.38488       98889.341       14554.279       6.4822500       2.0095000     -0.19450000       341.59500       1.9895654     0.016271128
       3660.0000       289.39343       98887.883       14534.394       3.9340000      0.16900000     -0.31950000       342.17400       1.9036386     0.020873219
       3665.0000       289.41421       98891.341       14520.507       4.5892500       1.1782500      0.52425000       342.04600       2.0086830     0.021901747
       3670.0000       289.44367       98909.231       14500.659       5.0090000      0.21575000      0.17125000       342.04100       2.0060089     0.020939207
       3676.0000       289.58032       98889.972       14607.354       4.1632500     -0.59550010      0.29950000       342.15900       2.0525397     0.020967543
       3681.0000       289.57373       98888.351       14624.791       3.8037500       1.2712500      0.22525000       342.11200       1.9152978     0.023783152
       3686.0000       289.45173       98887.975       14649.944       4.4220000     0.054500000    0.0027500000       342.18600       1.9564914     0.019227714
       3691.0000       289.38994       98888.482       14629.153       3.4275000      0.65175000      0.70000000       342.60700       2.0121147     0.017809970
       3696.0000       289.23775       98912.246       14490.830       2.8425000      0.22200000     -0.35575000       342.27800       1.9952122     0.015834721
       3701.0000       289.16400       98915.152       14411.801       3.2255000     -0.28075000      0.76650010       342.91600       1.9261181     0.020607989
       3706.0000       289.18582       98891.148       14332.814       1.9285000      0.24175000      0.78675000       342.85000       1.9528114     0.019308396
       3711.0000       289.19686       98887.709       14284.460       2.2322500     -0.83900000      0.98450010       343.00700       1.9567722     0.018094987
       3716.0000       289.21888       98891.916       14251.703       3.9450000       1.1830000      0.54725000       342.44200       1.9355150     0.020708903
       3721.0000       289.25032       98889.038       14252.480       3.2445000      0.47100000      0.31275000       342.23300       1.9452133     0.027783772
       3726.0000       289.33766       98897.433       14310.662       3.7395000      -1.2572500      0.99150000       341.84100       2.0092247     0.019058263
       3731.0000       289.36533       98897.879       14342.441       3.3130000      -1.4225000     0.072750000       342.37300       1.9571004     0.018425544
       3736.0000       289.36962       98874.053       14410.732       3.6365000      0.89000000      0.62975000       342.64300       1.9371767     0.018163368
       3741.0000       289.35729       98870.716       14432.390       4.2072500      0.84425000       1.1502500       342.18200       1.9939610     0.017879456
       3746.0000       289.23300       98889.213       14374.420       3.8592500      0.73800000     -0.17450000       342.29300       1.9143541     0.017862566
       3751.0000       289.22818       98891.939       14381.731       1.9520000      0.67750000       1.1007500       342.58300       1.9951092     0.025859670
       3756.0000       289.29475       98893.791       14398.688       2.2840000      0.59950000      0.56850000       342.34200       1.9423642     0.019313254
       3761.0000       289.34763       98897.615       14428.073       4.0125000     -0.31200000   -0.0015000000       342.31900       1.9904496     0.017625918
       3767.0000       289.53452       98888.081       14522.941       2.7957500     0.096000000     0.030250000       342.56700       1.9834319     0.025563074
       3772.0000       289.58961       98888.520       14590.843       4.8390000     -0.68325000     -0.65900000       341.19700       1.8757473     0.018321450
       3777.0000       289.55643       98908.389       14666.851       2.8780000       1.2780000      0.49775000       341.90200       1.9745526     0.015225065
       3782.0000       289.55259       98908.244       14711.403       4.8367500      -3.3362500     -0.20525000       342.13200       1.9697044     0.022073842
       3787.0000       289.50498       98889.310       14763.310       4.5887500     -0.25800000      0.20625000       342.16000       1.9962345     0.016082558
       3792.0000       289.48925       98888.490       14774.234       4.0885000      -2.7115000   -0.0097500000       341.34300       1.9951410     0.018673792
       3797.0000       289.52615       98888.889       14727.340       4.0497500      0.51950000      0.27250000       342.11800       1.9287523     0.026027193
       3802.0000       289.49903       98889.036       14701.376       4.5530000      0.89425000     -0.77700000       342.04000       2.0035671     0.020972744
       3807.0000       289.42591       98907.357       14683.246       5.1747500     -0.33350000     -0.13975000       341.22200       1.9793585     0.023104609
       3812.0000       289.38585       98909.083       14627.592       5.2477500     -0.65950000      0.27000000       341.75500       2.0505774     0.024536327
       3817.0000       289.34987       98889.311       14573.767       4.8992500      0.28900000   -0.0027500000       341.24500       2.0007805     0.016784714
       3822.0000       289.27580       98887.754       14475.039       4.7655000      0.41175000     -0.34175000       341.34900       1.9792705     0.015686772
       3827.0000       289.15767       98897.896       14291.565       5.1967500      0.35975000     -0.73175000       341.40900       2.0202281     0.020182433
       3832.0000       289.12412       98895.186       14172.407       5.6362500     -0.20775000      0.14775000       341.65500       2.0431458     0.022585885
       3837.0000       289.09082       98889.685       14047.533       4.0245000      0.45525000      0.79550000       341.96100       1.9757351     0.016094639
       3842.0000       289.08209       98890.693       13957.030       3.1840000      0.67975000      0.34000000       341.97200       2.0491312     0.018964188
       3847.0000       289.19052       98883.439       13896.106       3.0472500     -0.33950000     -0.79325000       342.05500       2.0200906     0.019217908
       3852.0000       289.22273       98883.018       13864.836       4.3690000      0.92975000    -0.046000000       341.73000       2.0082564     0.016806568
       3858.0000       289.17826       98903.398       13839.794       2.4157500      -1.2712500     -0.24700000       342.37800       1.9864103     0.020367398
       3863.0000       289.21118       98902.680       13887.114       2.2485000     -0.84950010     -0.24425000       342.18000       1.9107454     0.017295975
       3868.0000       289.28584       98882.951       14012.407       2.8110000    -0.078500000      0.29575000       341.86700       1.9885549     0.018978031
       3873.0000       289.32612       98883.417       14109.622       1.6682500     -0.99025010     -0.10150000       342.17800       1.7396790     0.019374966
       3878.0000       289.39910       98891.907       14258.535       2.9967500     -0.60475000    -0.049500000       342.11200       2.0483213     0.016603316
       3883.0000       289.42622       98889.295       14353.920       4.0672500      -1.0480000     -0.72325000       342.27600       1.9666098     0.018333629
       3888.0000       289.38883       98889.791       14409.537       2.2780000    -0.047750000      0.17050000       342.41100       1.9314851     0.017742093
       3893.0000       289.40491       98892.161       14488.921       4.1175000     -0.65100000      0.54900000       341.88100       1.9884686     0.019252283
       3898.0000       289.46389       98882.934       14606.007       2.7015000    -0.066500000     -0.35175000       342.03100       1.9531735     0.017644584
       3903.0000       289.45097       98883.523       14619.459       2.2792500      -1.1197500     -0.10350000       341.95100       1.9143286     0.029397340
       3908.0000       289.40420       98902.088       14589.340       2.9987500      -1.9822500      -1.1392500       341.66500       1.9598249     0.015700137
       3913.0000       289.39448       98902.990       14556.749       2.8660000      -1.7820000     -0.43375000       341.97500       1.9311267     0.014730696
       3918.0000       289.34317       98888.391       14423.927       2.9940000      -1.2655000      0.21125000       341.72400       1.9490267     0.015621859
       3923.0000       289.33509       98889.193       14371.357       3.0785000      -3.2622500    -0.022250000       341.78700       1.9153397     0.018265795
       3928.0000       289.39928       98897.505       14367.167       5.1042500      -1.3742500     0.099500010       341.63400       1.9604132     0.017436033
       3933.0000       289.41297       98894.270       14351.722       4.6142500     -0.56225000     -0.45125000       341.36400       1.9713659     0.015295655
       3938.0000       289.38867       98889.969       14324.188       4.1020000     -0.22000000      0.29000000       341.49000       1.9523943     0.022532221
       3943.0000       289.40526       98890.848       14350.092       3.5392500      -1.4430000     -0.11900000       341.84200       2.0271491     0.021464437
       3949.0000       289.44624       98883.016       14428.999       3.2497500     -0.81450000     -0.24300000       342.27000       1.9170334     0.015242380
       3954.0000       289.46638       98884.499       14477.899       4.8687500     -0.77600000    -0.089250010       341.65500       1.9888455     0.014322106
       3959.0000       289.51250       98903.920       14572.182       4.3747500     -0.59850000     -0.36350000       341.42500       1.9653843     0.017180122
       3964.0000       289.50528       98901.708       14595.514       2.4942500     -0.63725000    0.0020000000       341.85200       1.9908352     0.017350312
       3969.0000       289.45407       98882.985       14570.935       3.7747500     -0.73350010     -0.23850000       342.02800       1.9525755     0.017034590
       3974.0000       289.43421       98884.539       14566.070       3.0845000      -2.2310000    -0.055500000       341.82100       1.9922124     0.017813139
       3979.0000       289.39716       98891.465       14536.103       2.9742500      -1.7075000    -0.027500000       342.07500       1.8845050     0.018875748
       3984.0000       289.38601       98888.657       14530.383       2.7192500      -1.1837500     0.069250000       342.29900       1.9422769     0.018865669
       3989.0000       289.41921       98890.481       14550.411       3.1365000      -1.4480000     0.060250000       342.34000       1.9585041     0.013532975
       3994.0000       289.38138       98892.490       14525.437      0.98175010      -1.8285000      0.14625000       342.69600       1.9432010     0.018782829
       3999.0000       289.30793       98883.025       14485.561       4.3337500      -2.9235000     -0.33875000       342.03300       1.9406948     0.023935845
       4004.0000       289.26777       98884.467       14444.833       4.6492500      -2.4400000      0.26900000       341.98600       1.9931389     0.030133787
       4009.0000       289.19334       98902.994       14379.675       3.3357500      -1.4890000       1.2932500       342.36400       1.9536306     0.023702738
       4014.0000       289.17046       98902.677       14321.575       4.4600000    -0.069500010     -0.22975000       342.38800       1.9562906     0.023874263
       4019.0000       289.19981       98888.525       14261.432       4.4285000      -1.4947500     -0.15175000       341.96700       1.9641703     0.016056417
       4024.0000       289.19969       98890.151       14218.958       3.0072500    -0.099000010     -0.16375000       342.26600       1.9917728     0.018128804
       4029.0000       289.19042       98896.849       14148.154       2.3590000    -0.026750000       1.5742500       342.26600       2.0191807     0.024640106
       4034.0000       289.20925       98893.009       14163.435       5.2312500      0.49275000    -0.047250000       342.11000       2.0153806     0.018938514
       4040.0000       289.26186       98890.195       14263.378       3.0362500     -0.47200000       1.1777500       342.31200       1.9608170     0.020511642
       4045.0000       289.20919       98885.427       14251.268       4.7902500    0.0032500000      0.11450000       342.29100       1.9664927     0.012919879
       4050.0000       289.19870       98882.924       14269.459       4.4025000     -0.46475000    -0.030250000       341.88500       1.9821331     0.012207165
       4055.0000       289.15909       98900.297       14221.701       3.9565000      -1.4222500      0.17125000       342.37900       1.9482244     0.015008584
       4060.0000       289.13684       98903.870       14225.480       5.7717500      -1.5695000      0.49100000       342.09200       1.9509964     0.017207777
       4065.0000       289.20013       98885.370       14367.757       5.1340000      -1.0072500      0.22725000       341.57000       2.0297184     0.019853378
       4070.0000       289.21254       98882.901       14409.654       4.8537500     -0.64750000      0.20500000       341.73900       1.9537657     0.014772216
       4075.0000       289.20026       98885.362       14411.435       3.6442500       1.1607500      0.46250000       342.00000       1.9930041     0.014201701
       4080.0000       289.14407       98890.581       14377.756       3.5922500     -0.49600000      0.29400000       341.60200       1.8738012     0.015552913
       4085.0000       289.14515       98887.458       14365.002       3.9712500     -0.11925000    -0.060250000       341.78900       1.9854757     0.016666207
       4090.0000       289.13806       98890.049       14288.975       2.6470000     -0.68825000      0.65700000       342.23400       1.9841568     0.013230454
       4095.0000       289.24498       98894.452       14353.172       1.2107500     -0.66825000      0.50450000       342.51600       1.9492818     0.012544528
       4100.0000       289.26971       98890.510       14376.040       3.7692500      -1.2670000     0.068500000       341.68300       1.9723804     0.016257632
       4105.0000       289.22540       98890.919       14382.099       2.9250000      -1.3447500     -0.10750000       342.14600       1.9420357     0.017796939
       4110.0000       289.20699       98892.285       14385.477       3.2462500      -2.0357500      0.45825000       341.96700       1.9495777     0.014438830
       4115.0000       289.17629       98889.943       14377.912       2.4260000      -2.5012500    -0.013750000       342.12700       1.9876999     0.011798371
       4120.0000       289.08726       98870.797       14353.526       3.8545000      -2.7347500     -0.18275000       341.77600       1.9176967     0.017198453
       4125.0000       289.07001       98875.886       14307.608       4.2425000      -1.4245000      0.25475000       341.73000       2.0220037     0.015912361
       4131.0000       289.10001       98898.495       14238.384       5.1102500      -1.5687500     -0.48675000       341.50100       1.9202360     0.013453555
       4136.0000       289.08605       98887.989       14166.055       2.6102500      -1.0960000      0.69725000       342.18900       1.9901857     0.016755222
       4141.0000       289.09719       98890.041       14153.982       4.7682500      -3.6712500     0.029250000       341.46500       1.9871846     0.014006614
       4146.0000       289.14864       98893.479       14250.020       4.5345000      -2.8732500      0.47500000       341.99100       1.9816120     0.012777416
       4151.0000       289.15730       98889.529       14269.088       3.2245000     -0.12100000     -0.24975000       342.20200       1.9969682     0.014600523
       4156.0000       289.17081       98887.104       14292.158       3.9430000      -3.1597500      0.64075010       341.58200       1.9871360     0.014044800
       4161.0000       289.15864       98891.074       14279.190       5.9577500      -3.2967500     -0.84450010       341.47000       1.9790288     0.014416636
       4166.0000       289.07683       98888.902       14177.157       4.8200000      -1.9442500     -0.42400000       341.41000       1.8969623     0.014005892
       4171.0000       289.03822       98888.288       14123.011       3.3000000     -0.84350000    -0.083500010       341.62700       1.9850400     0.013219027
       4176.0000       289.01042       98905.670       14081.248       3.2080000      -2.2447500      0.20600000       341.78900       2.0140039     0.016638854
       4181.0000       288.99160       98909.026       14040.512       3.2295000      -2.2325000    -0.083250000       341.86600       1.9630488     0.016320589
       4186.0000       288.98598       98890.118       14007.757       4.5712500      -2.1157500     -0.23150000       341.76100       1.9400774     0.012087362
       4191.0000       288.99702       98887.485       13989.715       5.1057500      -1.7550000     -0.34175000       341.38900       1.9779685     0.014353201
       4196.0000       289.04862       98898.048       13958.810       3.3130000      0.16925000     -0.16625000       342.20500       1.9450705     0.015121754
       4201.0000       289.05753       98895.797       13967.291       2.8805000      0.18725000     -0.16600000       341.95800       1.9589222     0.012309419
       4206.0000       289.07196       98888.102       14066.159       3.4345000      -1.4700000     -0.27075000       341.99600       1.9361893     0.010161105
       4211.0000       289.05917       98890.171       14075.950       3.9375000       2.1215000    0.0070000000       341.97800       1.9669331     0.011766680
       4216.0000       288.97653       98893.533       14058.739       2.9170000       1.4745000       1.4570000       342.28100       1.9239043     0.012393846
       4222.0000       288.93173       98888.673       14024.745       5.6567500     -0.16350000     -0.54025000       341.48900       1.9808399     0.014353382
       4227.0000       288.89170       98887.657       13894.629       4.3112500      -2.3795000     -0.16000000       341.53200       2.0092235     0.018216343
       4232.0000       288.88892       98891.613       13846.939       4.1665000      -1.4655000      0.39700000       341.75400       2.0037300     0.014065691
       4237.0000       288.91232       98891.504       13831.155       4.0610000       1.0880000      0.27700000       341.71000       1.9576855     0.015501937
       4242.0000       288.95951       98888.965       13842.734       2.7592500      0.61450000    -0.064000000       341.79200       1.8850663     0.010561519
       4247.0000       289.07088       98894.124       13901.078       4.6297500      -2.0440000     -0.18300000       341.24100       1.9746821     0.011895630
       4252.0000       289.12678       98897.326       13952.312       4.4297500      -1.2865000    -0.036000000       341.57600       1.9903281     0.012721395
       4257.0000       289.18995       98891.781       14022.971       2.9577500      -1.6967500      0.28375000       341.90800       1.9844667     0.012568284
       4262.0000       289.22224       98888.121       14102.338       2.4077500     -0.98025010      0.59925000       342.11500       1.9800165     0.012030276
       4267.0000       289.21311       98892.893       14208.545       3.6972500      -1.4225000     -0.65625010       341.36600       1.9850879     0.013462692
       4272.0000       289.19948       98890.828       14278.367       3.2920000      -3.8497500      0.69875000       341.52900       2.0057654     0.014131920
       4277.0000       289.13553       98872.151       14337.065       3.7110000      -3.9222500     0.069750000       341.61800       2.0017197     0.014089236
       4282.0000       289.14246       98872.238       14401.912       4.7332500      -3.1497500    -0.074750010       341.42900       1.9226462     0.010721456
       4287.0000       289.21974       98891.179       14503.103       5.4377500      -1.9817500     -0.32225000       341.11200       1.9469362     0.015045032
       4292.0000       289.20221       98892.033       14488.617       3.9535000      -1.5962500     0.048250000       341.24000       1.9587221     0.011602628
       4297.0000       289.16533       98888.110       14403.864       2.6775000      -1.0715000    -0.066500000       341.75800       1.9829600     0.013397448
       4302.0000       289.15128       98892.135       14351.143       2.3740000     -0.43000000     -0.34700000       341.87200       1.9897932     0.011623788
       4308.0000       289.04520       98888.653       14183.797       2.1452500      -1.1897500    -0.079750000       341.88000       1.9827757     0.011571826
       4313.0000       289.02368       98889.507       14107.941       3.1107500      -1.1190000      0.17175000       341.72600       1.9813684     0.014816818
       4318.0000       289.08831       98905.688       14098.925       2.7250000      -3.0180000      0.97650000       341.62000       1.9973852     0.013009751
       4323.0000       289.11830       98909.183       14080.173       2.9767500      0.42825000     -0.54175000       341.95200       1.9537087     0.011054224
       4328.0000       289.12000       98899.404       14020.928       2.9757500      -1.5305000      0.39400000       341.56800       1.9221232     0.011061347
       4333.0000       289.17227       98899.739       14061.394       3.5305000     -0.94250010    -0.034500000       341.54900       2.0535197     0.022050454
       4338.0000       289.28325       98907.763       14196.256       2.9552500      0.24300000      0.30125000       342.14000       1.9411677     0.011610999
       4343.0000       289.33685       98904.876       14278.859       1.0497500      -1.4750000     -0.11425000       342.04600       1.9762720     0.013954519
       4348.0000       289.39778       98894.309       14397.386       4.0347500      -2.1050000     -0.23875000       341.85800       1.9819905     0.011971063
       4353.0000       289.42485       98894.565       14489.329       2.5645000     -0.69675000     0.050000000       341.96500       1.9071248     0.013836288
       4358.0000       289.42211       98897.766       14562.302       3.1700000      0.29600000     0.028750000       341.76800       1.9246344     0.015467209
       4363.0000       289.38951       98893.141       14609.341       3.1277500      0.40175000     -0.31875000       341.72000       1.9365696     0.013435771
       4368.0000       289.32598       98888.502       14688.362       2.6985000    -0.038250000    -0.094250000       342.01100       1.9464466     0.013513762
       4373.0000       289.26989       98891.082       14661.297       1.7972500    -0.065250000      0.37925000       342.25500       1.9389185     0.012205035
       4378.0000       289.14803       98890.921       14516.225       2.6140000     -0.10775000     -0.16850000       341.74400       1.9039347     0.011202773
       4383.0000       289.11698       98888.619       14455.317       2.4565000     0.074000000      0.46000000       342.13100       1.8337158     0.013127157
       4388.0000       289.11917       98894.278       14340.721       3.6512500     -0.73675000     -0.53350000       342.00200       1.8571907     0.012524935
       4393.0000       289.15897       98898.632       14319.925       2.9885000     -0.32025000    -0.097250010       341.93300       1.9412400     0.010106357
       4399.0000       289.31233       98894.053       14417.223       4.7857500      -2.3417500     -0.30375000       341.85300       1.9342696     0.010475859
       4404.0000       289.32593       98894.745       14403.646       2.5677500      -1.0067500     0.031250000       341.97600       1.9349689     0.013546993
       4409.0000       289.30358       98908.320       14386.096       2.8755000      0.24200000      0.80150000       342.25900       1.8667782     0.011846379
       4414.0000       289.30476       98905.956       14336.045       3.5020000      -1.5840000     0.080250000       342.07800       1.9144209     0.012214138
       4419.0000       289.22257       98889.126       14183.848       2.7435000      -1.1182500      0.29400000       342.18600       1.9828492     0.011314387
       4424.0000       289.25774       98887.865       14185.251       3.4197500     -0.78575000     0.071250010       342.33700       1.9528404     0.011784295
       4429.0000       289.38574       98890.830       14247.372       4.7670000      -2.0920000     -0.22075000       341.77000       1.9245109     0.012614713
       4434.0000       289.45519       98888.875       14297.411       4.1777500      -1.2050000     -0.85975000       341.78900       1.9594429     0.013822634
       4439.0000       289.54159       98889.043       14403.084       3.5687500      -1.2040000     -0.28575000       342.24500       1.9601009     0.013654962
       4444.0000       289.60296       98892.931       14523.505       3.1995000      -1.0907500      0.78225000       342.12900       1.9207501     0.019096219
       4449.0000       289.64888       98897.067       14647.909       4.2100000    -0.089500000     -0.21625000       341.66700       2.0069860     0.018119912
       4454.0000       289.68055       98893.287       14768.585       3.3567500      -1.2685000      0.19500000       342.15900       1.8801648     0.013981654
       4459.0000       289.71285       98888.909       14973.948       3.2500000      -1.0852500      0.34225000       341.46300       1.9542512     0.012960222
       4464.0000       289.70595       98891.762       15041.385       4.3467500      -1.6547500      0.42050000       342.17300       1.9572193     0.013466050
       4469.0000       289.65441       98891.149       15037.721       3.6752500      -1.4170000     -0.33850000       341.82800       1.8875647     0.016243815
       4474.0000       289.63480       98887.226       15000.989       2.3517500      -3.3392500      0.27150000       341.63100       1.9510659     0.018608729
       4479.0000       289.57833       98889.607       14876.920       2.4002500      -1.0655000     -0.90525010       342.08400       2.0206824     0.019777052
       4484.0000       289.60551       98893.569       14814.981       3.8127500      -2.4977500    -0.034250000       342.04400       1.9585453     0.013668967
       4490.0000       289.70630       98889.701       14715.095       3.2740000      -3.7620000     -0.49325000       341.53000       1.9130112     0.014462137
       4495.0000       289.72444       98890.712       14676.487       2.4900000      -2.4150000      0.51225000       342.03900       2.0060932     0.022632575
       4500.0000       289.75550       98895.805       14655.039       3.4585000      -2.1827500     -0.69825010       341.84100       1.9297034     0.016211612
       4505.0000       289.73013       98898.254       14653.578       2.1480000      -1.9927500    -0.080750000       341.64500       1.9034722     0.013254127
       4510.0000       289.73799       98895.291       14649.108       2.0307500      -2.5390000     -0.35600000       341.88500       1.9119903     0.018378854
       4515.0000       289.78529       98892.310       14628.949       3.5267500      -1.1707500    -0.079750000       342.14300       1.9469527     0.021338454
       4520.0000       289.84367       98895.273       14664.235       3.3972500     -0.80500010      0.29200000       342.44700       1.9228857     0.018696490
       4525.0000       289.91439       98898.236       14728.374       4.1382500      -1.2410000      0.38725000       341.98200       1.8715344     0.020168936
       4530.0000       290.01116       98895.293       14802.267       3.5655000     -0.20350000      0.31925000       342.60400       1.9617482     0.015512612
       4535.0000       290.03890       98892.398       14914.015       4.8802500      -1.9650000     -0.41675000       342.22500       1.8697997     0.019589296
       4540.0000       290.06754       98895.749       15100.407       3.4075000      0.60800000      0.51600000       343.36800       1.9735262     0.019909467
       4545.0000       290.01407       98890.759       15247.600       3.1072500     -0.75150000      0.19075000       343.33100       1.9842560     0.020352823
       4550.0000       289.95509       98888.281       15296.946       4.9505000      -2.0467500      0.17850000       341.65800       1.8636949     0.028636873
       4555.0000       289.83962       98897.440       15246.782       4.3327500      0.12475000    -0.060250000       341.75600       1.9030696     0.023524060
       4560.0000       289.78766       98901.701       15193.361       3.4610000    -0.063500000    -0.054250000       341.95900       1.9533592     0.023550624
       4565.0000       289.76028       98903.518       15101.536       2.8837500     0.058000000      0.21050000       342.54500       1.9457910     0.018069486
       4570.0000       289.74334       98900.294       14925.346       3.2877500     -0.16400000      0.16525000       342.60500       1.9838016     0.023856005
       4575.0000       289.72491       98900.255       14816.039       3.4722500     -0.34050000      0.49725000       342.74600       1.9559475     0.020079453
       4581.0000       289.75196       98901.223       14695.063       2.2277500     -0.75500010      0.11725000       342.98500       1.9040454     0.018998115
       4586.0000       289.75826       98884.205       14649.420       2.5195000     -0.31850000    -0.035250000       342.40700       1.8802968     0.021780716
       4591.0000       289.74829       98882.614       14589.441       3.6542500     -0.57175000     -0.48550000       342.02200       1.8462569     0.020273890
       4596.0000       289.77059       98892.602       14565.584       3.2977500      -1.0480000      0.30900000       342.36500       1.8873279     0.019035730
       4601.0000       289.75791       98890.490       14511.858       2.1702500     -0.15975000      0.11750000       342.85600       1.9214689     0.018154094
       4606.0000       289.67609       98887.073       14399.852       2.0530000     -0.73250000      0.42925000       342.81400       1.9146182     0.017237388
       4611.0000       289.63775       98891.060       14345.220       2.2037500    -0.076000010    -0.022250000       342.85600       1.9300778     0.026797232
       4616.0000       289.62493       98893.313       14307.862       3.7430000     -0.50800000      0.22325000       342.55600       1.9049226     0.020183007
       4621.0000       289.59509       98889.295       14285.144       4.6422500     -0.55775000      0.47950000       342.01000       1.8977752     0.019779258
       4626.0000       289.59445       98886.825       14339.634       3.4855000     -0.21750000   0.00050000000       342.49600       1.9406946     0.018424809
       4631.0000       289.55192       98890.855       14328.703       2.7412500      -1.0542500      0.36625000       343.14200       1.9954772     0.025364932
       4636.0000       289.44044       98893.670       14258.903       2.6645000      0.50825000    -0.054750000       342.44600       1.9501360     0.025909928
