MIRICO/SHELL project - Processed LDS file generated on
Mon Jul 24 17:54:56 2017
Time stamp for record start
05/12/2017  12:01:15.0000
Nb of points in the record
         918
Beam position index
       7.0000000
Beam angle (degrees)
       19.274000
Open Path length (m)
       33.730000
****************** Temporal data record ************************
Elapsedtime_sec Temp_K Press_Pa Humidity_ppmv WindX_m/s WindY_m/s WindZ_m/s Speedofsound_m/s CH4vmr_ppmv CH4vmrerror_ppmv  
      0.00000000       287.82935       98875.758       14110.907       3.7845000     -0.75200000     -0.14550000       341.17500       2.1240099     0.038030661
       5.0000131       287.85989       98861.136       14074.330       3.4662500      -2.4325000      0.36975000       341.01600       2.0243227     0.018927500
       10.000026       287.85005       98853.967       14009.533       2.5397500      0.17175000      0.53150000       341.22500       2.1307797     0.030565045
       14.999999       287.85513       98843.317       13943.747       3.8175000      0.37675000    -0.071750000       341.03700       1.9750324     0.020736527
       20.000012       287.85647       98841.510       13890.814       4.5820000     -0.44500000     0.063250010       341.08700       1.9769189     0.017951396
       25.000025       287.84547       98847.063       13834.210       5.1532500      -2.6047500     -0.18375000       340.85900       1.8344188     0.024817392
       30.999993       287.78841       98867.139       13729.773       2.8185000      0.24950000     0.043500000       341.17200       1.8834171     0.020534573
       36.000006       287.83377       98878.563       13762.327       3.6177500      0.24925000      0.54950000       341.09800       1.9599416     0.018945471
       41.000019       287.85379       98883.081       13777.277       4.5025000      -2.4885000     -0.28800000       341.01800       1.8952249     0.022235428
       45.999992       287.90389       98875.400       13837.641       2.8082500     -0.39650000     -0.63550000       341.08900       1.8616359     0.030367905
       51.000005       287.91163       98874.500       13862.876       2.7967500      0.78600000      0.34875000       341.20800       1.8871560     0.017962799
       56.000018       287.85186       98876.197       13845.161       4.2895000      0.30975000     -0.31775000       340.81500       1.9574734     0.021227449
       61.000031       287.84318       98875.231       13857.679       4.9750000    -0.096750010      0.27950000       341.02100       2.0199170     0.019931409
       66.000004       287.84270       98879.094       13884.007       3.2737500      0.96750000      0.61050000       341.05000       2.0312166     0.019602673
       71.000017       287.84405       98876.730       13894.525       3.8147500     -0.91775010   -0.0017500000       341.01800       1.8448163     0.020515101
       76.000030       287.88994       98861.586       13926.515       5.7675000     -0.44550000      -1.0035000       341.01200       1.9498537     0.024360039
       81.000003       287.90880       98857.934       13931.253       3.1460000     -0.55600010      0.47700000       341.17100       1.9314295     0.022622702
       86.000016       287.88616       98857.700       13883.373       6.1565000     0.029500000      0.13425000       340.88100       1.9307505     0.022611145
       91.000029       287.89730       98859.031       13872.239       6.3777500      -1.1722500     -0.11900000       340.95400       1.8929840     0.018876588
       96.000002       287.92009       98868.932       13858.170       7.1860000       3.1857500     0.089250010       340.75600       1.9829941     0.016199822
       101.00002       287.95124       98876.834       13872.618       6.3377500     -0.19125000     -0.65075000       340.86600       2.0461564     0.022672492
       106.00003       288.03881       98886.125       13950.991       5.5395000       1.5250000      0.48450000       341.01500       1.8894270     0.020221724
       111.00000       288.06638       98891.953       13979.632       5.6000000      0.60100000    -0.018500000       340.81500       2.0174797     0.019427292
       116.00001       288.05735       98901.381       13990.980       5.3257500      -1.6632500    -0.072500010       340.81800       2.0174711     0.014120795
       122.00002       288.05425       98902.594       14011.798       6.2125000      -1.7382500    -0.078250010       340.76800       1.8684754     0.017968191
       127.00000       287.99255       98894.055       13981.114       5.2587500      -1.0827500      0.36050000       340.93800       1.7252783     0.025006173
       132.00001       287.98983       98888.712       14000.579       6.1242500      -2.6145000     -0.24500000       340.84400       1.9032132     0.024265855
       137.00002       288.05213       98880.036       14083.432       4.4342500      -2.9082500     -0.22175000       340.85800       1.9858426     0.015475326
       141.99999       288.05885       98872.019       14111.391       4.5752500      -2.0970000     -0.16075000       340.96400       1.9829698     0.023698984
       147.00001       288.04408       98862.996       14118.933       4.4200000     -0.50000000     0.099500010       341.15600       1.9392020     0.015993622
       152.00002       288.05399       98857.343       14141.573       4.4262500      0.44200000     -0.53575000       340.94100       1.9455097     0.019510251
       156.99999       288.02870       98848.579       14116.823       3.7447500     -0.40875000    -0.077500000       341.03300       1.9401228     0.020538627
       162.00001       288.04657       98848.173       14151.339       4.5380000      -1.2500000     -0.37925000       340.92300       2.0316774     0.027675915
       167.00002       288.13295       98856.776       14254.973       4.3462500      -1.0332500     0.088750000       340.85800       1.9102148     0.017773786
       171.99999       288.16950       98862.229       14311.020       3.9007500     -0.12375000      0.39575000       341.10700       1.9472441     0.023074539
       177.00001       288.19525       98870.600       14380.369       2.6397500      0.23275000      0.14500000       341.15000       2.0802185     0.027664706
       182.00002       288.21173       98878.576       14416.466       5.3685000      0.35725000    -0.090750000       340.88600       1.9670559     0.023141481
       186.99999       288.17413       98887.561       14377.687       4.8522500     -0.53500000     -0.65675000       341.10700       2.0430866     0.018937874
       192.00000       288.20152       98893.163       14413.205       4.2480000      0.22150000     -0.24225000       341.01700       1.9568042     0.019659170
       197.00002       288.28912       98901.780       14485.174       4.4870000      0.18950000     0.021000000       341.04500       1.9596149     0.017702010
       202.00003       288.31527       98902.236       14536.419       3.7335000     -0.97925010    -0.085250010       340.98700       1.9745122     0.026063636
       207.00000       288.37984       98894.060       14674.773       3.3290000      -1.4132500      0.37575000       341.19600       2.1167244     0.023259364
       213.00001       288.35540       98887.336       14680.489       3.9255000      -1.4637500   0.00075000000       341.04300       2.0545216     0.019362632
       218.00002       288.20660       98878.590       14566.302       4.2355000      -1.1332500     -0.19450000       341.12000       2.0949076     0.023529351
       223.00000       288.16906       98870.574       14531.568       4.2647500     -0.78375010      0.18250000       341.13600       2.1237584     0.026194527
       228.00001       288.13295       98862.912       14452.469       4.3712500     -0.67725000      0.17775000       340.99700       1.8866209     0.020441818
       233.00002       288.14131       98855.925       14427.251       3.9872500     -0.47725000     -0.31375000       340.93300       2.0295573     0.023748129
       238.00000       288.25274       98845.255       14496.904       2.8452500      -1.2905000      0.36825000       341.34700       2.0665327     0.024517299
       243.00001       288.27016       98842.174       14479.026       2.6815000     -0.59400000      0.46650000       341.28700       2.0387250     0.019972322
       248.00002       288.25841       98842.310       14417.044       2.4402500      -1.7052500      0.80625000       341.37800       2.0340546     0.020746591
       253.00000       288.25196       98846.331       14379.153       2.5325000      -1.2707500      0.51425000       341.41600       2.0703519     0.030214071
       258.00001       288.21193       98857.324       14314.601       2.0807500     -0.82600000      0.44975000       341.53300       2.1597156     0.026093855
       263.00002       288.18160       98864.301       14279.519       2.5972500      0.81325010     -0.34675000       341.05600       1.9787920     0.024309543
       267.99999       288.16812       98872.201       14277.211       2.3687500     -0.87050000      0.31075000       341.30800       1.7154655     0.026556368
       273.00001       288.13187       98880.163       14250.901       2.5447500      -1.0690000     0.048750000       341.18600       1.9125237     0.016274647
       278.00002       288.04695       98891.070       14210.892       3.6310000      -2.5000000     -0.35050000       340.87800       2.1500145     0.031420340
       282.99999       288.02961       98893.189       14190.867       3.0360000      0.47100000      0.18250000       341.53800       1.8994533     0.017088835
       288.00001       288.03117       98891.729       14157.757       3.4997500      -1.7647500      0.27750000       341.36300       1.9390994     0.022523810
       293.00002       288.05320       98890.529       14166.081       3.8902500     -0.30200000      0.50725000       341.39600       1.9491265     0.023979859
       299.00003       288.15742       98879.824       14232.784       3.9217500      -2.6187500      0.23475000       341.19100       1.9136722     0.016741967
       304.00000       288.16982       98877.633       14238.327       2.7317500     -0.39350000      0.54625000       341.50900       1.9568242     0.018471800
       309.00001       288.15707       98881.144       14249.730       3.5990000      -3.3120000      0.21750000       341.01500       1.9629407     0.023314584
       314.00003       288.14863       98879.245       14234.150       2.1395000     -0.57900010       1.0735000       341.62100       1.9652697     0.019199212
       319.00000       288.08773       98877.317       14160.781       2.0780000   -0.0080000000      0.65750000       341.45000       1.8138302     0.023410054
       324.00001       288.09493       98871.595       14147.806       2.2835000     -0.72075000    -0.068750000       341.24300       1.9449885     0.015116914
       329.00003       288.13713       98861.757       14157.596       1.9170000     -0.34375000      0.16050000       341.63600       1.9866788     0.021286528
       334.00000       288.17562       98854.824       14161.189       3.2712500      -1.6460000      0.45550000       341.74100       2.0211861     0.020339953
       339.00001       288.24881       98844.252       14184.792       5.4407500      -1.0960000      -1.6865000       341.23600       1.7735386     0.027744680
       344.00003       288.28028       98841.903       14193.711       3.9707500      -1.0437500      0.20525000       341.38100       1.8035316     0.024951324
       349.00000       288.28549       98844.671       14180.339       4.7297500      -3.0062500     -0.39675000       341.23600       2.0371781     0.019428002
       354.00001       288.33472       98845.607       14215.851       4.4052500      -1.6510000      -1.3480000       340.75400       2.0124244     0.014352561
       359.00002       288.38454       98848.792       14267.998       2.8620000      -1.8045000     -0.54975000       341.09900       1.8930533     0.028250441
       364.00000       288.44311       98853.658       14333.809       3.8550000      -1.0020000     -0.39250000       341.05200       1.9209001     0.022348468
       369.00001       288.56188       98858.735       14440.622       2.6255000      -2.1190000     0.078000000       341.39700       2.0586424     0.021399642
       374.00002       288.58543       98864.631       14518.688       4.1435000      -1.7600000     -0.31050000       341.21100       2.1729892     0.023762125
       379.00000       288.54778       98875.578       14586.457       3.4472500      -1.3400000      0.18800000       341.10700       1.9996922     0.026344266
       384.00001       288.55762       98879.825       14670.618       2.8107500      -2.6687500     -0.57425000       341.03200       2.0210612     0.039746476
       390.00002       288.54390       98881.086       14788.609       3.5507500      -1.6842500     -0.32225000       341.52100       2.0504917     0.017981317
       395.00003       288.55589       98881.994       14834.825       4.4562500      -1.8705000      -1.2650000       341.09100       1.9577801     0.021054296
       400.00000       288.61220       98880.399       14884.852       2.9547500     -0.74775000       1.3445000       341.36400       1.9466598     0.016385411
       405.00002       288.56941       98880.243       14815.073       3.8347500     -0.91600010      -1.3550000       340.94900       1.8899341     0.020853591
       410.00003       288.54916       98880.243       14770.378       4.7760000      -1.5552500    -0.031500000       341.05000       1.9968887     0.020359871
       415.00000       288.51496       98880.394       14713.651       4.4145000     -0.76225010      0.32050000       341.54200       1.9209545     0.018724314
       420.00002       288.49402       98880.465       14656.623       4.7052500      -2.0065000    -0.046000000       341.22600       1.9732237     0.023312151
       425.00003       288.48536       98880.564       14602.490       3.9375000      -2.8315000     -0.81475000       341.40000       1.8829355     0.019895981
       430.00000       288.49965       98880.892       14559.856       3.5460000      -1.0170000     -0.14975000       341.44000       1.9357233     0.016886038
       435.00001       288.49954       98878.759       14508.529       2.7890000      -1.9792500      0.27050000       341.48700       1.9755493     0.022356268
       440.00003       288.49427       98876.436       14435.480       6.7757500       1.5882500     -0.63750000       341.36700       1.9782092     0.014125728
       445.00000       288.53061       98862.716       14440.567       4.4927500      -1.6342500     0.029750000       341.52800       1.7734421     0.019710913
       450.00001       288.55088       98858.260       14452.296       5.4020000      -1.7885000     -0.48525000       341.04300       1.9534704     0.020737353
       455.00003       288.60036       98863.824       14524.730       4.7877500     -0.83375010      0.27500000       341.13400       1.8395680     0.020694704
       460.00000       288.61240       98860.991       14569.828       4.6727500      -1.2760000     -0.52675000       341.33400       1.9196243     0.019725575
       465.00001       288.56985       98858.421       14595.692       4.4305000      -3.0637500      0.14325000       341.31000       1.9110117     0.020141387
       470.00003       288.54994       98856.740       14627.876       4.3360000      -1.7455000     0.091000010       341.32200       1.9183233     0.020562462
       475.00000       288.53004       98852.601       14658.084       4.1292500      -1.4562500     -0.42600000       341.42800       2.1364202     0.023858520
       481.00001       288.48781       98837.350       14685.624       3.5567500     -0.81825010     0.024500000       340.85400       1.8851853     0.014533256
       486.00002       288.52035       98843.737       14755.821       4.2622500      0.10275000      0.39325000       341.34800       1.8782100     0.014307610
       490.99999       288.55206       98845.768       14761.559       4.5862500     -0.84175000     -0.25825000       341.44700       1.8884081     0.017064798
       496.00001       288.61113       98846.445       14704.107       4.3130000      0.11875000     0.097000000       340.89300       2.0971794     0.023877054
       501.00002       288.66161       98850.551       14683.206       4.6395000     -0.22825000     0.066750000       341.26600       1.8618462     0.020489033
       505.99999       288.69606       98857.333       14597.137       3.3000000     -0.35250000      0.39100000       341.59100       2.0184581     0.018617587
       511.00000       288.75686       98861.401       14594.011       4.5645000      -2.6952500     -0.26000000       341.18200       1.8350841     0.021461488
       516.00002       288.84812       98866.914       14702.877       2.7017500      -2.0185000     -0.15425000       341.49700       2.0009170     0.022956250
       521.00003       288.92167       98871.766       14763.304       2.5242500      -1.1050000      0.54050000       341.89900       1.8466779     0.021195038
       526.00000       288.93345       98873.660       14744.630       4.5282500      -2.5822500     0.086750000       341.40400       1.8974155     0.013200560
       531.00002       288.96405       98875.674       14753.092       3.6810000      -1.7522500    -0.042250000       341.15900       1.8398222     0.019520039
       536.00003       288.99431       98879.127       14761.238       4.3352500      -1.6850000     0.029000000       341.10600       1.9439666     0.013892396
       541.00000       289.02425       98880.937       14769.537       4.7032500      -1.9615000     -0.30800000       341.38000       2.0582287     0.019780216
       546.00002       289.05386       98880.271       14778.115       3.9032500     -0.86625000     -0.55125000       341.13900       1.9322144     0.019536355
       551.00003       289.08313       98880.232       14786.505       3.3855000      -1.1467500      0.20225000       341.79800       1.9610555     0.019866083
       556.00000       289.11208       98880.406       14794.768       2.3475000     -0.25950000      0.78800000       342.21500       2.1018692     0.026617939
       561.00001       289.14070       98880.482       14802.954       3.0775000      -1.1545000      0.35100000       342.28900       2.1904763     0.026970417
       566.00003       289.16899       98880.306       14811.086       2.8572500     -0.70625000      0.12150000       341.91900       2.0591908     0.025695597
       572.00000       289.20251       98880.282       14820.698       4.4252500      -1.9857500     -0.49700000       341.38400       1.8926111     0.013635051
       577.00001       289.23008       98880.132       14828.628       4.2587500      -2.2937500     -0.78350000       341.71200       1.9831998     0.019573239
       582.00002       289.25731       98880.051       14836.460       4.5512500      -2.1827500     -0.15100000       341.30600       1.9294860    0.0097413364
       586.99999       289.28422       98884.013       14843.589       3.2937500      -1.2685000      0.16775000       341.82300       2.0326893     0.031435858
       592.00001       289.31080       98879.892       14851.862       3.2607500      -2.2632500      0.18325000       342.20000       1.9922227     0.026725614
       597.00002       289.33705       98866.173       14861.514       2.5540000      -1.3122500      0.21300000       342.27800       1.9535983     0.026415419
       601.99999       289.36297       98862.890       14869.491       3.4917500      -1.7542500     -0.41750000       341.43800       1.8920133     0.014640217
       607.00001       289.38856       98859.263       14877.437       4.6080000      -1.1305000      0.14650000       341.79100       1.9450839     0.019039388
       612.00002       289.41382       98858.463       14884.869       4.0157500      -1.8157500      0.48000000       342.44100       1.8422102     0.014365807
       616.99999       289.43875       98871.688       14890.075       3.2570000      -2.8432500     0.076500010       341.98300       1.7976780     0.024760244
       622.00001       289.46336       98872.138       14897.151       1.9960000      -1.5120000     -0.91300000       342.55800       1.8337384     0.013465624
       627.00002       289.48763       98863.749       14905.499       3.3447500      -1.5120000    -0.078750010       342.06100       1.9222223     0.011910997
       631.99999       289.51158       98858.320       14913.316       4.6055000      -2.6982500      0.10625000       342.47500       2.0585524     0.020866197
       637.00000       289.53519       98842.407       14922.661       3.7517500      -2.5175000       1.1232500       342.16600       1.9535964     0.029221494
       642.00002       289.55848       98842.755       14929.438       4.9115000      -1.8405000     -0.23025000       342.33000       1.8764507     0.015895010
       647.00003       289.58144       98855.998       14934.161       3.2915000      -2.9712500     -0.72950010       341.31000       2.0303426     0.020507869
       652.00000       289.60407       98862.305       14939.870       3.1762500      -2.4107500      0.18475000       341.55700       1.9963556     0.025834096
       657.00002       289.62636       98883.626       14943.199       3.7512500      -3.4610000     -0.24475000       341.05400       1.8308586     0.022401680
       663.00002       289.65269       98883.504       14951.038       2.8795000      -2.3227500     -0.36300000       341.54500       1.8797551     0.013976631
       668.00000       289.67426       98862.438       14960.709       2.9677500      -1.0515000      0.64425000       341.86000       2.0602039     0.024161316
       673.00001       289.69551       98856.058       14968.054       3.8437500      -2.0217500     -0.64750000       341.11400       1.9087561     0.020306109
       678.00002       289.71642       98844.697       14976.093       3.2707500      -1.7050000      0.17700000       342.56300       2.0433258     0.030972744
       683.00000       289.73701       98841.130       14982.864       3.7522500      -1.6660000       1.5737500       342.54900       1.9389035     0.021357494
       688.00001       289.75727       98850.327       14987.600       3.9915000      -1.8872500     -0.20350000       341.49500       1.9180735     0.015061537
       693.00002       289.77720       98851.739       14993.464       2.7812500      -1.5147500    -0.017250000       341.46200       2.0397431     0.020189741
       698.00000       289.79680       98850.302       14999.697       4.8927500      -1.7282500      0.15200000       341.70800       2.0202817     0.024385040
       703.00001       289.81607       98850.274       15005.644       2.5600000      -1.5130000     -0.40700000       342.26400       2.1348472     0.039698101
       708.00002       289.83501       98850.246       15011.524       4.2937500     -0.98150000     -0.25425000       341.48200       1.9955673     0.026261575
       713.00000       289.85362       98850.274       15017.328       3.2795000      -1.5270000      0.40250000       341.81000       1.9627157     0.029215032
       718.00001       289.87190       98848.152       15023.397       3.9622500     0.060000000      0.22850000       342.01900       2.1022343     0.026532674
       723.00002       289.88986       98851.399       15028.572       3.8905000      -1.7590000     -0.22300000       342.14100       1.9856016     0.020326698
       727.99999       289.90748       98860.828       15032.728       4.5967500      -1.7632500      0.35050000       341.50400       2.0379900     0.026319922
       733.00001       289.92477       98861.500       15038.170       4.0065000      -1.3482500     -0.56600000       341.61100       2.1054915     0.022763513
       738.00002       289.94174       98861.836       15043.600       3.2500000      -1.1152500      0.20275000       341.30200       2.0319192     0.015692375
       742.99999       289.95838       98860.651       15049.202       3.4075000     -0.32200000     -0.64525000       341.53400       2.0743724     0.017468446
       749.00000       289.97791       98846.753       15057.770       2.2657500    -0.019750000      0.26000000       342.54300       2.1579115     0.019633645
       754.00001       289.99382       98850.177       15062.523       2.7382500    0.0070000000    0.0090000010       342.51200       2.1435240     0.039845690
       759.00003       290.00940       98864.924       15065.462       3.5107500     -0.39550000     0.072250000       341.94900       2.1760952     0.023171928
       764.00000       290.02465       98869.056       15069.982       3.6562500     -0.26025000    -0.025000000       342.44600       2.2832078     0.032267876
       769.00001       290.03958       98875.730       15074.048       2.6495000     -0.63275000     0.016500000       342.27900       2.3101130     0.052718074
       774.00003       290.05417       98879.023       15078.577       1.7912500    -0.063250010      0.21950000       343.36400       2.2112889     0.024305002
       779.00000       290.06844       98874.499       15084.257       3.8557500     -0.12400000    -0.026500000       342.05100       2.1649827     0.025704868
       784.00001       290.08238       98875.349       15089.046       2.4980000      -1.4417500     0.076000010       341.97800       2.0600172     0.026150455
       789.00003       290.09598       98880.600       15093.095       4.8077500      -1.0247500     -0.14225000       341.98700       2.0716398     0.021538439
       794.00000       290.10926       98881.692       15097.730       4.6535000     -0.33275000    -0.029000000       341.57100       2.0234236     0.012619826
       799.00001       290.12221       98880.360       15102.684       6.0660000      0.61075000     -0.24075000       341.71000       2.1122069     0.020956693
       804.00002       290.13483       98880.407       15107.367       4.5237500      0.51025000    -0.031000000       341.32100       2.1160985     0.021585617
       809.00000       290.14712       98880.243       15112.026       3.6642500      0.51900010      0.26075000       341.92400       1.8990046     0.018981492
       814.00001       290.15908       98880.243       15116.604       3.5957500      0.72900000     -0.15600000       341.59000       2.0092912     0.012852211
       819.00002       290.17072       98880.306       15121.117       2.6112500     -0.84825000     -0.61575000       342.60100       1.9190579     0.016729448
       824.00000       290.18202       98880.306       15125.584       3.0930000      0.27450000     0.034500000       342.68800       1.8678395     0.020156623
       829.00001       290.19299       98880.108       15130.027       3.7740000       1.3860000     -0.52375000       342.10600       2.0602427     0.012399465
       834.00002       290.20364       98880.048       15134.394       3.3315000     -0.11350000      0.20750000       342.03700       2.0419849     0.015793805
       840.00003       290.21598       98880.306       15139.512       2.8237500      0.21200000      0.55300000       342.68600       1.9567876     0.015255909
       845.00000       290.22590       98880.306       15143.751       3.2522500     0.088750000      0.22400000       342.83200       1.9773016     0.012291347
       850.00002       290.23549       98880.368       15147.927       3.7487500     -0.10675000     -0.52650000       342.08200       1.8312675     0.020140560
       855.00003       290.24475       98880.305       15152.070       3.0282500      -1.3540000     -0.21800000       342.27200       2.0230349     0.016969152
       860.00000       290.25368       98880.295       15156.151       3.5670000      -1.1447500     -0.38300000       342.50600       1.9941046     0.028839210
       865.00002       290.26229       98877.254       15160.652       2.2277500      -1.1040000      0.17525000       342.41900       1.8656539     0.014504969
       870.00003       290.27056       98878.978       15164.359       3.3670000      0.74825000     -0.28125000       341.04900       2.0227909     0.015975133
       875.00000       290.27851       98883.147       15167.632       1.6077500     0.099750000      0.82300000       343.37500       2.0942938     0.024050769
       880.00001       290.28612       98891.433       15170.213       3.6945000     -0.39275000     -0.37125000       341.42600       1.8791989     0.019757274
       885.00003       290.29341       98891.175       15174.072       4.2442500      -1.1730000      0.56225000       342.46700       2.0680324     0.027876751
       890.00000       290.30037       98890.147       15177.999       3.8932500    -0.080500010     -0.50425000       341.83400       2.2859546     0.035837026
       895.00001       290.30699       98892.258       15181.386       4.0807500      0.22450000    -0.096000000       341.54000       2.0067016     0.021715912
       900.00003       290.31329       98890.267       15185.361       3.9790000     -0.20450000    -0.094750000       341.82500       2.1509639     0.022531847
       905.00000       290.31926       98891.267       15188.820       3.9562500      0.10050000     0.093000000       341.69600       2.1786854     0.034114413
       910.00001       290.32490       98891.443       15192.355       4.3802500      -1.0745000    -0.032750000       341.68400       2.0381630     0.027005901
       915.00003       290.33021       98883.153       15197.161       2.8297500     -0.17875000    -0.022250000       342.37800       2.1527613     0.030745750
       920.00000       290.33520       98878.884       15201.289       2.8495000      -1.4117500     -0.30550000       342.33600       1.9967838     0.015739092
       925.00001       290.33985       98877.087       15204.981       1.6595000     -0.48375000    -0.094750000       342.53600       2.0936411     0.034698283
       931.00002       290.34500       98880.306       15208.505       3.7402500     -0.62200000     -0.29575000       341.57000       2.1010203     0.023416782
       935.99999       290.34893       98877.727       15212.208       3.3557500     -0.80775000      0.25800000       341.92000       2.0747802     0.019481564
       941.00001       290.35253       98880.128       15215.083       3.8167500      -1.3967500     -0.25225000       341.64300       2.2257329     0.042167249
       946.00002       290.35580       98887.073       15217.197       3.7415000     0.045000000     -0.47425000       342.10800       2.2576221     0.047539986
       950.99999       290.35874       98891.071       15219.720       3.0425000     -0.15825000     0.026500000       341.98700       2.0431035     0.022952319
       956.00000       290.36135       98901.224       15221.232       3.4235000      -1.6380000     -0.16525000       341.72800       2.1456235     0.037919509
       961.00002       290.36363       98902.667       15224.053       1.7055000     -0.44250000      0.23650000       342.09200       2.0265888     0.029945271
       966.00003       290.36558       98893.732       15228.446       2.4495000      -2.1720000      0.61100000       342.09400       2.0656210     0.033625614
       971.00000       290.36721       98889.804       15232.006       3.1932500     -0.94975010     -0.53750000       342.03500       1.9919626     0.025824508
       976.00002       290.36850       98882.448       15236.052       2.7012500     -0.74700000    -0.054250000       342.20900       2.1358097     0.032762895
       981.00003       290.36947       98878.728       15239.479       2.0747500      -1.8460000    -0.067000000       342.39600       1.8834989     0.025441727
       986.00000       290.37010       98880.243       15242.036       2.9500000      -1.7432500     0.029750000       342.03100       2.1185401     0.036830011
       991.00002       290.37041       98880.243       15244.778       2.8800000      -1.2560000      0.44575000       342.07500       2.1873883     0.026330738
       996.00003       290.37039       98880.407       15247.444       4.3777500      -2.1070000      0.10325000       341.78700       2.0481578     0.018711771
       1001.0000       290.37004       98880.484       15250.072       2.3582500      -3.0402500     0.085500000       341.88100       2.0404080     0.015676642
       1006.0000       290.36936       98880.306       15252.688       2.8072500      -3.0372500      0.55125000       341.91500       2.1255471     0.017722750
       1011.0000       290.36835       98880.306       15255.224       4.8562500      -1.5042500     0.044750000       341.90600       2.2054428     0.029859808
       1016.0000       290.36701       98880.405       15257.693       3.9312500     -0.79625000      0.16525000       341.58100       2.0097288     0.015280279
       1022.0000       290.36497       98880.476       15260.594       5.1755000      -2.4967500      0.12800000       341.49400       2.0107328     0.012334258
       1027.0000       290.36290       98877.754       15263.389       5.0397500      -1.5087500      0.24000000       341.50100       2.2052498     0.018822018
       1032.0000       290.36051       98880.542       15265.268       3.7002500      -1.2227500      0.13050000       341.74900       2.0413949     0.014832061
       1037.0000       290.35779       98890.563       15265.960       4.7537500      -3.3165000    -0.017500000       341.20800       1.9411710     0.015838853
       1042.0000       290.35474       98891.883       15267.963       3.3642500     -0.81075010      0.24625000       341.90300       1.9278267     0.016697620
       1047.0000       290.35136       98891.629       15270.158       2.9872500     -0.13700000      0.35675000       341.68100       2.1070928     0.012663117
       1052.0000       290.34765       98890.841       15272.383       2.2517500      -2.1695000      0.63400000       341.76000       2.8810615     0.028957728
       1057.0000       290.34361       98881.481       15275.897       5.3557500     -0.91850010     -0.90225010       341.24900       3.5953151     0.024708279
       1062.0000       290.33924       98878.363       15278.379       2.3985000      -1.2127500      0.68450000       341.98100       3.6611790     0.019678881
       1067.0000       290.33455       98880.377       15280.000       4.4595000      -1.2200000      0.42850000       341.88000       3.5448477     0.014984552
       1072.0000       290.32952       98880.418       15281.875       2.2085000      -1.2880000      0.29575000       341.99600       4.0622345     0.014151541
       1077.0000       290.32417       98880.243       15283.727       4.6672500      -3.3460000      0.95750000       341.73200       3.7518963     0.015788637
       1082.0000       290.31848       98880.243       15285.496       3.5577500      -2.3285000     -0.48650000       341.64200       3.3650344     0.021064520
       1087.0000       290.31247       98880.420       15287.181       4.7197500      -2.3702500    -0.086000000       341.33900       5.0777634     0.017690930
       1092.0000       290.30612       98880.502       15288.822       3.6132500     -0.41325000     0.056500000       341.94600       4.8130768     0.021817477
       1097.0000       290.29945       98880.306       15290.450       4.3655000      -3.5580000     -0.74325000       341.48800       4.3462313     0.024314842
       1102.0000       290.29245       98880.306       15291.988       3.6935000      -2.7715000     -0.34975000       341.84600       3.2985355     0.033991651
       1107.0000       290.28512       98880.417       15293.451       3.6915000      -1.7892500     0.092000010       341.73400       3.4548688     0.015292460
       1113.0000       290.27589       98880.488       15295.137       3.6352500      -1.3405000      0.35275000       342.22700       3.7316081     0.034711670
       1118.0000       290.26783       98880.384       15296.501       4.6047500      -1.7595000     0.062750000       341.27200       4.5962342     0.016361403
       1123.0000       290.25945       98880.427       15297.782       4.3245000      -1.0305000      0.35250000       342.15900       3.5758700     0.024538923
       1128.0000       290.25074       98881.360       15298.863       3.4010000      -2.0350000     0.022000000       342.06300       5.2552652     0.017115886
       1133.0000       290.24169       98879.761       15300.279       3.5287500      -1.2620000      0.63650000       342.21100       4.7609118     0.018248629
       1138.0000       290.23232       98876.143       15301.950       2.3095000     -0.39325000      0.53900000       342.40100       2.9046541     0.019405014
       1143.0000       290.22262       98874.187       15303.297       2.6330000      -2.1252500     -0.28100000       342.26200       2.6401175     0.025479118
       1148.0000       290.21259       98873.952       15304.311       3.4207500     -0.86925010      0.14300000       342.30400       4.1291786     0.019630674
       1153.0000       290.20223       98867.681       15306.208       4.2817500      -3.3205000      0.11825000       341.57000       7.3235003     0.023154100
       1158.0000       290.19154       98856.404       15308.829       2.5595000      -3.2190000      0.60150000       341.88100       2.8127193     0.026310010
       1163.0000       290.18052       98851.946       15310.312       4.7342500      -3.2127500     -0.31400000       341.63400       2.7945288     0.017241434
       1168.0000       290.16918       98844.524       15312.195       1.8817500      -2.7217500    -0.085000000       341.83900       2.3506237     0.028380075
       1173.0000       290.15750       98842.340       15313.187       2.8717500      -3.4322500     -0.28850000       341.83900       2.0029360     0.015254124
       1178.0000       290.14549       98850.343       15312.510       2.1785000      -2.6740000     -0.43500000       341.84900       2.6660383     0.018155301
       1183.0000       290.13316       98851.746       15312.802       5.4207500      -1.8397500      0.34975000       341.69600       2.8587285     0.018934825
       1188.0000       290.12050       98851.360       15313.307       3.3330000      -2.0072500     0.063000000       341.80100       2.4681979     0.021607789
       1193.0000       290.10750       98849.745       15313.935       3.4240000      -2.3087500      0.20050000       341.92400       4.8198880     0.031354563
       1198.0000       290.09418       98846.174       15314.800       3.1970000      -1.6162500      0.37300000       341.72900       3.2489414     0.025882363
       1204.0000       290.07776       98843.773       15315.448       2.8965000     -0.86050000      0.39875000       342.18400       2.6268708     0.029205755
       1209.0000       290.06371       98840.266       15316.145       4.6622500     -0.11950000      0.39850000       342.22300       2.8986769     0.025246473
       1214.0000       290.04934       98839.216       15316.383       4.3395000      0.21275000     -0.61600010       342.01400       4.9729351     0.017712771
       1219.0000       290.03463       98839.251       15316.376       4.1470000     -0.62925000    -0.040750000       341.69200       5.3279248     0.028401371
       1224.0000       290.01960       98841.072       15316.013       5.5077500     -0.32125000     -0.38550000       341.14500       2.3682327     0.028983036
       1229.0000       290.00423       98844.964       15315.249       4.3825000     -0.89475010     -0.15725000       341.40400       4.2641134     0.029551100
       1234.0000       289.98854       98846.979       15314.704       3.2032500      0.30700000      0.83475010       341.99000       3.3251623     0.025531123
       1239.0000       289.97252       98847.725       15314.280       3.9342500       1.1087500      0.12925000       341.66700       3.1590633     0.019931602
       1244.0000       289.95617       98854.523       15312.827       4.5907500      -1.3820000     0.018500000       341.71200       2.3048729     0.032152402
       1249.0000       289.93949       98863.930       15310.885       4.5165000     -0.96200010      0.44550000       342.37100       2.1741945     0.016286106
       1254.0000       289.92248       98869.869       15309.408       3.7315000    -0.054750000      0.18275000       342.09400       8.4028504     0.033485282
       1259.0000       289.90514       98879.372       15307.291       3.5027500     -0.12475000      0.95125000       342.63100       4.4085555     0.066849192
       1264.0000       289.88747       98886.457       15305.472       5.6042500     -0.85475000      0.86925010       341.86600       2.4142651     0.014597838
       1269.0000       289.98959       98891.359       15400.792       4.5620000      0.64050000     0.094250000       342.52900       4.0141038     0.018096533
       1274.0000       289.98802       98891.596       15398.836       6.0600000      -2.1622500      0.13750000       341.85800       4.1657333     0.017285678
       1279.0000       290.15697       98889.917       15609.985       5.4195000     -0.45075000      0.17425000       342.34100       4.7545269     0.015719429
       1284.0000       290.14833       98891.932       15584.875       3.8607500     -0.87975000      0.42700000       342.12800       6.2701153     0.020690371
       1289.0000       290.09698       98890.726       15484.588       3.1090000      0.54000000    -0.038000000       342.78000       6.8530185     0.018811858
       1295.0000       290.08497       98888.409       15407.351       4.2410000      -1.1627500      0.59525000       342.24000       3.5837372     0.014201661
       1300.0000       290.11194       98890.213       15375.154       3.9910000     -0.95975010      0.12400000       342.54900       3.9902423     0.017308979
       1305.0000       290.03897       98892.278       15233.373       4.7520000      -1.2705000     -0.19000000       341.74800       3.9135456     0.018701192
       1310.0000       289.99846       98890.253       15126.991       5.3470000     -0.12550000      0.13275000       342.01700       5.5963562     0.018533107
       1315.0000       289.94475       98891.435       15022.898       4.3390000     -0.48475000     -0.97775010       341.72300       4.2242579     0.019715444
       1320.0000       289.89406       98891.714       14920.881       3.3162500     -0.24825000     -0.20075000       342.39300       3.9618294     0.016613874
       1325.0000       289.85566       98889.521       14829.050       2.9550000     -0.39375000      0.71025000       343.33400       4.0842946     0.028691239
       1330.0000       289.85036       98878.972       14752.861       2.9740000     -0.68450000     -0.21950000       342.30700       6.7689358     0.026147864
       1335.0000       289.82972       98877.205       14701.680       1.3990000      0.99500010      0.58400010       343.07400       3.4303646     0.038215643
       1340.0000       289.78886       98880.853       14648.076       4.0490000       1.0837500     -0.25450000       342.52800       3.5508984     0.016705378
       1345.0000       289.83100       98880.253       14674.997       5.9422500      0.61525010      0.54925000       342.32000       2.2356593     0.029762153
       1350.0000       289.85135       98876.526       14697.661       6.5387500      0.43775000     -0.39075000       341.41800       2.0521929     0.013516151
       1355.0000       289.87044       98865.542       14706.874       5.8277500      0.38725000     -0.54600000       341.65800       2.7256482     0.026492589
       1360.0000       289.90016       98859.415       14766.918       5.2037500      0.57400000     -0.57425000       341.62900       2.3128162     0.015335010
       1365.0000       289.92980       98853.451       14883.272       4.7347500     -0.67600010      0.31025000       341.75400       2.8026952     0.016794864
       1370.0000       289.94948       98849.325       14975.206       4.4202500      0.35425000      0.25925000       342.08300       5.4696784     0.018348741
       1375.0000       289.96916       98847.657       15074.354       4.9622500     -0.58500000     -0.28300000       341.48400       2.8392936     0.015743736
       1380.0000       290.01925       98850.294       15243.542       3.6777500       1.3302500     -0.31775000       341.97500       2.3016612     0.016450273
       1386.0000       289.93225       98851.646       15196.548       4.2110000      0.68550000      0.77300010       342.36700       2.6475188     0.012959533
       1391.0000       289.89221       98850.505       15156.174       3.5560000      0.27350000     -0.33175000       342.02100       2.1984228     0.018684120
       1396.0000       289.83333       98846.715       15022.443       5.4607500     -0.23225000     -0.67750000       341.45500       2.7098069     0.021722608
       1401.0000       289.78413       98844.673       14929.447       3.5065000      0.81100000      0.43125000       341.80300       2.1960674     0.027055687
       1406.0000       289.76571       98839.713       14858.056       2.7102500      0.32350000      0.44250000       342.00800       2.0643668     0.014495412
       1411.0000       289.74565       98838.904       14792.852       5.0122500      0.23225000     0.066000000       342.07500       1.9236308     0.026811156
       1416.0000       289.70983       98840.715       14717.914       3.7390000      0.27975000      0.56975000       341.73000       2.0821467     0.021817353
       1421.0000       289.69131       98845.009       14675.300       4.5620000      0.51425000       1.0002500       341.83700       1.9986702     0.012998540
       1426.0000       289.71423       98854.862       14673.909       2.4827500      0.29775000      0.26150000       342.13000       1.9478221     0.025750292
       1431.0000       289.70304       98861.973       14655.882       3.7077500     -0.10850000     -0.21825000       341.76000       1.9815123     0.016537753
       1436.0000       289.66564       98871.911       14650.376       3.7577500      -1.3802500      0.18375000       341.93000       2.0939910     0.013400710
       1441.0000       289.64554       98877.735       14639.919       3.9467500       1.2667500     -0.24150000       342.23300       2.1224813     0.017125869
       1446.0000       289.60951       98879.238       14577.267       3.7250000     0.042250000      0.22300000       341.74800       2.1899317     0.012942367
       1451.0000       289.59112       98881.054       14589.380       6.4732500   -0.0015000000      0.57750000       341.58100       2.2334925     0.029668234
       1456.0000       289.62828       98880.271       14689.183       4.9167500       1.8360000      0.79275010       341.71400       3.9211908     0.036207245
       1461.0000       289.60593       98880.233       14719.403       5.5722500   -0.0010000000     -0.67425000       341.23700       2.1174512     0.014160384
       1466.0000       289.57804       98880.306       14799.301       5.4065000      0.31200000     -0.13350000       341.53200       1.9901588     0.012094388
       1472.0000       289.48459       98880.282       14786.104       3.8157500      0.13300000      0.42175000       342.00200       2.0826790     0.015542819
       1477.0000       289.29753       98880.346       14652.185       2.8240000     -0.98225000      0.63475000       342.15800       2.1274427     0.023172125
       1482.0000       289.20453       98880.386       14567.067       2.9030000      0.32150000      0.27125000       341.88900       2.0682446     0.025114460
       1487.0000       289.12767       98881.562       14472.492       4.5895000       2.5707500       1.3160000       341.76300       2.3382545     0.030856666
       1492.0000       289.06462       98880.188       14369.681       2.6240000      0.41400000      0.42000000       341.83600       3.2343598     0.020970794
       1497.0000       289.06161       98876.430       14250.084       4.1172500       1.2632500     -0.90450010       341.46700       3.3168320     0.025849713
       1502.0000       289.04170       98874.434       14166.537       3.7907500     -0.79650000       1.0170000       341.79900       2.1185751     0.012384192
       1507.0000       288.99162       98873.284       14054.362       4.2270000     -0.14200000      0.34600000       341.65200       2.2518615     0.028090252
       1512.0000       288.98960       98868.815       14014.814       4.6242500    -0.062250000      0.36925000       341.81100       2.7553732     0.025173150
       1517.0000       289.03838       98862.707       14053.241       3.5037500      0.16025000     -0.53025000       341.58900       2.0873783     0.016323649
       1522.0000       289.05868       98858.718       14068.364       3.7542500     -0.73200010     0.037500000       341.74800       2.0990929     0.013759121
       1527.0000       289.09518       98851.248       14111.044       3.1152500     -0.28500000    -0.060500000       341.96800       2.0972862     0.016736662
       1532.0000       289.11150       98847.952       14146.961       3.6667500     -0.45225000     -0.59125000       341.74600       2.2926021     0.043445577
       1537.0000       289.10016       98850.418       14165.742       4.1032500      -1.5297500      0.22075000       341.85500       4.3852456     0.014943886
       1542.0000       289.10016       98850.478       14211.232       3.1535000      -1.3375000      0.16875000       341.61800       5.8318034     0.024899518
       1547.0000       289.11341       98847.577       14305.456       3.7827500      -2.1360000     -0.50325000       341.44400       5.5737197     0.019332142
       1552.0000       289.10002       98850.283       14342.992       3.6122500      -2.2647500      0.22900000       341.85000       7.6290022     0.046487102
       1557.0000       289.04925       98856.378       14356.693       2.8115000    -0.036250000      0.58725010       342.01700       7.0173787     0.031549127
       1563.0000       289.04320       98863.031       14382.657       3.3727500     -0.97900000      0.38200000       341.95900       4.0584647     0.015762294
       1568.0000       289.04330       98872.053       14373.321       1.6057500     -0.52275000      0.65775000       341.97800       2.5185240     0.018615679
       1573.0000       289.04953       98880.155       14373.262       3.5715000     -0.35425000    -0.062250000       341.24200       6.7520115     0.033309174
       1578.0000       289.09929       98888.539       14392.541       3.5130000     -0.77625010      0.65875010       341.63000       4.3103189     0.029561900
       1583.0000       289.11319       98893.868       14394.513       5.6220000      -1.3900000     -0.55825000       341.60200       4.2965695     0.017796565
       1588.0000       289.08874       98900.242       14353.181       3.2325000      -1.1300000    -0.018000000       341.69400       5.2793442     0.024819984
       1593.0000       289.10480       98902.992       14371.691       5.4155000     -0.66300000      0.18525000       341.53400       6.3346571     0.018321550
       1598.0000       289.14168       98902.607       14429.505       5.0742500     -0.68700000     -0.10125000       341.23800       8.2833953     0.027999243
       1603.0000       289.16192       98899.312       14463.500       4.8830000      -1.0180000      0.37275000       341.45700       4.5154853     0.014381148
       1608.0000       289.22078       98893.029       14539.871       4.2070000      -1.2197500    -0.018500000       341.45700       5.3459869     0.017743280
       1613.0000       289.20173       98887.386       14546.942       4.2985000      -1.0945000     -0.36000000       341.47500       6.2930307     0.016495395
       1618.0000       289.10316       98878.183       14481.569       4.4432500      -2.0342500     -0.68900000       341.47600       2.7715520     0.027558695
       1623.0000       289.07931       98870.146       14481.146       3.6000000      -1.2767500      0.46975000       341.51200       6.9242307     0.019858329
       1628.0000       289.05471       98861.880       14491.301       4.6632500      -1.6892500     -0.18975000       341.46500       4.8421264     0.014277367
       1633.0000       289.03134       98856.567       14484.053       3.6602500     0.073000010     -0.32400000       341.62600       4.9881025     0.018172150
       1638.0000       289.05701       98851.532       14499.704       3.7207500     -0.97450010      0.62550000       341.60100       5.3789806     0.020193634
       1643.0000       289.05089       98847.162       14506.211       3.9235000     -0.68000000    -0.082750010       341.63900       6.5397212     0.015750275
       1648.0000       289.00070       98844.982       14475.235       3.4535000     -0.57225000    -0.037500000       341.45600       5.3806701     0.033467124
       1654.0000       288.98576       98844.680       14478.820       2.0395000     -0.44475000      0.11425000       341.62000       2.7390061     0.027259350
       1659.0000       289.00928       98842.751       14527.420       3.0157500      -1.1725000     -0.25450000       341.45200       3.3200825     0.035839574
       1664.0000       288.99072       98847.351       14522.959       2.2482500      -1.0400000      0.15725000       341.62700       5.1189401     0.022730979
       1669.0000       288.96248       98858.963       14505.649       3.3322500      -1.6405000     -0.20675000       341.65500       5.8689700     0.025728175
       1674.0000       288.92400       98865.917       14463.874       3.5637500      -2.4340000     -0.18750000       341.56700       7.6041029     0.033454783
       1679.0000       288.85105       98873.818       14386.407       4.0792500      -1.4872500     -0.21625000       341.40100       5.0097971     0.027709654
       1684.0000       288.82010       98881.805       14330.171       2.1840000      -1.1622500      0.78950010       341.72800       5.4196675     0.029031599
       1689.0000       288.81631       98891.663       14275.862       4.3642500     -0.58075000     -0.15250000       341.52300       5.4579769     0.026483302
       1694.0000       288.76736       98893.038       14191.521       3.1715000      -1.2407500     -0.24125000       341.60800       3.7640367     0.027315111
       1699.0000       288.70815       98891.815       14093.418       5.0295000     0.033000000     -0.19375000       341.18400       7.7439749     0.023762813
       1704.0000       288.66817       98890.149       14011.140       5.5317500      0.37100000     -0.32400000       341.34300       4.5565280     0.013612436
       1709.0000       288.59316       98880.363       13894.786       5.3450000      -1.3155000     -0.58750000       341.48100       4.7172728     0.026566939
       1714.0000       288.57055       98876.182       13834.644       5.4267500     -0.18175000     -0.53775000       341.38900       4.0322193     0.016889418
       1719.0000       288.60030       98877.497       13810.759       5.9142500     -0.87350000     0.073500000       341.31700       6.1692617     0.026581888
       1724.0000       288.60042       98871.795       13792.089       4.8515000     -0.66600000     -0.22350000       341.42000       5.7608812     0.027437620
       1729.0000       288.59976       98861.813       13793.245       3.9262500      0.66375010     -0.43300000       341.43300       4.2375587     0.030020161
       1734.0000       288.59958       98854.879       13794.883       3.5887500     0.025000000     -0.10550000       341.31100       8.3374096     0.031190841
       1739.0000       288.60037       98844.286       13811.272       3.6252500      0.49500000     -0.13950000       341.55300       4.8403199     0.023526504
       1745.0000       288.60060       98841.881       13836.138       3.0835000     -0.45450000     -0.27650000       341.44700       4.8457551     0.027359297
       1750.0000       288.60634       98842.810       13866.382       3.0885000      0.15950000      0.35450000       341.53700       2.8994961     0.021105114
       1755.0000       288.55486       98854.937       13863.908       4.0525000      -2.3995000     -0.34675000       341.35800       2.6250584     0.020951973
       1760.0000       288.54315       98864.891       13885.476       3.5995000     -0.10100000     -0.47275000       341.50500       3.2653479     0.017084528
       1765.0000       288.53004       98885.020       13896.090       3.3865000     -0.32250000     -0.21825000       341.34600       2.8337661     0.028733260
       1770.0000       288.53757       98893.609       13928.940       2.1150000     -0.53350000     -0.27350000       341.56000       2.4599471     0.027628610
       1775.0000       288.56968       98896.047       13982.817       3.7020000      -1.2872500     0.098250000       341.46300       2.3449777     0.025719862
       1780.0000       288.66218       98891.810       14090.357       2.8037500     -0.84425000    -0.016500000       341.57100       2.1198001     0.027563590
       1785.0000       288.66939       98889.548       14107.610       5.2865000      -2.8142500    -0.087750000       341.11700       5.0944092     0.026450376
       1790.0000       288.65669       98879.083       14103.571       4.2240000      -2.0790000      0.77000000       341.30900       4.7143022     0.035659531
       1795.0000       288.61424       98881.811       14076.002       3.9060000      -2.7712500    -0.021000000       341.20400       3.6617644     0.028931532
       1800.0000       288.59239       98881.002       14054.854       5.3635000      -2.7717500     -0.22650000       341.13700       3.5427748     0.030352251
       1805.0000       288.61511       98880.288       14072.338       3.1017500      -2.6450000      0.76600000       341.31100       2.3963228     0.024857309
       1810.0000       288.60633       98876.553       14060.000       3.6885000     -0.86175010      0.67725000       341.43300       3.5010547     0.021394337
       1815.0000       288.56985       98865.769       13997.534       4.1257500     -0.49550000      -1.2672500       341.17000       3.8191196     0.015495894
       1820.0000       288.54994       98859.694       13966.709       4.0607500      -2.5710000      0.69525000       341.35400       6.0825021     0.025864891
       1825.0000       288.53004       98854.855       13944.704       4.4185000      0.64150010     -0.13450000       341.30200       6.8459977     0.024175252
       1830.0000       288.49455       98847.885       13918.886       3.4042500      -1.0770000     0.038000000       341.41900       4.0692024     0.035760527
       1836.0000       288.51450       98859.881       13958.473       3.4662500     -0.58200000     0.088750000       341.32900       4.1505515     0.025098828
       1841.0000       288.50341       98861.661       13958.864       3.5857500     -0.53525000      0.79775010       341.54000       5.9695646     0.047269400
       1846.0000       288.43743       98857.131       13908.665       3.4560000     -0.77875010     -0.30625000       341.43400       3.6827457     0.023714012
       1851.0000       288.43939       98860.164       13918.888       2.3277500     -0.88150010    -0.099000010       341.39900       4.6381528     0.046145285
       1856.0000       288.47803       98862.469       13946.667       3.1080000      -2.3512500     -0.48650000       341.35000       6.3285134     0.031216185
       1861.0000       288.49927       98864.721       13977.378       3.4607500      -1.9380000    0.0075000000       341.38800       3.6287945     0.019736340
       1866.0000       288.59586       98881.739       14093.554       3.3287500      -2.3157500     -0.41250000       341.43800       2.9056565     0.012273954
       1871.0000       288.62180       98883.856       14137.178       7.4515000      -1.2652500      0.27875000       341.14900       3.9633716     0.023065238
       1876.0000       288.56553       98870.059       14124.421       6.7802510      -2.1302500   -0.0017500000       341.16000       9.1633049     0.041658208
       1881.0000       288.54527       98864.036       14119.883       4.6687500     -0.99800000      0.63250010       341.34300       7.1151228     0.018253759
       1886.0000       288.50952       98853.008       14075.379       4.6565000      -1.9360000     -0.30825000       341.21000       5.9205764     0.031425391
       1891.0000       288.49066       98847.291       14055.042       5.9415000      -2.3055000      0.15950000       341.20600       5.6135984     0.021606531
       1896.0000       288.49967       98847.641       14045.994       5.3615000      -1.7052500     -0.33175000       341.20900       4.2590141     0.021943642
       1901.0000       288.49940       98849.971       14040.765       4.3497500      -2.7877500     -0.96400000       341.29400       4.8586549     0.028286877
       1906.0000       288.50026       98855.718       14045.557       6.3500000      -1.1757500    -0.090750000       341.33900       4.8954175     0.032797342
       1911.0000       288.50037       98860.853       14052.566       4.4125000     -0.67400000     -0.35000000       341.20700       3.8335766     0.028585078
       1916.0000       288.51487       98868.585       14068.420       3.8635000      -1.4572500    -0.092250000       341.28100       3.0243332     0.021614123
       1921.0000       288.50368       98876.521       14079.998       3.1360000      -1.1150000     -0.12825000       341.29300       6.6016516     0.027933511
       1927.0000       288.46197       98887.190       14107.674       5.0290000      -2.7272500     -0.13150000       341.24500       5.3475284     0.028212270
       1932.0000       288.44195       98892.811       14106.150       4.8817500      -2.8317500    -0.056250000       341.17900       3.4018582     0.024378364
       1937.0000       288.41761       98901.911       14108.006       3.7895000      -1.0367500      0.10550000       341.28800       3.7255745     0.025573110
       1942.0000       288.38748       98902.519       14066.490       3.0295000     -0.57725000     -0.13500000       341.29100       4.3041125     0.030248643
       1947.0000       288.34902       98893.896       13946.790       3.2435000     -0.83825000      0.31075000       341.40200       5.5327002     0.025890656
       1952.0000       288.34279       98888.504       13905.399       4.8105000     -0.79675000      0.19250000       341.26200       5.1624174     0.028346829
       1957.0000       288.34267       98880.274       13865.364       4.0617500      0.18525000     -0.34275000       341.26900       6.6599245     0.067555964
       1962.0000       288.34679       98872.266       13852.523       6.2852500      0.52900000     0.053000000       341.06400       5.0071377     0.030770148
       1967.0000       288.39465       98860.626       13911.476       5.2190000      0.36500000      0.28150000       341.20100       7.2631037     0.015749893
       1972.0000       288.41097       98857.743       13937.841       2.3487500       1.2305000      0.84325000       341.39500       4.3251036     0.041404918
       1977.0000       288.41266       98855.107       13952.891       4.8450000      -1.6332500     -0.51750000       341.28400       3.0375333     0.022286020
       1982.0000       288.39897       98859.969       13968.360       4.5485000     -0.90875010     -0.48575000       341.22100       2.9176513     0.021656062
       1987.0000       288.36190       98880.844       14003.495       3.4952500     -0.46075000      0.31600000       341.35100       6.1786672     0.035017184
       1992.0000       288.34211       98889.992       13999.312       4.3775000      -2.3005000     -0.85125010       341.31900       4.2722118     0.027824707
       1997.0000       288.29212       98898.893       13962.449       3.7702500      -1.5547500     0.019750000       341.29100       8.0842720     0.026074989
       2002.0000       288.28954       98903.806       13938.539       5.4152500     -0.21025000      0.16050000       341.13600       4.4305743     0.012283639
       2007.0000       288.31015       98903.046       13864.480       4.2447500     -0.38075000     -0.37400000       341.23700       4.1336544     0.013973153
       2013.0000       288.37057       98899.439       13863.545       3.8735000      -1.3742500    -0.095250000       341.26300       4.0966011     0.024279486
       2018.0000       288.48252       98896.349       13908.308       3.3675000     -0.81775000      0.56600000       341.25100       5.7333875     0.039149462
       2023.0000       288.53648       98885.818       13948.593       3.2375000     -0.96000000     -0.16800000       341.24600       4.6217373     0.028704978
       2028.0000       288.61053       98862.205       14054.026       3.0730000      -1.6222500      0.62025000       341.44200       5.1973243     0.031132810
       2033.0000       288.62263       98852.997       14082.603       4.1455000     -0.18650000      0.36500000       341.43000       6.9722828     0.029110997
       2038.0000       288.55842       98841.413       14070.491       4.9965000      -2.3242500     -0.18475000       341.23300       4.1964049     0.021501393
       2043.0000       288.53874       98842.728       14068.309       3.9522500      -1.2810000     -0.26525000       341.35400       2.7844643     0.026326758
       2048.0000       288.48852       98862.618       14016.694       3.5160000      -1.0560000      0.12550000       341.05800       4.4877502     0.019713138
       2053.0000       288.49128       98870.017       14017.615       3.8165000      -1.7197500      0.12475000       341.29800       5.7359233     0.027735935
       2058.0000       288.54196       98878.098       14057.622       3.3315000    -0.083000000      0.38175000       341.43200       4.4024214     0.029129061
       2063.0000       288.56203       98885.697       14065.278       3.1775000     -0.61775000      0.66350000       341.43800       8.2694670     0.039187464
       2068.0000       288.60023       98891.076       14079.039       3.0260000     -0.14575000      0.38300000       341.40100       4.8303542     0.028280563
       2073.0000       288.61437       98891.837       14082.024       4.4170000      -2.6050000     0.065750000       341.18500       3.8570405     0.033202716
       2078.0000       288.58918       98895.058       14039.509       3.3315000      -1.7905000      0.21300000       341.39500       4.6022929     0.023537768
       2083.0000       288.60557       98888.945       14062.272       3.6107500      -1.9572500     -0.15450000       341.30900       3.7331221     0.040183918
       2088.0000       288.65317       98867.931       14140.672       3.0945000      -1.3007500     0.087000000       341.28200       3.5204345     0.049082578
       2093.0000       288.65695       98859.235       14159.953       5.1340000   -0.0035000000     -0.26950000       341.23800       2.6862827     0.026987585
       2098.0000       288.65830       98848.184       14190.255       4.6790000      -1.1590000      0.16900000       341.28000       3.7099460     0.044445554
       2104.0000       288.64899       98847.940       14192.598       4.8582500      -1.5237500     -0.18625000       341.37100       2.8011996     0.040304081
       2109.0000       288.59798       98856.931       14137.204       3.9097500      -1.7645000     -0.74350010       341.49400       2.7403272     0.028919257
       2114.0000       288.58681       98866.673       14118.657       4.9425000      0.34850000     -0.57875000       341.34700       2.6086074     0.036042075
       2119.0000       288.60068       98884.985       14120.280       2.0145000      -1.5055000      0.96175000       341.53700       2.5204636     0.033627831
       2124.0000       288.60091       98893.258       14101.809       5.8062500       2.2782500       1.0550000       341.54200       2.3179235     0.027693845
       2129.0000       288.59138       98902.917       14060.127       5.4000000      -1.1670000      0.13525000       341.17800       2.5721309     0.079073782
       2134.0000       288.61013       98902.508       14059.005       4.5042500      -1.0995000      0.81700000       341.39800       1.8234665     0.029878025
       2139.0000       288.63616       98891.989       14054.053       3.0782500      0.93650010      0.32575000       341.66000       2.1259479     0.028446468
       2144.0000       288.67554       98885.975       14098.643       5.2142500     -0.61475000     -0.13300000       341.40900       2.1547514     0.021433894
       2149.0000       288.75799       98876.921       14208.650       4.7847500      0.73025010     0.040750000       341.27300       1.8889383     0.012500933
       2154.0000       288.77065       98868.908       14241.437       2.7332500      -2.8367500      0.57250010       341.63500       2.2905679     0.047904062
       2159.0000       288.75623       98858.617       14265.113       5.8112500      -1.9682500      0.64075010       341.32600       2.2253876     0.037964440
       2164.0000       288.74749       98857.181       14288.591       5.0685000      -1.9040000     -0.42150000       341.52600       1.9718745    0.0099589222
       2169.0000       288.68788       98856.252       14258.374       5.2347500      -1.9430000     -0.59150000       341.29500       2.1721714     0.033503047
       2174.0000       288.69543       98863.597       14288.006       4.5800000      -1.0370000     -0.44150000       341.48700       2.0317440     0.031040507
       2179.0000       288.73716       98884.418       14363.434       3.3725000      -1.0715000      0.60675000       341.63800       2.0141214     0.020035267
       2184.0000       288.77560       98892.563       14408.859       4.7135000      -1.7577500     -0.37625000       341.30200       2.0726126     0.018876883
       2189.0000       288.85729       98901.005       14476.685       3.3020000    -0.055500000      0.12400000       341.53600       1.8333778     0.025217213
       2195.0000       288.86904       98904.504       14471.401       2.2605000     -0.13075000      0.38600000       341.80100       2.0005884     0.023027574
       2200.0000       288.84959       98903.397       14421.997       2.1965000    -0.049000000      0.79375000       341.86900       2.1486164     0.025241735
       2205.0000       288.84544       98885.002       14415.945       2.4645000     -0.69175000      0.11525000       341.81300       1.9607042     0.029773327
       2210.0000       288.84394       98874.836       14411.561       3.4487500      -1.3830000     -0.83750000       341.30900       1.9740323     0.020494510
       2215.0000       288.88530       98853.236       14478.339       4.8685000      -2.4962500     -0.63250010       341.45300       1.9647622     0.027839634
       2220.0000       288.90633       98845.378       14502.260       5.9537500      -1.5322500     -0.26650000       341.20500       2.0928340     0.025870294
       2225.0000       288.91503       98847.366       14501.637       5.9455000      -1.8140000      0.16825000       341.40800       2.2072749     0.038141210
       2230.0000       288.89937       98863.618       14464.550       4.4387500      -2.6032500     -0.13150000       341.29700       2.0034538     0.023420462
       2235.0000       288.89906       98873.998       14435.327       4.4585000      -1.6807500    -0.051000000       341.58000       2.0768441     0.030093273
       2240.0000       288.88830       98891.947       14380.491       4.1175000     -0.63700000     -0.69325010       341.16200       2.0071005     0.029084096
       2245.0000       288.96107       98900.180       14397.182       4.4482500      -3.7887500     -0.43050000       341.35000       2.0444624     0.025216534
       2250.0000       289.00147       98902.687       14403.335       7.0690000      -1.3425000     -0.72075000       341.13800       2.0469956     0.022614134
       2255.0000       289.07090       98898.749       14450.778       5.0535000      -2.0987500     -0.20600000       341.13900       2.0331928     0.022623548
       2260.0000       289.11269       98892.121       14473.498       4.4812500      -4.0852500     -0.16350000       341.46900       1.9077023     0.015849012
       2265.0000       289.11532       98871.301       14448.719       2.8607500     -0.62750010      0.32050000       341.31600       1.9207968     0.015405235
       2270.0000       289.10685       98862.870       14454.574       4.2930000     -0.55950000     -0.58225000       341.43800       1.9394689     0.017417952
       2275.0000       289.08609       98859.356       14471.360       5.1325000      -1.2427500       1.0975000       341.55200       2.2735006     0.042018274
       2280.0000       289.05097       98857.563       14505.582       4.3295000     -0.82150010      0.88525000       341.31900       1.7113963     0.036901162
       2286.0000       289.01042       98868.816       14513.604       3.5885000      -1.4055000      0.14600000       341.87900       1.9293168     0.014250294
       2291.0000       288.99160       98876.913       14484.770       5.7567500      -2.2407500     -0.43925000       341.83200       1.8402102     0.014746999
       2296.0000       288.97201       98888.987       14353.843       3.9815000      -2.4085000      0.51650000       341.48100       2.0668193     0.027980127
       2301.0000       288.99415       98892.719       14302.512       3.7462500     -0.82125000     -0.28000000       341.45100       2.1378116     0.027681365
       2306.0000       289.02569       98892.977       14252.652       4.3407500      0.84375010     -0.26200000       341.52100       2.1827824     0.037780334
       2311.0000       289.09897       98891.604       14258.346       4.2787500      -3.7707500      0.25850000       341.41800       2.0712264     0.032825870
       2316.0000       289.29549       98881.963       14354.806       3.1097500      -2.5425000      0.33625000       342.01700       1.8835944     0.019503586
       2321.0000       289.38129       98874.026       14425.442       4.4632500      -1.4852500     0.082750010       341.58500       2.3240976     0.048424160
       2326.0000       289.40774       98860.250       14509.743       4.4547500      -3.3812500     -0.14175000       341.60700       2.0143404     0.029340937
       2331.0000       289.46703       98857.749       14606.651       4.8307500     -0.59525000      0.41425000       341.51500       2.0028261     0.025848999
       2336.0000       289.47852       98859.773       14729.132       4.5620000      -1.3360000     -0.48775000       341.73300       2.0950169     0.024539515
       2341.0000       289.49971       98864.271       14814.784       3.4462500     -0.76350000      0.21025000       341.71700       1.9648577     0.023627460
       2346.0000       289.59556       98887.313       14930.817       3.5800000      -1.0427500     -0.59500000       341.82200       1.9461267     0.020536687
       2351.0000       289.62148       98894.623       14980.772       2.3650000     -0.43750000     -0.24925000       341.81900       2.1804890     0.036154626
       2356.0000       289.53755       98895.883       14941.168       2.3980000      -1.1970000     0.061500000       342.42900       2.2927377     0.051711175
       2361.0000       289.53988       98892.329       14933.301       2.7370000     -0.77225010       1.2202500       342.42500       1.9854791     0.024551893
       2366.0000       289.54701       98872.468       14901.900       3.4610000      0.17250000     -0.34150000       342.51800       2.0429373     0.035913503
       2371.0000       289.59115       98862.830       14880.533       2.8900000       1.6597500     0.049000000       342.85300       2.2273315     0.038904023
       2377.0000       289.75229       98848.119       14844.355       4.5427500      0.43225000      0.48475000       341.11800       2.0882398     0.025529035
       2382.0000       289.83913       98847.355       14864.130       3.7335000    -0.035250000    -0.079000000       342.21700       1.9751935     0.013817274
       2387.0000       289.92901       98859.305       14908.457       4.6385000      0.12500000     -0.91300000       341.42900       2.1191103     0.024620659
       2392.0000       289.98217       98868.071       14961.808       3.0960000    -0.081250000      0.49275000       341.62200       1.9041892     0.023980263
       2397.0000       290.00811       98886.530       15102.810       3.8247500      0.33075000      0.27900000       342.03700       1.9873990     0.019483314
       2402.0000       290.01054       98895.343       15156.411       4.4500000      0.31700000     0.021250000       341.45500       1.9798136     0.026293803
       2407.0000       289.97647       98903.544       15167.060       2.9845000      -1.1545000     -0.59975000       341.77200       2.0111375     0.028761725
       2412.0000       289.94259       98902.644       15172.888       5.2005000      -1.6330000     -0.30275000       342.09800       1.9575084     0.016468810
       2417.0000       289.86728       98888.849       15112.980       6.9112500      0.20175000     0.060000000       341.47100       2.1112638     0.037677317
       2422.0000       289.83102       98882.826       15108.005       5.0115000     -0.95775000     -0.34075000       341.42600       2.0129100     0.021424752
       2427.0000       289.83005       98870.237       15166.661       3.4437500     -0.95950010      0.20050000       342.28900       2.0005336     0.014442488
       2432.0000       289.78613       98866.628       15139.106       5.0525000      0.18925000      -1.0052500       341.75700       1.9946213     0.030073984
       2437.0000       289.71067       98874.134       15071.838       3.8032500     -0.85000000     -0.63750000       342.11800       2.0171255     0.026078665
       2442.0000       289.68462       98876.131       15027.035       3.3042500     -0.75575010      0.31200000       342.73900       2.1452589     0.024077370
       2447.0000       289.66101       98883.837       14939.538       4.2372500      0.58975010     -0.65850000       341.50200       2.0935933     0.022660070
       2452.0000       289.63482       98881.430       14860.184       3.7732500       1.2060000      0.13200000       342.77700       2.0601344     0.026579662
       2457.0000       289.65817       98869.245       14804.768       2.4892500      0.15050000       1.2745000       342.71500       2.1800635     0.041539201
       2462.0000       289.65438       98863.293       14750.180       5.1197500      0.86800000    0.0015000000       341.78700       1.9761053     0.017588018
       2468.0000       289.61202       98847.363       14652.277       2.6487500       1.3540000      0.38675000       341.90900       2.0321726     0.016994219
       2473.0000       289.58181       98848.107       14596.801       3.6045000      0.55125000      0.28725000       341.64300       2.0066222     0.029321020
       2478.0000       289.56797       98860.865       14564.984       3.4350000      0.23425000     -0.53950000       342.14700       2.1429245     0.035692482
       2483.0000       289.53159       98870.114       14552.062       2.9332500     0.094000000     -0.21250000       342.18800       2.0271721     0.021557939
       2488.0000       289.44776       98890.912       14568.158       3.6582500     -0.61800000     -0.34900000       342.43600       2.1392569     0.054529266
       2493.0000       289.43046       98895.810       14545.196       2.5812500      -1.2835000      0.46975000       342.60100       2.1059371     0.026333016
       2498.0000       289.46527       98893.066       14520.773       3.7420000     -0.36700000      0.61425000       342.24100       2.1179687     0.030489683
       2503.0000       289.43883       98890.068       14514.018       3.3125000       1.0465000     -0.38350000       342.15900       2.1528232     0.031766304
       2508.0000       289.40328       98875.123       14468.829       7.4037500       1.1435000     -0.19550000       342.00000       2.0079915     0.021662812
       2513.0000       289.39315       98871.937       14476.085       5.1560000      0.68625000     -0.77425000       341.70500       2.0674785     0.022654045
       2518.0000       289.35474       98872.279       14565.432       4.1555000      0.41850000    -0.023500000       342.54600       1.9333768     0.013485926
       2523.0000       289.33101       98876.112       14575.811       4.1382500       1.1870000       1.8412500       342.71000       1.9643165     0.024961074
       2528.0000       289.37918       98888.700       14561.213       4.9302500       1.0265000     0.092500000       342.20400       1.9877240     0.023816077
       2533.0000       289.34026       98894.013       14542.914       6.3200000      0.48400000     -0.14625000       342.03000       2.1745457     0.023268789
       2538.0000       289.21723       98902.363       14484.222       4.0317500    -0.010250000     -0.39650000       342.49000       2.1200285     0.027366910
       2543.0000       289.16387       98901.918       14451.493       3.6337500     -0.34825000     0.082500000       342.19200       2.0905748     0.023220053
       2548.0000       289.11330       98895.557       14438.457       5.0917500     -0.43600000      0.12550000       341.96600       2.0326960     0.027417908
       2553.0000       289.06968       98886.621       14399.452       6.4185000      -1.5572500     -0.59425000       341.14200       2.2047332     0.031369284
       2559.0000       289.06311       98864.487       14339.163       5.7175000      -1.5795000     0.010500000       341.38000       1.9529701     0.011844142
       2564.0000       289.02428       98860.050       14293.325       5.5715000      0.14500000      -1.1335000       341.46200       2.1423214     0.023966759
       2569.0000       288.94109       98855.979       14219.350       6.2342500       1.1267500     -0.60575000       341.33600       2.0249309     0.017350879
       2574.0000       288.92837       98862.154       14202.713       4.2432500      0.54600000      0.61525010       341.36900       1.8632012     0.015736907
       2579.0000       288.94347       98884.828       14213.785       5.8570000      0.22575000      -1.1617500       341.37900       2.1971318     0.033345624
       2584.0000       288.95233       98893.072       14229.558       4.1800000     0.080000010      0.40100000       341.76100       2.0423549     0.020706644
       2589.0000       289.00368       98903.089       14277.204       4.7555000      0.99425010      0.34275000       341.60200       2.0906526     0.033822947
       2594.0000       289.01483       98902.611       14314.747       3.2127500      -1.0790000     -0.45075000       341.77900       2.1764086     0.028320359
       2599.0000       288.99129       98893.578       14342.155       3.7610000     -0.57050000     -0.63650000       341.57400       2.0473042     0.024104450
       2604.0000       289.01026       98883.852       14407.728       3.4592500     -0.29725000      0.34600000       341.59800       2.0660970     0.025231503
       2609.0000       289.05600       98862.855       14510.419       3.2040000     -0.27550000     -0.37800000       341.55500       2.1512582     0.022856949
       2614.0000       289.05740       98860.227       14569.983       4.3372500      0.88450000     -0.15000000       341.57600       1.9710633     0.019517187
       2619.0000       289.05646       98860.639       14645.766       4.3297500     -0.48400000      0.16650000       341.37200       2.2436484     0.025659878
       2624.0000       289.04757       98868.868       14671.208       4.4667500      -1.3530000      0.28425000       341.61300       2.0214937     0.017319604
       2629.0000       288.98820       98897.801       14637.707       3.8647500      0.65725000      0.22500000       341.42500       2.0504208     0.024747606
       2634.0000       288.99540       98901.673       14651.611       2.3295000     -0.15850000      0.71650000       341.91100       2.0747940     0.026701820
       2639.0000       289.05446       98898.706       14679.486       3.4957500      -1.5222500      0.13975000       341.64300       2.0343435     0.029625057
       2645.0000       289.05442       98892.593       14664.451       2.5102500     -0.31850000      0.11425000       341.69000       2.0862530     0.025001621
       2650.0000       289.04411       98871.733       14646.109       3.3920000     -0.27625000    -0.087000000       341.70400       2.0280093     0.026645212
       2655.0000       289.03124       98879.492       14608.625       4.4420000       1.1900000      0.17325000       341.85700       1.9065798     0.018878469
       2660.0000       289.07561       98884.304       14609.940       4.2515000      -1.0662500     -0.18100000       341.34800       2.0132905     0.023837721
       2665.0000       289.27585       98900.538       14692.350       4.8015000      -1.5015000     -0.10575000       341.48900       1.9335681     0.015635563
       2670.0000       289.36862       98908.005       14740.814       4.2040000      0.55450000    -0.036500000       341.64500       2.1957712     0.036807722
       2675.0000       289.42441       98910.542       14783.121       3.7647500     -0.40300000       1.2067500       341.55500       1.9066820     0.026562612
       2680.0000       289.46977       98907.887       14820.273       5.1990000   -0.0087500000      0.21025000       341.40600       2.0952070     0.026527266
       2685.0000       289.47515       98900.203       14878.365       5.1785000       1.0995000      0.31600000       341.53900       2.1495641     0.041433141
       2690.0000       289.38276       98884.756       14921.202       3.5740000     -0.65600000      0.68950000       341.73700       1.9469249     0.016970077
       2695.0000       289.47619       98868.722       15088.420       4.0767500     -0.47525000     -0.24475000       341.44200       1.9453339     0.014783408
       2700.0000       289.50801       98865.664       15169.269       4.3055000     -0.91550000      0.18800000       341.68200       2.1377656     0.023748346
       2705.0000       289.52573       98883.811       15200.926       3.9932500     -0.20450000     -0.65275000       341.53700       2.2072854     0.034283978
       2710.0000       289.55663       98890.850       15237.281       2.6215000     -0.71050010       1.0080000       342.13100       1.9086907     0.027195843
       2715.0000       289.53014       98904.301       15198.952       3.3092500      -1.4305000      0.11600000       341.96200       2.0487358     0.016590135
       2720.0000       289.53745       98909.025       15185.463       3.3815000      -1.9457500      0.55500000       342.11700       2.0059021     0.018709225
       2725.0000       289.56929       98906.345       15185.222       3.9222500      -2.1360000      0.11400000       342.19700       2.0719564     0.028271187
       2730.0000       289.65509       98891.960       15223.250       3.8885000      -1.0775000      0.90850000       341.71200       2.0042346     0.030842199
       2736.0000       289.67566       98865.080       15182.763       3.1840000      -1.5002500     -0.56375000       341.78100       2.1053760     0.023968904
       2741.0000       289.70583       98860.894       15165.851       2.9725000      -2.4065000      0.51950000       342.07900       2.2383961     0.039173695
       2746.0000       289.72051       98870.546       15138.812      0.72175000      -2.1312500      0.12425000       342.35900       2.1455737     0.030926197
       2751.0000       289.75180       98874.994       15121.023       2.8030000      -2.8825000       1.1695000       341.79600       2.0432576     0.032321606
       2756.0000       289.79590       98898.450       15103.141       2.1657500      -2.1187500      0.23350000       342.15300       2.2915899     0.043032556
       2761.0000       289.85658       98905.534       15118.532       1.8462500      -1.6942500      0.32050000       341.92300       2.1319773     0.024619309
       2766.0000       289.94235       98895.054       15118.051       4.3942500     -0.70200000     -0.10650000       341.91100       2.1703697     0.038651752
       2771.0000       290.01234       98889.862       15184.304       3.6487500     -0.70425000      0.30075000       342.12100       2.0790741     0.022865745
       2776.0000       290.12782       98874.643       15375.152       3.7305000     -0.11825000       1.0535000       342.23200       2.3982568     0.060856696
       2781.0000       290.17409       98872.286       15471.733       3.5145000     -0.82150010     -0.24800000       341.55000       2.0846337     0.028966068
       2786.0000       290.15600       98881.666       15577.153       4.5175000      -1.7117500      -1.0470000       341.61200       2.1902486     0.033985764
       2791.0000       290.15473       98885.815       15635.262       4.4750000      0.12525000     -0.26125000       341.95800       2.2451166     0.037542703
       2796.0000       290.10983       98900.253       15609.028       3.6252500      0.17975000      0.46050000       341.95000       2.1336997     0.022751045
       2801.0000       290.09155       98903.495       15582.848       3.6312500     -0.51000010      0.46650000       342.57500       2.0477336     0.032221677
       2806.0000       290.10022       98897.941       15535.689       3.2645000     -0.13000000    -0.071500000       342.44300       2.0496545     0.018700842
       2811.0000       290.10019       98890.714       15487.661       3.5950000     -0.16700000     -0.63200000       342.52900       2.1492731     0.024754797
       2816.0000       290.09984       98863.541       15405.758       3.0467500     -0.32925000      0.19650000       341.96000       2.1602756     0.039133157
       2821.0000       290.09969       98860.576       15340.394       3.4087500      -1.0045000    0.0027500000       342.23300       2.0378511     0.026864819
       2827.0000       290.07474       98874.697       15228.707       3.3732500     -0.92400000     0.062500000       342.36100       2.0618133     0.027537903
       2832.0000       290.10270       98881.820       15223.343       4.3532500    -0.096500000     0.076750000       341.71600       2.0669218     0.038609815
       2837.0000       290.21622       98912.631       15320.733       3.2355000      0.19800000      0.34700000       342.73700       1.9380217     0.017931314
       2842.0000       290.21579       98917.164       15323.365       3.8955000     -0.44875000      0.24925000       342.74800       2.0549880     0.020194583
       2847.0000       290.18862       98893.843       15341.088       4.9592500      0.21950000      0.23825000       342.39600       2.2763465     0.030457085
       2852.0000       290.14759       98887.324       15339.976       4.7752500     -0.24150000      0.73900000       343.64700       2.0820087     0.025693943
       2857.0000       289.97736       98871.850       15239.867       5.2777500      0.20525000      0.15000000       341.82300       2.1122703     0.019219530
       2862.0000       289.90910       98871.569       15200.982       4.5702500     -0.56925000     -0.91400000       341.82100       2.0575010     0.023881449
       2867.0000       289.91875       98891.211       15237.963       4.3990000     -0.99125000     0.076500010       342.33300       2.1224151     0.021706641
       2872.0000       289.88897       98898.936       15210.727       3.8100000     -0.37425000      0.24900000       342.53500       2.0175438     0.017456796
       2877.0000       289.86116       98913.924       15128.369       4.4397500      -1.7057500    -0.075250010       342.59900       2.1163988     0.030174719
       2882.0000       289.84108       98913.343       15093.135       3.9100000      -1.3397500     -0.16825000       342.41700       2.0462842     0.036715487
       2887.0000       289.80482       98891.102       15041.603       4.8255000     -0.53725000      0.22000000       342.20200       2.1020746     0.024033852
       2892.0000       289.78878       98887.297       15031.905       6.1215000     -0.15050000     -0.49900000       342.50900       2.0350351     0.028024853
       2897.0000       289.83938       98882.323       15130.391       7.5887500      -1.7537500     -0.38175000       341.31400       1.8655526     0.017237360
       2902.0000       289.79883       98883.138       15104.255       5.4937500     -0.34925000      0.40800000       341.85000       2.0707542     0.020815852
       2907.0000       289.68910       98903.872       15020.277       4.3927500      -1.0462500    0.0070000000       342.35800       1.9917525     0.019978254
       2912.0000       289.62906       98909.359       14952.567       6.9850000       1.2677500     -0.40150000       341.98400       2.1098310     0.018513752
       2918.0000       289.50373       98909.246       14779.779       4.5055000     -0.81550000      0.16350000       342.13400       2.0086980     0.022200504
       2923.0000       289.46206       98903.720       14697.170       4.3865000      -1.0605000     0.085750010       342.17800       2.0289307     0.022324386
       2928.0000       289.52198       98884.145       14686.658       3.6000000      -1.2465000      0.42800000       341.82500       2.1086357     0.027008402
       2933.0000       289.48972       98881.547       14613.446       7.0592500      0.70875000     -0.34725000       341.58000       2.1496078     0.030756432
       2938.0000       289.43838       98882.008       14521.238       6.3377500     -0.21175000      0.84725000       341.80800       2.1064217     0.030447899
       2943.0000       289.36645       98885.455       14429.984       7.3855000      -1.0092500     0.074750010       341.54200       1.8471747     0.019222853
       2948.0000       289.21901       98907.883       14314.466       3.5407500     -0.16825000      0.30075000       342.00500       2.0485889     0.014199730
       2953.0000       289.15178       98909.091       14212.615       4.9865000   -0.0087500000     -0.16950000       341.17700       2.1119172     0.021923562
       2958.0000       289.11288       98898.719       14118.396       6.1137500     -0.61400000     -0.85175000       341.23600       2.0931756     0.013556403
       2963.0000       289.06880       98892.497       14018.975       4.0345000     -0.72625010      0.52025000       341.67000       2.0699716     0.019428711
       2968.0000       289.04616       98871.620       13877.655       5.7045000   -0.0075000000     -0.33400000       341.32200       2.1042656     0.026776544
       2973.0000       289.04236       98871.905       13829.048       4.5005000     -0.95450000     -0.26600000       341.49500       2.0971410     0.030711977
       2978.0000       289.04272       98888.487       13819.265       3.9202500       1.1502500     0.082750010       341.65500       1.9811378     0.015027151
       2983.0000       289.04893       98893.509       13828.468       3.0790000    -0.010250000      0.46875000       341.86700       1.9592388     0.012528527
       2988.0000       289.11082       98909.202       13929.787       3.4125000      -1.5055000      0.18750000       342.01300       2.1254927     0.022810336
       2993.0000       289.10876       98907.927       13960.327       4.1122500      0.82500000     -0.49375000       341.34800       2.1684495     0.031100616
       2998.0000       289.04701       98886.944       13944.931       3.6662500     -0.88725010      0.87125000       341.79500       2.3693371     0.049395213
       3003.0000       289.04320       98881.203       13986.165       3.3045000     -0.50775000     0.077250000       341.61700       2.2120368     0.030987411
       3009.0000       289.05262       98871.455       14062.401       5.2672500     -0.77275000     -0.49400000       341.52600       1.9642403     0.014083633
       3014.0000       289.04273       98875.723       14087.495       6.7362500       1.3827500    -0.034250000       341.21500       2.2266605     0.033203818
       3019.0000       289.05655       98897.420       14138.770       6.6100000     -0.75250010      0.49550000       341.51200       2.0124623     0.014634374
       3024.0000       289.04804       98899.035       14140.365       3.7232500      -1.4575000      0.16025000       341.71000       1.9688492     0.014974285
       3029.0000       288.99702       98898.203       14063.733       5.3385000      -1.0005000     -0.88900010       341.40700       1.9933287     0.017125223
       3034.0000       288.98579       98893.713       14062.706       6.0502500     -0.60150000    -0.049750000       341.32100       2.2366346     0.030666551
       3039.0000       289.00071       98875.091       14096.140       3.7242500      -1.0327500      0.35150000       341.74300       2.0896438     0.022512541
       3044.0000       289.00094       98869.805       14093.845       4.5560000      -2.4717500     -0.89350000       341.43800       2.0102512     0.015830337
       3049.0000       288.99986       98866.593       14100.900       4.3245000     -0.65075000      0.47250000       341.55800       2.1500785     0.030366639
       3054.0000       288.99974       98873.087       14089.775       5.8432500      -2.1502500     -0.65025000       341.25100       2.1261963     0.028764483
       3059.0000       289.00885       98892.509       14043.287       2.9647500     -0.24250000      0.39200000       341.86700       2.1930104     0.023864218
       3064.0000       288.99014       98893.030       14027.956       5.1932500     -0.71200000     -0.21925000       341.48900       2.0384636     0.014727555
       3069.0000       288.96287       98890.408       14033.307       4.9355000     -0.50050000      0.18100000       341.48500       2.0317712     0.042629526
       3074.0000       288.92446       98892.511       14014.278       6.9272500     -0.84175000     -0.26275000       341.07000       2.1952424     0.028713020
       3079.0000       288.85135       98882.004       13989.438       6.5900000     -0.88225010     -0.53425000       341.13800       1.7737157     0.026568354
       3084.0000       288.82030       98885.280       13965.975       7.1427500     -0.13125000     -0.32200000       341.50400       2.0701915     0.019563175
       3089.0000       288.79720       98908.700       13935.416       5.1837500      -3.1095000     -0.33300000       341.22300       2.0070568     0.012423554
       3094.0000       288.78607       98908.460       13899.004       3.3762500      -1.5662500      0.57600000       341.47200       1.9782485     0.019730360
       3100.0000       288.80001       98896.574       13853.023       4.5507500     -0.62100010     -0.18775000       341.42900       2.0887737     0.023312555
       3105.0000       288.78497       98875.786       13789.581       5.5940000       1.0145000     0.096500000       341.29400       2.1174778     0.018809189
       3110.0000       288.79343       98870.673       13768.061       5.6050000     0.027250000      0.11400000       341.48200       2.1105035     0.022887094
       3115.0000       288.83021       98885.290       13783.538       3.7605000     -0.19575000      0.46375000       341.69300       2.0853503     0.020693628
       3120.0000       288.85012       98890.244       13806.263       3.5480000     -0.40175000      0.36800000       341.80200       2.0772557     0.023104822
       3125.0000       288.87002       98895.212       13847.290       6.5025010     -0.69600000     -0.15125000       341.23000       1.9696952     0.015925278
       3130.0000       288.90637       98909.982       13922.584       5.8292500      -1.2305000     -0.61075000       341.21800       2.1265063     0.016057825
       3135.0000       288.91496       98904.963       13975.366       6.5242510       2.1862500     0.059000000       341.32100       2.1939618     0.026536398
       3140.0000       288.89996       98883.195       14033.338       5.3110000     -0.41650000      0.57300000       341.57500       2.1600851     0.021165384
       3145.0000       288.90007       98882.493       14078.609       5.7920000     -0.27625000      0.41775000       341.51700       1.9505320     0.013800272
       3150.0000       288.90021       98883.012       14102.974       4.9877500     -0.91200010     -0.40975000       341.35500       2.0856319     0.021684856
       3155.0000       288.91497       98903.540       14114.954       2.9780000     -0.42850000     -0.31550000       341.56500       2.0087333     0.013047457
       3160.0000       288.90619       98909.224       14101.571       4.5330000     -0.76625000      0.47325000       341.42400       2.0695561     0.027780139
       3165.0000       288.85497       98899.920       14020.675       3.2062500     -0.86000000     -0.47850000       341.67600       2.1035117     0.025723488
       3170.0000       288.84365       98896.134       13992.048       4.3025000      0.12650000      0.40975000       341.56700       2.2025183     0.026977795
       3175.0000       288.84462       98891.126       13979.342       3.2942500     -0.30600000     -0.12675000       341.69600       2.0785144     0.018953252
       3180.0000       288.84330       98876.590       13965.477       3.0187500     -0.79200010     0.093000000       341.81900       2.1353245     0.030750024
       3186.0000       288.88980       98894.749       13995.481       3.0262500       1.0117500      0.63100000       341.86700       2.0566097     0.024033483
       3191.0000       288.90883       98897.440       14022.940       3.5972500      0.16300000      0.30250000       341.73600       2.2420881     0.028473371
       3196.0000       288.89996       98898.342       14049.433       2.6585000     -0.14200000      0.57650000       341.74200       2.1891740     0.034086488
       3201.0000       288.89999       98896.868       14068.464       4.7722500       1.2510000     -0.90800010       341.60400       2.1712436     0.027266316
       3206.0000       288.91424       98874.127       14117.943       4.8015000    -0.094500010     -0.35050000       341.28700       2.1970909     0.035244735
       3211.0000       288.90310       98871.093       14125.456       4.2570000      -2.2890000     -0.19150000       341.19200       2.2729825     0.035738191
       3216.0000       288.85173       98885.945       14067.966       3.4945000      -1.3992500      0.90950010       341.77400       1.9567393     0.018109939
       3221.0000       288.84289       98890.892       14059.176       5.4587500      -1.2522500     -0.73050000       341.45400       2.1576485     0.033784749
       3226.0000       288.82987       98906.998       14047.549       6.3987500     -0.38275000      0.13900000       341.18900       1.9244806     0.025337789
       3231.0000       288.84236       98909.121       14056.527       5.7035000      -1.3627500     -0.52125000       341.30700       2.1368532     0.032078073
       3236.0000       288.95353       98885.190       14149.605       4.5682500     -0.38150000    -0.024000000       341.35900       2.1976133     0.036981848
       3241.0000       288.97044       98881.708       14166.034       3.4065000    -0.036750000     -0.22950000       341.70200       2.0764763     0.024039955
       3246.0000       288.92214       98888.392       14138.512       5.1757500     -0.74000000    0.0020000000       341.44000       2.0533261     0.029570086
       3251.0000       288.90091       98889.716       14114.388       4.5800000     -0.50800000     0.090750000       341.34000       1.9343424     0.014224459
       3256.0000       288.80533       98907.262       14014.934       4.2305000     -0.28675000     0.081500000       341.33700       2.2503882     0.028725890
       3261.0000       288.77912       98909.417       13980.973       3.3502500     -0.51350000      0.10825000       341.73600       2.0145008     0.020670477
       3266.0000       288.83296       98885.414       14007.332       4.0322500      -2.0377500     0.059250000       341.70100       2.2231005     0.032662181
       3271.0000       288.85280       98882.067       13999.897       2.0340000      0.66175000      0.83875010       342.09300       2.0890118     0.024212974
       3277.0000       288.89419       98886.847       14002.722       2.8682500   -0.0020000000      0.41200000       342.07800       2.2410150     0.034756942
       3282.0000       288.91054       98889.841       14001.740       4.0450000      -1.6712500      0.59750000       341.90800       2.0865291     0.029631671
       3287.0000       288.87421       98913.539       13946.729       3.4537500      0.25825000      0.72600000       341.86700       2.0120562     0.013437048
       3292.0000       288.90142       98914.716       13962.676       5.0595000      0.88950000     -0.50500000       341.65100       2.0940942     0.042959897
       3297.0000       288.97652       98889.811       14035.467       3.6597500     -0.60375010      0.26150000       341.79400       2.0756183     0.022664712
       3302.0000       289.01633       98887.297       14090.511       1.9195000    -0.027250000      0.25400000       341.98300       2.1095367     0.035921130
       3307.0000       289.10392       98887.086       14184.755       5.4762500     -0.60675000     -0.15600000       341.33000       2.0874242     0.023163418
       3312.0000       289.12218       98888.644       14250.421       3.6072500      -1.7927500      0.72250000       341.71900       2.0396726     0.027124947
       3317.0000       289.07435       98913.204       14313.062       4.6170000     -0.95525000     -0.60400000       341.51400       2.1982727     0.031829981
       3322.0000       289.04022       98914.144       14339.946       2.7695000     -0.41725000       1.1352500       342.02300       2.0989164     0.029585089
       3327.0000       288.97869       98890.768       14364.991       3.2325000     -0.99300000      0.19900000       341.77300       2.0909064     0.023492735
       3332.0000       288.92861       98886.769       14338.009       3.0530000     -0.42150000     -0.20725000       341.79800       2.1613768     0.030067191
       3337.0000       288.85358       98883.744       14226.424       2.1090000     -0.47775000      0.58775000       341.84300       1.9167194     0.022524329
       3342.0000       288.83139       98883.326       14171.610       3.3085000     -0.87025000      0.10950000       341.81700       2.0518365     0.024497818
       3347.0000       288.84302       98902.790       14112.086       3.7450000     -0.31000000      0.17425000       341.67400       2.2068162     0.028817515
       3352.0000       288.84669       98903.626       14057.631       5.0415000     -0.84675000      0.34550000       341.62900       2.1003857     0.027603374
       3357.0000       288.90834       98885.281       14039.919       5.2140000     -0.20425000     -0.31900000       341.17100       2.0330682     0.033393917
       3362.0000       288.91057       98883.513       13997.970       3.8640000     -0.48550000      0.70550000       341.88500       2.1394137     0.033968758
       3368.0000       288.85756       98883.289       13906.192       2.7900000     -0.23300000      0.60375010       341.81500       2.1955909     0.040388920
       3373.0000       288.83720       98885.153       13872.502       2.4897500     -0.96400000      0.65300010       341.87600       2.0085552     0.014567865
       3378.0000       288.80044       98903.427       13858.126       3.7295000     -0.79000000    -0.097250010       341.68700       2.1266735     0.041932681
       3383.0000       288.78648       98902.793       13852.339       2.8720000      0.12975000      0.15775000       342.01400       1.9830650     0.031979198
       3388.0000       288.80010       98884.399       13870.475       4.2625000      0.82225010      0.28100000       341.69800       2.1531246     0.024532515
       3393.0000       288.80005       98883.290       13891.662       4.1365000      -1.9912500     -0.14375000       341.84000       2.0943982     0.025087344
       3398.0000       288.78882       98881.752       13911.226       4.5212500     -0.16125000     -0.60925000       341.41000       2.0317228     0.019199521
       3403.0000       288.80541       98885.361       13959.032       4.9452500      -1.3175000     0.095000010       341.83700       2.0572520     0.024357388
       3408.0000       288.85335       98908.789       14049.128       4.2620000      -1.2337500     -0.59000000       341.36200       1.9067850     0.016561495
       3413.0000       288.85715       98908.472       14095.595       4.3327500     -0.80300000       1.2645000       341.70800       2.0823003     0.025177168
       3418.0000       288.86832       98889.638       14159.248       5.3477500      -1.7342500     -0.56575000       341.57800       2.0320835     0.020107828
       3423.0000       288.84598       98887.778       14167.882       4.3392500      -2.4677500      0.60250000       341.68100       1.9796468     0.013948825
       3428.0000       288.75819       98883.047       14113.769       4.4645000      -1.3392500      0.37525000       341.33400       1.9892994     0.015614662
       3433.0000       288.72487       98883.556       14092.642       3.6482500      -1.3212500      0.28700000       341.55700       2.1209102     0.030775518
       3438.0000       288.70067       98903.309       14053.083       1.8627500    -0.055750000      0.72025000       341.94300       2.0753521     0.023033658
       3443.0000       288.68677       98902.539       14030.980       4.0040000     -0.51950000     -0.20600000       341.67900       1.9552447     0.017791966
       3448.0000       288.71144       98883.268       14044.624       2.3072500      -1.3655000      0.64575000       342.14100       2.0964184     0.026486260
       3453.0000       288.69484       98883.765       14007.446       3.4722500      -1.5602500      0.88625000       341.83000       2.1879417     0.029832985
       3459.0000       288.64542       98887.985       13922.159       4.7100000      -1.5750000    0.0040000000       341.66900       2.0914268     0.025581136
       3464.0000       288.64432       98892.677       13894.750       4.6625000    -0.041250000      0.11775000       341.84400       2.2357804     0.040230791
       3469.0000       288.64389       98915.279       13857.200       4.3075000      -1.4550000       1.5052500       341.97400       2.1584495     0.030985327
       3474.0000       288.65246       98912.450       13846.246       4.9755000      -2.3532500     -0.28650000       341.78500       2.2668220     0.045865508
       3479.0000       288.71227       98889.132       13894.239       4.1682500     -0.65450000      0.44500000       341.95400       1.9847634     0.014018763
       3484.0000       288.70509       98886.740       13880.336       5.1222500      -2.3517500      0.34550000       341.52600       1.9875133     0.030132221
       3489.0000       288.64548       98881.596       13822.353       4.9177500      -3.0225000     -0.23350000       341.47500       1.9850972     0.025289020
       3494.0000       288.64431       98885.125       13825.736       5.7162500      -4.0170000    -0.098750000       341.37500       2.1543555     0.031184069
       3499.0000       288.63507       98909.427       13823.554       2.9305000      -1.7122500      0.49475000       341.63200       2.0272750     0.016419704
       3504.0000       288.66287       98907.357       13870.082       4.0552500      -2.6242500      0.24775000       341.28500       2.0883425     0.031570717
       3509.0000       288.73233       98889.063       13972.891       4.5655000      -1.9100000    -0.098750000       341.49900       2.0185436     0.022473280
       3514.0000       288.80099       98887.759       14061.460       4.1970000      -1.5420000      0.58625000       341.79200       2.1103577     0.026837349
       3519.0000       288.88679       98882.008       14164.375       2.6222500    -0.012000000      0.25650000       341.78100       2.0017031     0.029526080
       3524.0000       288.95624       98885.382       14268.010       5.9902500    0.0075000000     -0.10375000       341.24100       2.0157398     0.029009037
       3529.0000       289.06108       98909.140       14414.223       4.7912500     -0.42925000     -0.39625000       341.21100       2.1668781     0.033423079
       3534.0000       289.08523       98907.029       14464.070       4.3780000     -0.88275000      0.46000000       341.56400       2.0435757     0.025919002
       3539.0000       289.04844       98889.687       14477.985       3.8882500      -1.1925000     0.056750000       341.62600       2.0613111     0.028367701
       3544.0000       289.05843       98888.403       14480.624       2.3972500     -0.53400000      0.13425000       341.77300       1.9630730     0.015461452
       3550.0000       289.03184       98882.396       14398.074       4.7282500      0.50975000     -0.65900000       341.26200       1.9408806     0.019881511
       3555.0000       289.17563       98904.794       14457.344       4.2982500       1.0347500     -0.79750000       341.22200       1.9614321     0.028126574
       3560.0000       289.22059       98909.907       14462.251       3.5185000      0.72950010      0.82250010       341.66500       2.0309167     0.027770702
       3565.0000       289.19487       98890.713       14451.094       3.3295000      0.39150000       1.1057500       341.83300       2.0554663     0.026109109
       3570.0000       289.20584       98888.363       14436.018       3.8495000      0.20100000    -0.089250010       341.88100       2.1220021     0.023313263
       3575.0000       289.20446       98889.708       14401.828       3.5817500     -0.63700000    -0.087750000       341.16800       1.9380662     0.028657124
       3580.0000       289.13668       98887.353       14317.349       4.9227500      0.14300000      0.36775000       341.38500       2.1810483     0.026457887
       3585.0000       289.13988       98892.035       14284.056       5.6067500     -0.53075000      0.94275000       341.85900       2.1229987     0.025758346
       3590.0000       289.19423       98915.162       14262.378       5.2007500     -0.71225010     -0.64875000       341.19100       1.9500520     0.026375466
       3595.0000       289.26135       98892.069       14266.269       4.2810000       1.9022500    0.0027500000       341.40900       2.0198142     0.019274485
       3600.0000       289.30187       98887.421       14290.059       3.0082500      -1.0205000       1.0740000       342.14200       2.0226453     0.026519548
       3605.0000       289.37101       98889.818       14364.927       4.4310000      0.41950000    0.0055000000       341.23600       2.3310124     0.040513037
       3610.0000       289.41280       98888.541       14422.903       4.7852500      0.78825000      0.51850000       341.14400       2.0800939     0.027358194
       3615.0000       289.41531       98905.826       14511.402       6.0652500       1.1210000     0.042750000       341.44200       2.0838888     0.037015525
       3620.0000       289.40684       98909.727       14557.779       6.3425000    -0.038500000     -0.23125000       341.30800       1.9971654     0.017164622
       3625.0000       289.38608       98905.003       14579.602       4.9860000    -0.063500000     -0.44150000       341.24400       2.1603585     0.040221997
       3630.0000       289.34423       98882.134       14570.166       3.5560000      0.18400000      0.25075000       341.57500       2.0524704     0.032115661
       3635.0000       289.34558       98883.745       14583.120       5.3450000      0.13675000     -0.40850000       341.44500       1.9386638     0.023729232
       3641.0000       289.34576       98889.877       14577.279       4.9672500      0.44325000     -0.27775000       341.80300       2.1259029     0.023208836
       3646.0000       289.39049       98893.067       14592.683       5.4950000       1.2482500     -0.36400000       341.50400       2.0010971     0.023228649
       3651.0000       289.40957       98896.761       14590.576       3.3082500      0.59500000     -0.37925000       341.86300       1.9259660     0.017862538
       3656.0000       289.38561       98888.656       14549.820       6.7190000       1.7445000     -0.30600000       341.49100       2.2564280     0.043815172
       3661.0000       289.39660       98888.181       14531.138       4.3692500       1.2362500     -0.14450000       342.08600       2.1856326     0.031054110
       3666.0000       289.41941       98907.677       14491.820       4.8405000       1.4077500      0.99600010       342.11600       2.0805704     0.034313336
       3671.0000       289.45103       98908.863       14505.879       5.5440000      0.72925000      0.17425000       342.34500       2.0038134     0.016762723
       3676.0000       289.58032       98889.972       14607.354       3.7502500     -0.74900000     -0.29775000       342.44900       1.9357967     0.014582681
       3681.0000       289.57373       98888.351       14624.791       3.0260000      0.72900000      0.23525000       342.07900       1.9950009     0.028614202
       3686.0000       289.45173       98887.975       14649.944       3.9245000      0.51425000    -0.029250000       342.14000       1.9675566     0.017528783
       3691.0000       289.38994       98888.482       14629.153       4.1895000       1.3882500    -0.064000000       341.56200       2.1059320     0.032392499
       3696.0000       289.23775       98912.246       14490.830       3.1212500     0.046250000      0.15475000       342.51000       2.0303204     0.030709328
       3701.0000       289.16400       98915.152       14411.801       2.9317500     -0.16975000      0.86300000       343.03900       1.9747738     0.017133934
       3706.0000       289.18582       98891.148       14332.814       2.8522500     -0.29275000      0.31050000       342.87000       1.9431658     0.016932963
       3711.0000       289.19686       98887.709       14284.460       2.5937500      -1.0585000      0.32450000       341.36800       2.1310148     0.029105739
       3716.0000       289.21888       98891.916       14251.703       2.5247500     -0.34525000     -0.19000000       342.80300       2.4169183     0.039705972
       3721.0000       289.25032       98889.038       14252.480       3.1325000      0.42250000      0.28075000       342.60400       2.1395431     0.027942229
       3726.0000       289.33766       98897.433       14310.662       4.3230000    -0.073250000     -0.29000000       342.38900       1.9886071     0.025578178
       3732.0000       289.36787       98897.219       14349.017       3.0350000      0.27425000      0.28150000       342.43100       2.0571476     0.028986076
       3737.0000       289.36915       98872.676       14417.262       2.8427500      0.28450000    -0.036500000       342.38300       1.9891304     0.025147695
       3742.0000       289.35183       98871.114       14433.421       4.1602500       1.1782500      0.86025010       342.05500       2.0692130     0.026923991
       3747.0000       289.22810       98889.955       14374.433       4.6807500      0.87450000      0.67950000       342.34900       2.0853567     0.025326276
       3752.0000       289.23312       98892.189       14385.370       3.5690000      0.10825000     -0.54450010       342.01500       2.1795537     0.029539834
       3757.0000       289.30322       98894.761       14402.794       2.9102500    -0.083000000     -0.22175000       342.42200       1.8332775     0.018863697
       3762.0000       289.36136       98898.071       14436.611       3.3382500     0.064000000      0.31400000       342.38200       2.0345743     0.034093477
       3767.0000       289.53452       98888.081       14522.941       2.7920000     0.060500000      0.37025000       342.55600       2.0387968     0.027262908
       3772.0000       289.58961       98888.520       14590.843       4.8517500     -0.58975010     -0.53825000       341.20100       1.8537574     0.022166374
       3777.0000       289.55643       98908.389       14666.851       3.3757500      0.75500010      0.72800000       341.99800       1.9626238     0.025558798
       3782.0000       289.55259       98908.244       14711.403       5.6947500      -3.0637500      0.55700000       341.92700       1.9381524     0.013913673
       3787.0000       289.50498       98889.310       14763.310       4.4832500     -0.55350000     -0.33150000       341.74000       2.1098270     0.032416623
       3792.0000       289.48925       98888.490       14774.234       4.7377500      -2.6357500      0.17900000       341.36700       2.0605982     0.018038603
       3797.0000       289.52615       98888.889       14727.340       4.9285000      0.31100000      0.22075000       341.52200       1.9722109     0.021813651
       3802.0000       289.49903       98889.036       14701.376       4.1590000     -0.72000000      -1.4012500       341.55900       2.3030405     0.050092812
       3807.0000       289.42591       98907.357       14683.246       4.3775000      0.30250000     -0.35350000       341.24400       2.4149106     0.064765710
       3812.0000       289.38585       98909.083       14627.592       6.1857500      -1.1505000     0.010750000       342.32700       2.0200354     0.015826294
       3818.0000       289.33605       98888.597       14556.696       4.5777500     0.095250000     -0.41825000       341.34100       2.0906102     0.024545983
       3823.0000       289.25949       98888.046       14451.304       4.3347500      0.86425010      0.19050000       341.75300       2.3028870     0.042043912
       3828.0000       289.14887       98897.559       14266.652       4.3595000      0.25325000     -0.63775000       341.48400       1.9886807     0.017407693
       3833.0000       289.12055       98894.337       14150.177       4.8277500     -0.42000000     -0.61125000       341.76900       2.1479308     0.046785247
       3838.0000       289.08613       98889.887       14027.297       4.4745000      0.39150000      0.19500000       342.00100       2.3077529     0.057458256
       3843.0000       289.08476       98890.894       13942.108       2.9935000      0.17025000     0.096250010       341.76800       2.3483509     0.065325530
       3848.0000       289.19898       98882.946       13887.750       3.5355000     -0.29825000      0.60900000       342.34200       1.9891387     0.024037510
       3853.0000       289.22614       98883.548       13861.753       3.7172500      0.38125000      0.41950000       342.00500       1.5930429     0.046441907
       3858.0000       289.17826       98903.398       13839.794       2.5022500      -1.9647500     -0.28125000       341.77200       2.1033811     0.025422489
       3863.0000       289.21118       98902.680       13887.114       1.8745000     -0.66050000      0.23450000       342.57400       2.2382930     0.031007053
       3868.0000       289.28584       98882.951       14012.407       3.0607500      0.70525000      0.70725010       342.06500       2.3304137     0.036748747
       3873.0000       289.32612       98883.417       14109.622       2.2230000      -1.2927500     0.052250000       342.41200       2.2552284     0.040037569
       3878.0000       289.39910       98891.907       14258.535       3.5307500     -0.24225000      0.47175000       342.09800       2.0652597     0.024989480
       3883.0000       289.42622       98889.295       14353.920       4.4525000      -1.9752500     -0.27100000       342.32000       2.1026363     0.020131144
       3888.0000       289.38883       98889.791       14409.537       2.4272500     -0.23150000     -0.41350000       342.40300       1.9996771     0.029310732
       3893.0000       289.40491       98892.161       14488.921       3.1562500      -1.2730000      0.12100000       341.87100       1.9472595     0.023090142
       3898.0000       289.46389       98882.934       14606.007       3.9142500     -0.47800000     -0.60500000       341.86300       2.2040045     0.026972585
       3903.0000       289.45097       98883.523       14619.459       2.0455000     -0.49500000      0.29450000       342.54600       2.2046550     0.030074869
       3909.0000       289.40225       98902.771       14585.249       3.5912500      -2.7285000     0.070750010       341.92800       2.0248147     0.020206628
       3914.0000       289.39253       98902.417       14546.592       2.8745000      -1.6955000      0.46775000       341.50900       2.0477178     0.028048969
       3919.0000       289.33954       98888.244       14411.340       2.9262500     -0.24850000      0.62275000       342.35800       2.0512258     0.020819692
       3924.0000       289.33649       98889.813       14363.943       4.7315000      -3.2577500     -0.23400000       341.70600       2.2655924     0.026309633
       3929.0000       289.40301       98897.055       14363.452       5.4445000      -1.3780000     0.014000000       341.52700       1.9229024     0.025156183
       3934.0000       289.41423       98893.328       14349.575       4.3647500     -0.60625000     -0.25400000       341.63700       2.3180364     0.054413482
       3939.0000       289.39097       98890.152       14327.062       4.0997500      0.14300000     -0.24100000       341.28900       2.0171084     0.023613017
       3944.0000       289.41010       98891.012       14358.738       2.7845000      -1.4232500      0.41725000       341.94100       1.9681396     0.015926464
       3949.0000       289.44624       98883.016       14428.999       3.2577500     -0.30675000     -0.10550000       342.32800       2.0299827     0.026338503
       3954.0000       289.46638       98884.499       14477.899       5.2170000      -1.4030000      0.10600000       341.45100       2.1278801     0.037038756
       3959.0000       289.51250       98903.920       14572.182       3.4300000     -0.61400000     -0.47300000       341.68100       2.0955890     0.033007111
       3964.0000       289.50528       98901.708       14595.514       2.4742500     -0.58275000      0.43775000       342.04700       2.0245075     0.037810406
       3969.0000       289.45407       98882.985       14570.935       3.1152500      -1.7055000    -0.020750000       342.11600       2.1836270     0.026367039
       3974.0000       289.43421       98884.539       14566.070       3.4032500      -2.4435000     -0.32100000       341.69900       2.1955798     0.032547771
       3979.0000       289.39716       98891.465       14536.103       2.9862500      -1.3957500     0.036250000       342.08500       2.0165507     0.028729366
       3984.0000       289.38601       98888.657       14530.383       1.9792500      -1.2022500     0.057500000       342.22700       2.0843927     0.023545712
       3989.0000       289.41921       98890.481       14550.411       2.6042500      -1.2210000      0.36175000       341.82100       2.0676964     0.029506667
       3994.0000       289.38138       98892.490       14525.437       1.8400000      -1.8842500     -0.15725000       342.61900       2.1142169     0.028121002
       4000.0000       289.29990       98882.914       14478.232       4.3210000      -2.4345000     -0.32725000       342.05300       1.7328162     0.019282837
       4005.0000       289.22994       98898.687       14425.222       3.2117500      -3.3635000      0.53350000       342.19600       1.8903232     0.017966284
       4010.0000       289.18674       98903.437       14368.161       3.8977500      -2.8097500     -0.12875000       341.77100       1.9130397     0.017435938
       4015.0000       289.19990       98889.874       14300.070       3.2495000    0.0067500000     0.077500000       342.55500       1.9807650     0.020457053
       4020.0000       289.19978       98888.556       14252.420       4.1090000      -1.9322500      0.62525000       342.10200       2.0643275     0.027207925
       4025.0000       289.19967       98890.918       14211.240       3.2305000      0.45500000     -0.33425000       342.27200       2.0171716     0.017322777
       4030.0000       289.19318       98896.280       14147.771       1.5367500      0.77500000      0.94775000       342.15300       2.1953669     0.033569716
       4035.0000       289.21453       98891.943       14171.657       4.6577500      0.46275000    -0.089750010       341.95300       2.2260206     0.037106905
       4040.0000       289.26186       98890.195       14263.378       4.1612500     -0.17300000      0.32950000       342.05000       1.9917184     0.023766095
       4045.0000       289.20919       98885.427       14251.268       3.9205000     -0.56075000      0.50350000       342.52900       1.9572562     0.028069354
       4050.0000       289.19870       98882.924       14269.459       4.3865000      -1.5777500     -0.34275000       341.99200       2.1209723     0.025718095
       4055.0000       289.15909       98900.297       14221.701       2.7962500      -1.9707500      0.16050000       342.24400       2.3090922     0.050022907
       4060.0000       289.13684       98903.870       14225.480       4.9082500      -1.3935000     -0.11350000       341.78200       2.1179222     0.027615635
       4065.0000       289.20013       98885.370       14367.757       4.5520000     -0.56425010    -0.087750000       341.97200       2.0482095     0.024262706
       4070.0000       289.21254       98882.901       14409.654       4.6422500      -1.3945000      0.26800000       341.98100       1.7761972     0.035540367
       4075.0000       289.20026       98885.362       14411.435       4.5502500      0.64025000     -0.39400000       341.71800       2.1545712     0.018338294
       4080.0000       289.14407       98890.581       14377.756       4.0042500      0.55050000      0.33675000       341.78400       2.2040620     0.031638781
       4085.0000       289.14515       98887.458       14365.002       3.9420000     -0.16925000     0.038750000       341.78600       2.0556327     0.035895244
       4091.0000       289.14255       98890.855       14288.252       2.2092500     -0.38425000      0.43250000       342.27300       2.0753762     0.022345842
       4096.0000       289.25298       98893.670       14358.850       1.7660000     -0.80750010     0.076000010       342.48000       2.0946061     0.030099850
       4101.0000       289.27007       98889.712       14378.954       3.5702500     -0.82775000     0.087250000       341.76400       2.1730739     0.036993703
       4106.0000       289.22270       98891.489       14383.650       3.0265000      -1.5877500    -0.017000000       342.14700       2.2453756     0.032132611
       4111.0000       289.20183       98892.114       14384.839       3.2620000      -2.1597500     -0.53800000       341.90700       2.2143894     0.028193832
       4116.0000       289.11911       98873.099       14378.681       4.8967500      -2.7047500     -0.11175000       341.74200       2.2496570     0.030052755
       4121.0000       289.08180       98871.107       14345.628       3.5075000      -2.4362500     -0.26775000       341.78400       2.2304086     0.028399076
       4126.0000       289.09998       98895.115       14274.278       3.7962500      -1.7480000      0.30250000       341.97500       2.1046561     0.033879199
       4131.0000       289.10001       98898.495       14238.384       3.3235000      -1.1335000     -0.27825000       341.60000       2.0447811     0.031407586
       4136.0000       289.08605       98887.989       14166.055       2.9130000      -1.3960000      0.35825000       342.11800       2.0961871     0.030778341
       4141.0000       289.09719       98890.041       14153.982       5.2462500      -3.7092500     -0.82850000       341.64400       2.2036592     0.025476731
       4146.0000       289.14864       98893.479       14250.020       4.4782500      -2.5847500      0.10975000       342.00100       2.0552594     0.022226335
       4151.0000       289.15730       98889.529       14269.088       3.5102500      0.11000000      0.32350000       342.29300       2.0035926     0.017162828
       4156.0000       289.17081       98887.104       14292.158       4.7447500      -3.2960000       1.2825000       341.79200       2.1678736     0.030236496
       4161.0000       289.15864       98891.074       14279.190       5.6107500      -2.0575000     -0.84850000       341.48300       2.1182352     0.023707714
       4166.0000       289.07683       98888.902       14177.157       4.1282500      -2.1302500    -0.017250000       341.40300       2.1022464     0.024297783
       4171.0000       289.03822       98888.288       14123.011       3.8357500     -0.54300000   -0.0030000000       341.84500       2.1032778     0.030711819
       4176.0000       289.01042       98905.670       14081.248       3.4472500      -1.8812500    -0.090250010       341.74400       2.2750232     0.044375446
       4182.0000       288.98934       98908.795       14033.315       3.6090000      -1.5027500     -0.25725000       341.86700       2.0133196     0.018504378
       4187.0000       288.98718       98889.184       14003.466       4.3930000      -2.7832500      0.20600000       341.64000       2.2887047     0.044690311
       4192.0000       289.00073       98887.570       13987.129       4.6575000      -1.6350000     -0.22350000       341.65000       2.1709897     0.025040961
       4197.0000       289.05138       98897.795       13958.406       3.3820000     -0.62825000    -0.041500000       342.01200       2.0747606     0.026063125
       4202.0000       289.05785       98895.052       13972.138       3.4780000    -0.055000000     -0.44325000       341.69400       2.0006809     0.022891025
       4207.0000       289.07146       98888.422       14070.525       2.8570000      -1.0090000     0.022250000       341.89200       1.9895746     0.025105686
       4212.0000       289.05354       98890.727       14074.296       3.1795000       1.4690000      0.37625000       341.70400       2.0932858     0.026369260
       4217.0000       288.96780       98892.721       14055.897       2.9535000       1.1485000       1.5462500       342.05300       2.1443345     0.034143387
       4222.0000       288.93173       98888.673       14024.745       4.6410000     -0.45250000      -1.0020000       341.28800       2.2449796     0.043685028
       4227.0000       288.89170       98887.657       13894.629       5.4310000      -1.6865000     -0.23725000       341.46600       2.1123385     0.021180521
       4232.0000       288.88892       98891.613       13846.939       3.5675000      -1.7652500      0.35900000       341.69200       2.0898872     0.027259947
       4237.0000       288.91232       98891.504       13831.155       4.2815000      0.36375000    -0.040250000       341.67400       1.9884543     0.027633754
       4242.0000       288.95951       98888.965       13842.734       2.8775000     -0.41250000     -0.17725000       341.74600       2.1546794     0.022026408
       4247.0000       289.07088       98894.124       13901.078       5.0092500      -2.1432500    -0.037500000       341.28900       2.1100915     0.022232470
       4252.0000       289.12678       98897.326       13952.312       4.8352500      -1.2337500      0.40375000       341.62400       2.2218768     0.036150553
       4257.0000       289.18995       98891.781       14022.971       2.8842500      -2.1465000      0.11625000       341.86900       2.1282273     0.034651989
       4262.0000       289.22224       98888.121       14102.338       2.9865000      -2.3472500    -0.034500000       341.80100       2.1268612     0.036195992
       4267.0000       289.21311       98892.893       14208.545       5.3610000      -1.4157500    -0.038250000       341.35600       1.9465069     0.011932845
       4273.0000       289.19526       98889.967       14290.993       2.9042500     -0.68925010       1.4695000       341.70900       2.0836149     0.026864484
       4278.0000       289.13488       98871.560       14350.562       4.0350000      -2.7460000     0.031500000       341.70200       2.0574980     0.023829053
       4283.0000       289.14690       98873.169       14414.099       3.8220000      -2.0910000     -0.86100010       341.48200       2.0465527     0.014489886
       4288.0000       289.21820       98891.644       14504.444       5.5685000      -2.1510000     -0.49400000       341.16800       1.9594944     0.019918319
       4293.0000       289.19575       98891.762       14479.370       4.5020000      -2.7077500      0.30175000       341.32200       2.2576631     0.039468007
       4298.0000       289.16359       98888.918       14395.112       3.0787500     -0.76925000      0.51775000       341.84400       2.1544236     0.042662977
       4303.0000       289.14687       98892.935       14337.917       1.9617500     -0.81575010     -0.52425000       341.80800       2.2277159     0.043462948
       4308.0000       289.04520       98888.653       14183.797       2.3415000     -0.29575000      0.23500000       341.99900       2.2656261     0.031266935
       4313.0000       289.02368       98889.507       14107.941       2.9050000      -2.0440000     -0.25800000       341.46200       2.2525286     0.034015298
       4318.0000       289.08831       98905.688       14098.925       3.6082500      -3.3925000     -0.13800000       341.58900       2.2235809     0.031299745
       4323.0000       289.11830       98909.183       14080.173       3.4607500     -0.54575000      0.24950000       341.91700       2.2638632     0.033034013
       4328.0000       289.12000       98899.404       14020.928       3.1597500     -0.86250000      0.11650000       341.80900       2.1731190     0.032815314
       4333.0000       289.17227       98899.739       14061.394       3.2407500     -0.89725010      0.14300000       341.58600       2.2634207     0.027508941
       4338.0000       289.28325       98907.763       14196.256       2.8162500      0.51175000     -0.49700000       341.86100       2.1634627     0.035340377
       4343.0000       289.33685       98904.876       14278.859       2.0532500     -0.98100010      0.24425000       342.08900       1.9269602     0.030582241
       4348.0000       289.39778       98894.309       14397.386       4.0447500      -1.0455000     -0.42000000       342.07900       2.0650028     0.022395248
       4353.0000       289.42485       98894.565       14489.329       2.2052500     -0.54350000     -0.51225000       342.00000       2.0598523     0.029164280
       4359.0000       289.41760       98896.941       14573.024       3.1107500     -0.12350000     -0.16550000       341.77900       2.0899711     0.025976283
       4364.0000       289.37999       98892.065       14616.767       3.0402500     -0.28650000    -0.054500000       341.90300       2.3221096     0.042332554
       4369.0000       289.31571       98888.909       14687.781       3.0822500    -0.078750010     -0.25675000       341.80300       2.1804123     0.025833688
       4374.0000       289.25724       98891.762       14648.661       1.8295000      0.32525000     0.015750000       342.30700       2.3741653     0.041131000
       4379.0000       289.13887       98890.362       14503.686       2.9662500     -0.25950000     -0.30100000       341.57500       2.1171946     0.029644857
       4384.0000       289.11520       98888.308       14443.662       3.2280000     0.055000000     0.085750010       342.28900       2.0889668     0.021848670
       4389.0000       289.12406       98895.253       14332.604       3.1762500     -0.12750000      0.60900000       342.15200       2.2864014     0.040479755
       4394.0000       289.17154       98899.347       14321.701       2.9067500      -1.4712500     -0.37350000       342.18100       2.1093987     0.024776054
       4399.0000       289.31233       98894.053       14417.223       3.6767500      -1.1565000      0.47250000       342.13800       2.2066708     0.027855777
       4404.0000       289.32593       98894.745       14403.646       2.6175000     -0.12775000      0.12850000       341.94700       2.1438087     0.029823939
       4409.0000       289.30358       98908.320       14386.096       3.1422500     0.069750000     -0.29925000       341.77800       2.1317445     0.035149063
       4414.0000       289.30476       98905.956       14336.045       2.7885000      -1.7172500     0.049000000       342.12700       2.2553996     0.036320322
       4419.0000       289.22257       98889.126       14183.848       2.4315000     -0.96850000      0.66175000       342.30600       2.2350129     0.041568865
       4424.0000       289.25774       98887.865       14185.251       3.9777500      -1.6492500      0.48325000       342.07000       2.3572411     0.048026040
       4429.0000       289.38574       98890.830       14247.372       4.7515000      -1.7312500     -0.27975000       341.78000       2.0751034     0.028108249
       4434.0000       289.45519       98888.875       14297.411       3.6492500     -0.73725000    -0.092750010       342.01600       2.1700923     0.029334619
       4439.0000       289.54159       98889.043       14403.084       3.7552500     -0.95400010     0.088750000       341.74700       2.1565441     0.024611645
       4444.0000       289.60296       98892.931       14523.505       3.1177500      -1.0347500      0.25525000       342.25100       2.1436745     0.019670705
       4450.0000       289.65621       98896.509       14671.158       4.3200000     -0.40000000     0.090000000       342.15100       2.1674690     0.025855199
       4455.0000       289.70020       98887.608       14876.790       2.7717500     -0.83925000      0.23450000       342.14400       2.1398413     0.026906804
       4460.0000       289.71349       98889.371       14992.251       2.7507500      -1.0467500      0.24275000       341.81900       2.1784558     0.026769280
       4465.0000       289.67014       98894.298       15032.500       3.6570000      -1.7782500      0.65825000       342.46500       2.0347803     0.025882739
       4470.0000       289.65048       98890.364       15034.215       3.5405000      -1.9577500     -0.85225000       341.90200       2.1202869     0.032124197
       4475.0000       289.63089       98886.443       14987.889       2.0317500      -3.5737500     0.016500000       341.75600       1.8480669     0.016978122
       4480.0000       289.58072       98890.404       14864.455       2.9397500      -2.9577500     -0.13000000       342.09800       2.2730623     0.028065812
       4485.0000       289.61550       98894.355       14802.681       3.4245000      -2.7585000     -0.14925000       342.25000       2.1169072     0.024266260
       4490.0000       289.70630       98889.701       14715.095       2.4180000      -3.8277500     -0.26475000       341.67500       2.0629595     0.021854859
       4495.0000       289.72444       98890.712       14676.487       1.5805000      -2.4882500      0.73350010       342.31600       2.0814161     0.026488452
       4500.0000       289.75550       98895.805       14655.039       2.7622500      -3.0542500     -0.61625000       341.68800       2.1388086     0.029672178
       4505.0000       289.73013       98898.254       14653.578       1.6082500      -1.8327500     0.050500000       342.18200       2.0633779     0.029950714
       4510.0000       289.73799       98895.291       14649.108       1.7432500      -1.2755000      0.49300000       341.96600       2.1251363     0.027295357
       4515.0000       289.78529       98892.310       14628.949       3.4547500      -1.5175000     -0.51775000       341.77700       2.1919874     0.031119288
       4520.0000       289.84367       98895.273       14664.235       3.6610000      -1.9677500     -0.43725000       341.92900       2.2143555     0.023470868
       4525.0000       289.91439       98898.236       14728.374       3.7820000      0.11525000      0.15350000       342.08100       2.1304095     0.033417171
       4530.0000       290.01116       98895.293       14802.267       4.0102500     0.048000000      0.42775000       342.93800       2.1046062     0.024079333
       4535.0000       290.03890       98892.398       14914.015       5.2177500     -0.76025000      0.15000000       342.47000       2.3218391     0.052323060
       4541.0000       290.06583       98896.035       15121.759       3.4972500      -1.3487500      0.33375000       343.24500       2.1010758     0.025254158
       4546.0000       290.00325       98889.963       15262.832       2.3897500      0.27500000      0.29550000       343.27600       2.1029016     0.021304565
       4551.0000       289.94184       98888.236       15298.791       5.9185000     -0.56900000     -0.43125000       341.66700       2.0907473     0.022406301
       4556.0000       289.82727       98898.488       15239.184       4.5760000      0.54800000     -0.13025000       341.76400       2.1891939     0.027842684
       4561.0000       289.78022       98902.260       15178.064       3.2670000    -0.090250010      0.14925000       341.99300       2.1445584     0.026205095
       4566.0000       289.76724       98900.306       15019.257       3.1105000      0.31100000     -0.18100000       342.35800       2.2243845     0.025158249
       4571.0000       289.73863       98900.289       14902.772       3.6125000     -0.27925000      0.43275000       342.70400       2.2799361     0.022828351
       4576.0000       289.74181       98904.601       14779.611       3.4137500      0.20800000      0.19725000       342.67500       2.1716065     0.025171508
       4581.0000       289.75196       98901.223       14695.063       2.3825000    -0.045000000      0.68150000       343.09100       2.1433925     0.020667609
       4586.0000       289.75826       98884.205       14649.420       2.0780000    -0.045750000      0.28025000       342.96000       2.2748679     0.024538033
       4591.0000       289.74829       98882.614       14589.441       3.4105000      0.62775000     -0.12525000       342.21900       2.1249878     0.026135538
       4596.0000       289.77059       98892.602       14565.584       3.6980000     -0.65350000     -0.16200000       342.16800       2.1772657     0.035661311
       4601.0000       289.75791       98890.490       14511.858       3.5935000      0.57700000       1.0287500       342.88400       2.2425357     0.043942541
       4606.0000       289.67609       98887.073       14399.852       2.7745000      0.40850000      0.54000000       342.84200       2.1671161     0.023355450
       4611.0000       289.63775       98891.060       14345.220       2.4020000     0.039750000      0.47725000       342.72000       2.3063417     0.025022718
       4616.0000       289.62493       98893.313       14307.862       2.5590000      0.56400000      0.48725000       342.32700       2.2001192     0.020009913
       4621.0000       289.59509       98889.295       14285.144       4.7650000      0.44250000      0.39775000       341.70700       2.0345445     0.015301946
       4626.0000       289.59445       98886.825       14339.634       2.8025000     -0.46650000     -0.36975000       342.77200       2.1410463     0.020904614
       4632.0000       289.54040       98891.661       14323.432       2.5400000     -0.38325000     -0.43825000       342.42500       2.3117290     0.036430695
       4637.0000       289.42748       98892.885       14252.969       3.1740000     -0.42900000      0.17250000       342.18700       2.1464163     0.025197615
