MIRICO/SHELL project - Processed LDS file generated on
Fri Jul 07 22:52:23 2017
Time stamp for record start
05/10/2017  15:03:58.0000
Nb of points in the record
         944
Beam position index
       1.0000000
Beam angle (degrees)
      -18.440000
Open Path length (m)
       34.890000
****************** Temporal data record ************************
Elapsedtime_sec Temp_K Press_Pa Humidity_ppmv WindX_m/s WindY_m/s WindZ_m/s Speedofsound_m/s CH4vmr_ppmv CH4vmrerror_ppmv  
      0.00000000       290.53512       99620.459       8010.5817     -0.66975000       3.0905000     0.054000000       342.26700       2.0631389    0.0095953572
       5.0000131       290.58917       99620.355       8064.6096     -0.14400000       3.1152500     -0.15550000       342.42200       2.1320040    0.0085560716
       10.000026       290.60568       99620.398       8079.3829     0.087750000       2.9225000      0.23250000       343.37400       2.0604047    0.0096382069
       14.999999       290.63139       99622.504       8106.9859     -0.53675000       3.2460000     -0.54775010       341.86500       2.0736532    0.0085899720
       20.000012       290.66758       99619.274       8115.0629     -0.18175000       3.0180000     0.073250000       342.23600       2.0267206     0.011314143
       25.000025       290.77510       99613.176       8105.5531      0.60050000       3.5150000     0.060250000       342.50900       2.1609771    0.0098358786
       29.999998       290.75990       99607.690       8090.9078       1.1635000       3.1275000      0.46525000       342.28600       2.0180621     0.012195038
       35.000011       290.66169       99598.520       8056.5727     -0.72050010       2.3715000     -0.46275000       341.97400       2.0983738     0.010331174
       40.000024       290.63165       99590.623       8049.5939      0.29000000       2.3330000     -0.68800000       341.76700       2.0929688    0.0086870289
       44.999997       290.52030       99579.858       8036.4735       1.4022500       2.7412500     -0.10350000       342.31900       2.0515747     0.011011272
       50.000010       290.53233       99577.768       8047.2257     0.053750000       1.7110000     0.044750000       343.22100       2.0402112     0.011170400
       56.000018       290.69469       99576.302       8098.2269      0.38600000       2.0820000     -0.70100000       341.83800       2.1167163    0.0085915232
       60.999991       290.74650       99583.694       8127.7314      0.58875000       2.7105000     -0.49025000       341.55500       2.0793161    0.0091883929
       66.000004       290.79760       99604.072       8159.7823      0.35900000       2.8920000     -0.27875000       341.48100       2.1242488    0.0088047185
       71.000017       290.83915       99614.256       8188.2084       1.7537500       1.9187500     -0.29825000       342.33900       2.0967143    0.0099656318
       76.000030       290.83719       99626.686       8212.8422      0.25150000       2.0502500     -0.16450000       342.39700       2.0176333     0.015172896
       81.000003       290.87561       99630.183       8243.4322     -0.35950000       2.3537500      0.21075000       342.23200       2.0514294    0.0091770283
       86.000016       290.92091       99626.278       8268.0258    -0.034250000       2.4357500     0.096750010       342.08700       2.0541024    0.0097110573
       91.000029       291.00954       99625.393       8315.0302    -0.051750000       2.5770000     -0.45500000       341.34900       2.1019010     0.011065184
       96.000002       291.14932       99621.743       8387.7859      0.65175000       1.0817500    -0.040500000       342.60000       2.0923125    0.0078065925
       101.00002       291.20186       99616.877       8418.3606      0.18575000       2.0815000     -0.38925000       341.70000       2.1294762    0.0081868293
       106.00003       291.25440       99611.864       8449.4052       1.1377500       1.5752500     0.042750000       342.04600       2.0834180    0.0079080406
       111.00000       291.28712       99606.043       8457.3739      0.48400000       2.2875000     0.064000000       342.13000       2.0865146     0.011179613
       116.00001       291.25218       99595.346       8432.8842      0.57900010       1.7260000      0.23775000       341.83400       2.0772121    0.0094515586
       121.00003       291.24241       99591.257       8405.8737      0.16775000       2.2292500     -0.32750000       341.54500       2.1124232     0.015003263
       126.00000       291.29322       99587.116       8376.0425     -0.19825000       2.1982500      0.10250000       343.09800       2.0819509     0.010736116
       131.00001       291.21071       99591.495       8327.8663      0.66375010       1.8102500     -0.18500000       341.67500       2.1467656    0.0078578485
       136.00003       291.03569       99602.866       8258.2422      0.91600010       1.7112500      0.46575000       342.62600       2.0543762     0.012894452
       141.00000       290.90594       99610.800       8183.9085      -1.0052500      0.79950000     -0.17625000       342.98600       2.1121592    0.0082065839
       147.00001       290.67686       99627.305       8075.4116     -0.22800000       1.6720000     -0.16225000       343.20100       2.0933740    0.0096995650
       152.00002       290.63015       99628.708       8006.1305      -1.7587500       1.3975000      0.56225000       343.97000       2.0526647     0.011481107
       156.99999       290.58694       99630.862       7956.4546      -1.5567500       1.4422500    -0.042000000       342.16700       2.1017230    0.0099741595
       162.00001       290.61525       99631.774       7957.6978      -1.0765000       2.5492500      0.24275000       342.17900       2.0560655     0.011289370
       167.00002       290.60657       99630.882       7939.0067      -2.2885000       3.5042500     -0.63625000       342.20700       2.0438229     0.010712439
       171.99999       290.58559       99628.768       7916.7343      -1.2880000       3.8502500      0.11075000       342.23000       2.0706239     0.011195000
       177.00001       290.55124       99627.579       7892.5523    -0.095500010       1.5105000      0.74525000       342.90900       2.0990150    0.0078969596
       182.00002       290.53118       99619.164       7872.9504     -0.50700000       1.2342500      0.47075000       342.16300       2.0377646     0.012177933
       186.99999       290.50582       99605.927       7848.6433      -1.0810000       2.0482500      0.26050000       342.46400       2.0386767     0.014046906
       192.00000       290.39414       99584.204       7781.3029      -1.5102500       3.4782500     -0.20175000       341.24600       2.0927080    0.0082934282
       197.00002       290.37938       99576.339       7783.0152     -0.85175000       3.9352500     -0.31675000       341.24000       2.0151781     0.013958345
       201.99999       290.41987       99579.335       7844.8436      -1.0947500       2.8370000     -0.22825000       341.79900       2.0460935     0.010028230
       207.00000       290.43746       99582.871       7879.3277     -0.29550000       2.5360000     -0.27925000       342.46600       2.1130272    0.0073161797
       212.00002       290.52515       99600.376       7914.7978     -0.89950010       1.6575000     -0.34650000       341.56400       2.1131923    0.0090537193
       217.00003       290.60580       99611.590       8008.2865     -0.67800000       2.6965000     -0.17725000       341.51800       2.0868787     0.012321200
       222.00000       290.67416       99620.359       8124.0207     -0.40875000       3.8185000     -0.45200000       341.61800       2.1198763    0.0085908947
       227.00002       290.69870       99626.547       8238.6893     -0.30950000       2.5582500      0.37325000       341.93500       2.0858701    0.0092722819
       233.00002       290.77953       99630.717       8432.8571     -0.41150000       2.2525000     -0.18700000       342.33100       2.1459651    0.0096297350
       238.00000       290.81750       99631.526       8521.6502     -0.11775000       2.9510000     -0.94150010       341.52300       2.1017918     0.010318308
       243.00001       290.80030       99630.921       8491.1894      0.17000000       2.3200000     -0.29350000       341.81000       2.1146404    0.0083185822
       248.00002       290.80042       99625.553       8495.4047      0.72525000       1.9682500     -0.13125000       341.59300       2.0929451    0.0069191160
       253.00000       290.78630       99613.893       8489.3006       1.0692500       2.3360000    -0.073000010       342.15500       2.1349979    0.0074685643
       258.00001       290.79786       99603.868       8483.3543      0.17975000       2.3575000     0.018750000       342.21700       2.1004189    0.0084077176
       263.00002       290.83313       99583.595       8488.1324       1.8665000       2.0972500    -0.052500000       342.36500       2.0720713    0.0094481910
       267.99999       290.85315       99576.323       8473.5609       1.6677500       3.2940000     -0.28925000       342.06700       2.0334022     0.011783699
       273.00001       290.87604       99577.983       8412.9056      0.81225000       1.9882500     -0.22975000       342.04600       2.1063271    0.0080656784
       278.00002       290.90633       99579.486       8406.1846      0.55875000       1.6895000     -0.55850010       341.31400       2.0986624    0.0075213638
       282.99999       290.93458       99587.592       8431.5240       1.1262500       1.2447500    -0.023000000       341.37000       2.0726332     0.011998105
       288.00001       290.95468       99596.729       8440.2373    -0.026250000       1.1120000      0.41375000       343.04200       2.1141438    0.0087331865
       293.00002       291.01894       99611.112       8518.3123     -0.10875000       2.0752500    -0.043750000       342.12600       2.1331903    0.0083671979
       297.99999       291.01482       99617.809       8515.0073      0.24825000       1.8087500    -0.051250000       341.81300       2.0852569    0.0098937835
       303.00001       290.91805       99626.951       8408.7236     -0.50625000       2.1512500     0.056000000       341.84200       2.0982956     0.010639097
       308.00002       290.88951       99628.412       8368.9307     -0.59900000       1.5775000      0.26100000       342.17300       2.1677943    0.0087043345
       312.99999       290.86762       99619.260       8334.4393     -0.34025000      0.95300010      0.20075000       342.54900       2.0782338     0.011967268
       318.00001       290.83894       99610.073       8291.3809      -1.0337500       1.3172500     -0.16175000       341.33100       2.0348635     0.012391527
       324.00001       290.86892       99587.485       8284.1051     -0.59600000       1.7167500     0.093000000       342.26300       2.0713625     0.010939664
       329.00003       290.85132       99580.992       8258.7998     -0.28725000       1.3352500     -0.43350000       342.12900       2.1460174    0.0089055712
       334.00000       290.75348       99578.133       8182.5398     -0.92200010       2.3750000     -0.18975000       341.82500       2.1142452    0.0090934488
       339.00001       290.73040       99578.571       8151.3906     -0.74775000      0.70125000      0.38925000       342.42600       2.1134254    0.0089908077
       344.00003       290.71730       99590.597       8129.8293     -0.37675000       1.2240000     -0.25750000       341.62000       2.0994011     0.010260209
       349.00000       290.74843       99598.579       8145.5499     -0.17300000       2.3395000     -0.11925000       341.91600       2.1025898    0.0085497586
       354.00001       290.85653       99607.179       8200.0015     -0.57475000       1.5747500     -0.10675000       341.90100       2.1406975    0.0084786823
       359.00002       290.92682       99612.773       8250.7768     -0.12150000       1.4897500     -0.29200000       343.02500       2.1025343    0.0080707915
       364.00000       291.03998       99621.690       8385.1157     -0.96675000       2.4490000      0.15550000       342.79800       2.1124021    0.0088176268
       369.00001       291.07874       99622.140       8402.3255     -0.16550000       1.9520000     -0.24500000       341.73400       2.1590076    0.0096562056
       374.00002       291.05658       99616.223       8336.6708      0.11700000       2.1937500    -0.082250010       342.01900       2.1303345    0.0093861894
       379.00000       291.05286       99608.046       8307.7666     -0.92850010       1.8525000      0.53875010       342.39200       2.1291850    0.0095641098
       384.00001       291.01774       99589.913       8212.3630     -0.24000000       1.2967500      0.11875000       342.94900       2.1312182    0.0090348167
       389.00002       290.98795       99580.824       8170.4061     -0.42200000       2.1002500     -0.20200000       342.29500       2.1389943     0.011390673
       394.00000       290.96248       99565.507       8162.9721      0.50975000       1.0472500    -0.055750000       341.81100       2.0556617     0.012481930
       399.00001       290.94284       99567.494       8182.1350    -0.028000000      0.67200010      0.42125000       344.04000       2.0570760     0.010186059
       404.00002       290.90519       99588.886       8250.7307      0.80925010      0.61325000      0.10200000       343.60600       2.1241581    0.0087711497
       408.99999       290.88909       99598.934       8267.8622      0.81425010       1.5420000    -0.025000000       342.17700       2.0839909    0.0073817558
       415.00000       290.88877       99619.649       8314.2634       1.0960000       1.6480000     -0.78200010       342.30300       2.0944486    0.0096519106
       420.00002       290.90501       99626.624       8303.7492      0.83550010       1.4357500      0.18225000       343.17200       2.1732590    0.0098513618
       425.00003       290.94284       99623.529       8220.8298      0.71175000       1.4622500    -0.081500000       342.60000       2.1232701    0.0077949920
       430.00000       290.96306       99618.675       8167.9565      0.98475000       1.1635000      0.12450000       343.05900       2.1164786    0.0098426802
       435.00001       291.02178       99609.989       8120.1582      0.19425000       1.3545000    -0.055000000       341.78000       2.1086688    0.0082006691
       440.00003       291.00312       99600.828       8056.4325    -0.033500000      0.96875010      0.30650000       342.78700       2.1523991    0.0074637270
       445.00000       290.91738       99579.931       7951.8779      0.80750010       1.8380000     -0.55550000       341.62100       2.1311916    0.0095281983
       450.00001       290.87702       99575.137       7919.6335       1.3942500       2.2615000     -0.16300000       342.15400       2.1828384     0.011972444
       455.00003       290.81264       99575.647       7902.5526       1.0840000       1.3845000     0.090000000       342.12200       2.1423793    0.0082430880
       460.00000       290.76828       99581.846       7915.5337      0.55550000      0.81275000      0.73925010       343.14400       2.1251104    0.0079375023
       465.00001       290.75725       99603.067       8003.7794      0.34475000       1.2945000      0.26950000       343.10100       2.1470548    0.0083353017
       470.00003       290.73714       99611.876       8042.4990      0.16500000       1.0052500     -0.23175000       341.66500       2.1400405    0.0095012329
       475.00000       290.71161       99622.368       8089.2885      0.14750000       1.1167500    -0.064250000       342.43200       2.0766049    0.0098674207
       480.00001       290.68164       99623.158       8091.3738      0.40000000       1.6725000     -0.32625000       341.71400       2.0952286    0.0075510326
       485.00002       290.65819       99612.049       8056.4996      0.29450000       1.1385000     -0.31150000       342.51300       2.0643203    0.0077005211
       490.00000       290.63839       99608.166       8036.8828      0.51300000       1.4407500      0.29375000       343.05000       2.0948348    0.0075052534
       495.00001       290.60068       99600.610       7985.0899      0.28150000       1.0215000      0.13075000       342.53300       2.1020371     0.010590192
       500.00002       290.58697       99597.932       7962.5808      0.36325000      0.77150010     -0.23275000       342.51200       2.0741733    0.0084857661
       505.99999       290.59058       99598.413       7955.4288      0.26025000      0.45350000     -0.17425000       342.20600       2.0843901    0.0094663303
       511.00000       290.60921       99602.134       7958.1643      0.44750000      0.31950000    -0.072750000       342.70400       2.0126018     0.011580919
       516.00002       290.62861       99611.385       7951.5128      0.79250000      0.47675000      0.38550000       343.89600       1.9866277     0.015200364
       520.99999       290.68570       99611.696       8000.9114      0.84825000       1.5040000      0.16200000       343.34800       2.0637899    0.0093404525
       526.00000       290.79531       99612.510       8103.0106      0.63825010       2.0672500     0.065500010       342.33300       1.9388839     0.013732550
       531.00002       290.84618       99608.882       8157.9824     0.059000000       2.0460000     -0.40750000       342.18000       2.0157400     0.014253960
       536.00003       290.87861       99598.120       8225.4463      0.36325000       2.6077500      -1.0382500       342.15100       2.0490336    0.0092592874
       541.00000       290.95802       99588.207       8293.8101      0.81675000       3.4580000     -0.38875000       342.55700       2.1089995     0.012817522
       546.00002       291.04689       99573.634       8359.9708     0.071750000       2.9050000      0.32375000       342.87400       2.0477260     0.012821852
       551.00003       291.08830       99572.220       8365.0566      0.59250000       2.7675000      0.12450000       342.52400       2.0734456    0.0095901680
       556.00000       291.17241       99570.692       8376.1592       1.7660000       2.5540000    -0.058000000       342.24900       2.0286318     0.012455848
       561.00001       291.16763       99578.890       8332.3910       1.0642500       1.3935000      0.24800000       343.16700       2.0765646    0.0088885817
       566.00003       291.07727       99606.747       8199.9063       1.2762500      0.46975000      0.97700010       343.52600       2.0286088     0.010572911
       571.00000       290.99039       99612.262       8106.0397       1.6130000       2.5335000     -0.16150000       342.34000       2.0633261    0.0090790043
       576.00001       290.84999       99614.775       7999.8241       1.4770000       1.6217500     -0.11425000       342.13800       2.0576873     0.013016198
       581.00003       290.79747       99608.645       7936.5967       1.1560000       2.0337500    -0.066500000       342.65100       2.1503211     0.011218529
       586.00000       290.73652       99586.086       7872.6868      0.39550000       2.0175000      0.32075000       343.47700       2.1426059     0.014805644
       591.00001       290.72335       99577.763       7833.5545      0.61325000       3.0740000     -0.70625000       342.84800       2.6565126    0.0094853354
       597.00002       290.81223       99566.872       7840.3284       1.7062500       2.3107500     -0.36275000       342.09100       5.3749801     0.012328387
       601.99999       290.76983       99576.508       7809.5910      0.26825000       2.4205000     -0.49275000       342.51800       4.1840874     0.013041292
       607.00001       290.74968       99584.308       7780.4276      0.75725000       2.5602500     -0.30750000       342.80000       2.9527681    0.0075026402
       612.00002       290.69994       99606.274       7726.5868     -0.45575000       2.7552500    -0.061250000       343.15000       3.6649057    0.0097033085
       616.99999       290.68766       99613.913       7713.1442      -1.7840000       2.1540000      0.38825000       342.65500       3.0942879    0.0088020343
       622.00001       290.69990       99614.177       7719.8682     -0.77075000       2.6427500     -0.42125000       341.57800       4.1004205     0.012205666
       627.00002       290.73644       99608.726       7731.6583     -0.83075000      0.70525000     -0.22700000       342.38600       3.6860720     0.012236313
       631.99999       290.79998       99597.881       7788.8303     -0.50375000       2.1852500      0.66625010       343.41000       4.5857471     0.011992795
       637.00000       290.90600       99571.787       7897.2497     -0.36100000       1.4212500      0.18475000       342.46800       3.1893117     0.012515678
       642.00002       290.91137       99569.414       7961.7889       1.6760000       1.4330000     -0.24800000       342.45600       2.2732260    0.0087913369
       646.99999       290.98902       99571.631       8049.6268       1.4515000       3.8495000      0.82300000       342.87100       4.1936476    0.0096490262
       652.00000       291.13637       99598.028       8187.2336      0.22150000       2.7477500     -0.71775000       341.89800       4.2924614     0.010179023
       657.00002       291.20699       99608.501       8260.3756     0.072750000       2.8432500     0.025750000       341.74400       2.6639094     0.011487857
       662.00003       291.35538       99615.583       8341.0537     -0.45850000       2.1090000     -0.14600000       342.12800       2.9060394     0.012251787
       667.00000       291.39445       99614.422       8372.9753     -0.33375000       1.6052500    -0.089000000       342.88100       4.2816389     0.012199670
       672.00002       291.34742       99604.651       8354.7888      0.48150000       1.1317500     -0.17700000       343.54800       2.8832518     0.011561974
       677.00003       291.14648       99578.554       8251.1956      -1.2675000       2.7380000      0.32800000       342.44800       4.1121179     0.012646773
       682.00000       291.07720       99570.823       8186.5431     -0.14200000       2.4780000      0.77075000       342.76100       5.2223891     0.010452535
       688.00001       290.98205       99560.983       8091.6938      0.18750000       2.0640000      0.49750000       342.83200       3.1206108    0.0081049471
       693.00002       290.88236       99589.635       8003.1839      0.12050000       2.2062500      0.15150000       342.13500       4.9457337     0.011595574
       698.00000       290.83281       99599.511       7944.7628     -0.59075000       1.7257500    0.0095000010       342.72000       4.7600577     0.015302094
       703.00001       290.74840       99612.879       7914.7181     0.014500000       1.8602500    -0.073000010       343.17900       4.3756849     0.011205737
       708.00002       290.72353       99614.835       7871.2503      -1.1850000       1.1337500      0.39325000       342.63400       3.0658003     0.014450635
       713.00000       290.80873       99593.577       7827.0209     0.097500000       1.6697500     -0.28275000       342.76800       3.0764865    0.0090726327
       718.00001       290.85868       99582.673       7801.9657     -0.28575000       1.6710000      0.24950000       342.16100       2.7360372    0.0088145869
       723.00002       290.92362       99564.287       7762.9653      0.54650000       1.4127500      0.31600000       343.00600       3.7424819    0.0089789298
       727.99999       290.96240       99561.232       7756.3198     -0.27250000      0.34675000      0.34150000       343.30400       4.0847607     0.011174069
       733.00001       290.99093       99572.139       7804.6719     -0.24700000       1.3965000    -0.086500000       342.69200       3.4357400    0.0095600743
       738.00002       291.01017       99580.468       7828.7780     -0.81350000       2.9457500     -0.33925000       342.52400       3.4812787     0.013079931
       742.99999       291.01422       99607.659       7850.4136      -1.8802500       1.7355000      0.53650000       343.06800       3.9253499     0.010905233
       748.00001       291.00283       99615.640       7877.7797      -1.4195000       2.9497500      0.57900010       342.39300       3.5748849     0.013050911
       753.00002       290.99408       99611.003       7937.6441      -1.8157500       2.4217500     -0.51950000       342.69300       7.8692443     0.016540435
       757.99999       290.95182       99606.599       7931.5196      -1.3032500       2.7757500    -0.088500000       342.83200       4.4339267     0.011518932
       763.00001       290.84389       99583.647       7886.6062      -1.1947500       3.1710000    -0.033750000       342.81700       3.6003361     0.011446683
       768.00002       290.78530       99576.308       7849.2696     -0.54500000       3.1072500      0.26950000       343.31400       4.4824976     0.011995256
       772.99999       290.73472       99574.888       7748.1357     0.013500000       2.6017500     -0.29475000       342.88400       3.2330486     0.011756945
       779.00000       290.67725       99579.982       7675.6160      0.16275000       2.7562500     -0.28100000       342.62600       4.9223409    0.0098251953
       784.00001       290.67425       99604.707       7647.2308      0.25225000       1.2527500      0.10225000       342.90600       2.9485672    0.0086959854
       789.00003       290.64058       99609.962       7624.5627      0.18625000       1.3942500      0.14875000       343.67200       4.7480477     0.013812172
       794.00000       290.59269       99611.287       7626.4169    -0.069750000       2.4262500      0.22175000       342.37700       3.9440201    0.0090271541
       799.00001       290.52943       99606.056       7602.1835     -0.69525000       1.7482500     -0.23100000       341.57100       3.5816928     0.012424486
       804.00002       290.43049       99576.797       7571.3158     -0.35075000       1.2327500     0.064000000       342.74400       2.6784142     0.010145114
       809.00000       290.37430       99570.224       7553.1921      0.18750000       1.5840000      0.37275000       342.14500       3.3074265     0.011960706
       814.00001       290.31096       99571.981       7513.3663      0.41525000       1.8255000      0.15050000       343.04200       4.7892198     0.013516549
       819.00002       290.27843       99574.495       7501.1168     -0.50325000       3.4477500     -0.61400000       342.20300       5.8161424     0.012371281
       824.00000       290.27408       99597.915       7504.0949      0.92475000       2.9515000     -0.36550000       342.72800       4.8962973     0.012898493
       829.00001       290.30138       99599.387       7535.2488     -0.63625000       2.0905000     -0.70000000       342.22200       4.8416666     0.011428622
       834.00002       290.36377       99584.595       7601.3591      -1.0905000       1.6392500      0.83050010       343.41600       2.7257261     0.011153425
       839.00000       290.41733       99578.286       7647.0223      -1.6485000       1.6257500     -0.39250000       341.65100       5.0481566     0.013449965
       844.00001       290.52785       99557.245       7711.7780     -0.93575010       1.1620000    -0.012500000       342.16300       7.2748402     0.013973118
       849.00002       290.58013       99556.228       7770.0169     -0.85625000       2.3540000    -0.095750000       342.31900       3.9223009     0.013815782
       853.99999       290.59543       99575.153       7821.8114      -1.4237500       2.3487500     -0.18900000       342.05500       4.6601691     0.011518694
       859.00001       290.61181       99583.204       7855.1035      -1.1822500       1.1995000     0.010250000       342.46100       4.5198625     0.013579328
       865.00002       290.59999       99603.180       7893.9396     -0.46150000       2.0015000      0.35225000       342.75500       4.5106196     0.013425832
       870.00003       290.60009       99603.909       7916.3307      -1.2492500       1.0917500    -0.040000000       343.23400       5.4926954     0.015316723
       875.00000       290.57801       99588.603       7895.9069      -1.0410000       2.3085000      0.17125000       343.64900       6.9695363     0.011797032
       880.00001       290.61037       99580.980       7918.1304    -0.038250000       2.3027500     -0.12225000       342.77600       3.4631860     0.010081584
       885.00003       290.68406       99561.868       7974.6107     -0.99925010       3.6005000     -0.17025000       342.24700       5.9634519     0.012049864
       890.00000       290.72359       99562.264       8000.2658     -0.73325000       2.1495000      0.39675000       342.42300       3.6198988     0.011370090
       895.00001       290.78804       99576.844       8012.2288     -0.18000000       1.7350000      0.50650000       342.16500       2.9980246     0.011005410
       900.00003       290.83202       99583.536       8054.5629      0.77575000       1.9592500     -0.56850000       342.45500       4.1729617     0.015534323
       905.00000       290.84183       99603.220       8097.2912      0.10375000       2.9857500     -0.48050000       342.00100       6.4014323     0.016492585
       910.00001       290.86179       99603.880       8142.6040      0.97325000       3.1305000     -0.60250000       342.27100       3.2915549     0.012460307
       915.00003       290.88890       99587.472       8250.9050    -0.023000000       2.3722500     -0.17975000       342.06300       5.1800371     0.014938882
       920.00000       290.91917       99581.477       8263.4694     -0.19625000       2.5657500     -0.22025000       341.81200       2.9540989     0.010823492
       925.00001       290.93145       99567.254       8206.7920      0.53125000       2.2187500     -0.27625000       343.09300       7.7108048     0.013649284
       930.00003       290.96768       99568.114       8182.6441      0.46450000       1.5907500      0.65350000       343.02300       4.1064295     0.011806882
       935.00000       291.01855       99584.157       8077.7747       1.0532500       4.7760000     -0.26050000       341.80100       6.7466346     0.017989184
       940.00001       291.08422       99588.543       8100.0505      0.62700000       3.5775000     -0.11200000       341.63200       6.9523609     0.013950795
       945.00002       291.18206       99599.577       8204.8593       2.1010000       2.9622500     -0.15800000       342.10700       5.6944124     0.015483501
       950.00000       291.23623       99596.820       8287.3297      0.51825000       3.2372500     -0.28050000       341.52800       4.4453393     0.014582704
       956.00000       291.31404       99572.655       8488.5946     -0.24600000       2.4020000     -0.30250000       341.73200       2.6329099     0.011096497
       961.00002       291.31811       99573.008       8522.4981     -0.22125000       1.6252500      0.33575000       342.27600       5.5078315     0.012196644
       965.99999       291.25320       99578.074       8499.8014     -0.33325000       1.8810000     -0.33925000       341.62100       5.1866227     0.012415022
       971.00000       291.23321       99582.680       8437.1179    -0.043750000       1.7907500     -0.37250000       342.32300       2.4686128     0.012607289
       976.00002       291.22383       99605.158       8283.1579      -1.1997500       2.9022500     -0.53550000       341.86700       2.9834179     0.013869066
       981.00003       291.15687       99602.235       8174.5997     -0.58525000       1.2087500     0.022750000       342.23600       3.1791702    0.0096354966
       986.00000       291.05544       99581.324       8028.7925      0.13050000       1.4967500      0.21625000       342.91800       4.6291108     0.012586824
       991.00002       291.01408       99575.145       7955.9836      0.33675000       2.1842500     -0.25575000       342.37100       5.5635919     0.011301575
       996.00003       290.92875       99561.133       7910.5583     -0.27725000       1.8820000    -0.054500000       343.16100       6.3031310     0.015268593
       1001.0000       290.93353       99564.270       7877.4036     -0.45800000       3.7692500     -0.15275000       342.31700       7.4210981     0.014784230
       1006.0000       291.05880       99585.397       7891.5351     0.050750000       4.3170000     -0.61800000       342.39100       5.0226182     0.021086441
       1011.0000       291.07127       99590.632       7877.4138     -0.60400000       2.5047500      0.78525000       342.90900       3.5173380     0.010361050
       1016.0000       291.05675       99599.322       7855.9352      -1.4842500       3.8295000     -0.10725000       341.38400       3.7135650     0.023862533
       1021.0000       291.04779       99595.042       7846.6738     -0.77900000       3.0122500     -0.12775000       341.54200       2.6187209    0.0099098735
       1026.0000       290.98781       99572.631       7836.3184      -1.5817500       3.8022500     0.051250000       341.86600       4.3436037     0.011054370
       1031.0000       290.99490       99572.944       7846.0272      -1.0212500       1.9967500      0.23925000       342.67400       5.2819294     0.011741137
       1036.0000       291.02562       99577.508       7869.4205      -1.1967500       4.1627500     -0.10775000       341.98900       4.8075009     0.011622896
       1041.0000       291.08364       99582.276       7894.3555      -1.2250000       2.9162500      0.11825000       342.83100       4.6554348     0.012662984
       1047.0000       291.21820       99605.246       7950.3659      -1.6865000       1.9032500      0.87350000       342.90400       4.9604511     0.015239583
       1052.0000       291.19414       99583.465       7919.1470      -2.3535000       2.0085000     -0.14900000       341.62300       5.8886258     0.013782078
       1057.0000       291.20542       99577.848       7927.6307      -1.0937500       1.3337500      0.10175000       342.22400       3.8389292     0.012411131
       1062.0000       291.16001       99573.867       7930.1365      -1.9452500       1.1690000     -0.25525000       342.41000       13.861008     0.019357692
       1067.0000       291.13794       99572.329       7949.4818      -2.7170000       2.2637500     -0.64425000       342.18900       4.6723944     0.016357110
       1072.0000       291.14050       99576.943       7991.0780      -2.3300000       1.7980000     -0.68450000       341.59500       4.5531528     0.013953643
       1077.0000       291.21261       99597.075       8095.6807      -2.5827500       1.1357500     -0.31275000       341.55300       2.8069545     0.012143752
       1082.0000       291.19938       99601.637       8098.8911      -1.1715000     0.016250000      0.12675000       341.62800       3.1946043     0.016521851
       1087.0000       291.13849       99601.383       8067.7994      -2.2535000      0.74525000      0.10350000       342.17800       2.3849177     0.011648911
       1092.0000       291.17608       99595.697       8040.9545      -2.3357500       1.8520000     -0.27850000       342.30700       2.0724254     0.014465042
       1097.0000       291.19509       99594.511       8012.4716      -1.5877500       1.1742500      0.23675000       342.76500       2.5048178     0.012330179
       1102.0000       291.28592       99596.292       8004.9134      -2.0305000       1.3812500     -0.13450000       341.85300       3.4111542     0.013214943
       1107.0000       291.31890       99595.272       7995.2323     -0.70350000       1.0107500      0.38900000       342.02300       7.9736806     0.023883519
       1112.0000       291.25505       99600.356       7926.9553      -2.1260000       1.1320000     -0.21700000       341.70200       5.7382541     0.015134194
       1117.0000       291.24384       99597.942       7926.6527      -1.1120000       2.8635000     -0.19350000       342.14500       4.3418282     0.015497396
       1122.0000       291.24492       99590.612       7964.1877      -2.3482500       2.2637500    -0.071500000       342.82900       3.8932689     0.015219857
       1127.0000       291.25023       99574.358       8049.1673     -0.96950010       1.3807500     0.017000000       343.12600       6.0565440     0.017461882
       1132.0000       291.24051       99569.589       8100.7852     -0.93025000      0.87725000     -0.10650000       342.80800       3.7189304     0.012876551
       1138.0000       291.26245       99562.473       8206.3192      -2.2825000       1.9055000     -0.47525000       342.04400       4.4078796     0.013871039
       1143.0000       291.10599       99578.989       8145.9306      -2.0735000       1.8027500     -0.43525000       342.57500       4.5945970     0.014877994
       1148.0000       291.02636       99582.705       8115.8650      -1.4447500       1.4270000      0.23725000       342.90500       2.9885397     0.014114144
       1153.0000       290.94328       99581.625       8052.9748      -1.9702500       1.2145000     -0.53925000       342.70600       8.2219599     0.021261308
       1158.0000       290.87645       99581.371       8008.3439      -1.4100000       1.2242500     -0.12150000       342.67400       4.0029405     0.014326982
       1163.0000       290.83780       99567.975       7973.2907      -1.9447500       1.6622500     -0.68900000       342.24300       6.1212983     0.016925687
       1168.0000       290.84078       99567.751       7958.2890     -0.63925000      0.77750000    -0.020750000       342.88000       7.4368247     0.018301567
       1173.0000       290.85017       99582.055       7948.4017      -1.1167500       1.6262500     -0.20925000       342.16200       4.5050583     0.015159751
       1178.0000       290.89429       99587.023       7953.3694     -0.84425000       2.0120000     0.046250000       341.91400       3.0095399     0.013923839
       1183.0000       291.03666       99598.351       7992.7450      -2.1275000       1.4047500     -0.19025000       342.22100       3.1689215     0.012631384
       1188.0000       291.12626       99598.713       8024.1735      -1.4755000       1.8685000     -0.18475000       342.23900       3.3525177     0.012432153
       1193.0000       291.27206       99575.100       8082.3217      -1.0572500       1.9837500    -0.037250000       341.87500       4.9671103     0.021900674
       1198.0000       291.28364       99571.760       8096.8840      -1.1600000      0.89350000      0.20450000       342.73600       6.8388080     0.016831188
       1203.0000       291.15447       99578.259       8056.5600      -1.8345000       1.6292500     -0.10725000       341.49600       5.5441113     0.015629722
       1208.0000       291.09374       99579.445       8068.8541      -1.0012500      0.84675000     -0.71600000       341.62200       3.8424361     0.023503901
       1213.0000       290.92448       99597.463       8089.5839      -1.0127500      0.78150000     -0.39300000       341.60300       3.0432001     0.012888617
       1218.0000       290.86096       99599.492       8099.8842     -0.65950000      0.46650000     -0.16075000       341.69300       4.2164227     0.011807504
       1223.0000       290.93393       99576.894       8168.7323     -0.54450010      0.61650000     -0.28575000       341.52800       3.1604821     0.016807777
       1229.0000       290.95791       99572.053       8187.4682     -0.50575000       1.0465000    -0.069500010       341.57500       2.7435401     0.012813755
       1234.0000       290.96921       99573.339       8131.3215     -0.41275000       1.1932500     -0.32175000       342.17100       2.8255289     0.018942110
       1239.0000       291.01276       99574.474       8116.0167      -1.3700000      0.42800000      0.68000000       343.04500       4.6353287     0.015415248
       1244.0000       291.08943       99592.724       8104.1184     -0.73775010       1.7575000      0.32825000       342.92500       8.5840318     0.017297721
       1249.0000       291.11553       99593.460       8096.3822    -0.075250010       1.1795000      0.32300000       343.32100       2.5436762     0.019015432
       1254.0000       291.15347       99573.804       8102.9981     -0.17925000      0.31775000     -0.23775000       341.95100       4.5105377     0.013478574
       1259.0000       291.16567       99573.349       8110.0898     -0.66700010       1.1425000    -0.069250000       342.87900       2.6851066    0.0098106826
       1264.0000       291.13090       99578.412       8132.7632      0.21550000       1.3345000     -0.53175000       342.70200       3.1162585     0.013092293
       1269.0000       291.08673       99580.172       8125.1362      0.36175000      0.41025000      0.54275000       344.40100       4.3945245     0.018083583
       1274.0000       291.02282       99598.523       8104.3846      0.66650000      0.92125000      0.59675000       343.35600       4.0614534     0.014277888
       1279.0000       290.98266       99599.009       8087.6956       1.4170000       2.0300000    -0.028000000       342.14000       7.6348404     0.014981740
       1284.0000       290.90961       99575.292       8034.1983      0.81625000       1.3255000     -0.92875000       342.39500       6.4265824     0.015356311
       1289.0000       290.87763       99571.810       8019.7605      0.50725000       1.7110000    -0.031250000       342.89000       7.4455356     0.022575035
       1294.0000       290.88715       99573.212       8024.1376     -0.90400000       2.1727500    -0.051500000       341.92500       6.0267931     0.023335156
       1299.0000       290.90072       99574.284       8044.2705     -0.31675000       2.3275000     -0.11950000       342.60800       4.7206695     0.016037786
       1304.0000       290.93704       99592.941       8104.6843     -0.86825000       1.9195000     -0.22525000       342.86200       7.2417604     0.018216984
       1309.0000       290.95705       99593.659       8131.3042     -0.37975000       1.3320000      0.21275000       342.91200       7.9071221     0.028162360
       1314.0000       290.98206       99575.149       8156.6689     -0.84350000       1.1340000     0.063750010       343.75400       7.9634909     0.025920106
       1320.0000       291.01864       99573.440       8182.1820      0.38575000       1.6895000      0.30125000       343.32600       5.2850917     0.018370199
       1325.0000       291.03194       99572.261       8182.7249       2.6362500       1.3492500     -0.19425000       342.67500       5.3661877     0.035585985
       1330.0000       291.06816       99575.697       8184.8593       1.6347500       1.1210000     -0.21800000       342.08300       2.7455901     0.015669105
       1335.0000       291.15233       99598.888       8193.5035      0.95350000      0.90525010     0.062500000       343.56000       5.1690762     0.013599477
       1340.0000       291.16958       99598.596       8192.5489       1.3012500       1.1132500     -0.15825000       342.45900       3.9334956     0.017009183
       1345.0000       291.18120       99580.337       8183.8436      0.43500000       1.1402500     -0.19800000       343.27400       3.6202965     0.013233921
       1350.0000       291.14162       99578.646       8160.5267      0.11200000       1.2202500     0.076500010       343.82400       4.3674914     0.015954799
       1355.0000       291.02763       99573.355       8137.8046      0.18500000       2.0690000     -0.24000000       343.02500       3.9975370     0.016765804
       1360.0000       290.95720       99573.867       8093.5304      0.33800000       2.6915000      0.13825000       342.87700       3.9013893     0.029647401
       1365.0000       290.84660       99593.473       8001.4051       1.0295000       2.1610000      0.21000000       342.63700       4.7912313     0.025175391
       1370.0000       290.81487       99592.762       7965.4618       1.7037500       2.7117500     -0.26925000       342.52100       5.0061710     0.014910488
       1375.0000       290.85405       99573.268       7951.2813      0.14925000       2.7832500     -0.40100000       341.59300       2.2847812     0.012447356
       1380.0000       290.84410       99573.836       7927.5614      0.70375000       3.0122500     -0.15275000       342.08000       2.7050499     0.015502299
       1385.0000       290.84556       99580.654       7932.5815     -0.34000000       2.3875000     -0.20525000       342.19700       4.4512332     0.017338892
       1390.0000       290.85522       99579.662       7917.3565      0.11675000       1.8552500     -0.24375000       342.24500       2.9752150     0.010698678
       1395.0000       290.84199       99588.699       7882.1276      0.76600000       1.3700000      0.16850000       342.95600       2.1238128     0.010742425
       1400.0000       290.84851       99586.443       7855.9587      0.22800000       1.4535000      0.49650000       343.11000       2.2203617     0.010384962
       1406.0000       290.90295       99561.417       7824.2696     -0.15475000       1.3557500    -0.052000000       342.32700       2.1476817    0.0098667382
       1411.0000       290.91459       99563.568       7815.7459    -0.088000010       1.0810000     -0.28350000       341.68100       2.1466986     0.011947312
       1416.0000       290.90917       99581.334       7811.5110      0.27025000      0.76550000      0.19550000       342.63300       2.1645171     0.010368705
       1421.0000       290.89068       99582.600       7811.1328     -0.19800000      0.55750000     -0.16925000       342.25400       2.1056655     0.010460423
       1426.0000       290.85428       99587.907       7809.5494    -0.016000000      0.22525000    -0.029750000       342.34300       2.1256985     0.015050220
       1431.0000       290.83455       99586.498       7858.6744     -0.26200000      0.75750010      0.27875000       342.95600       2.2427379     0.013873029
       1436.0000       290.79739       99566.723       7943.1046      0.32700000      0.81100000     0.075750000       342.23800       2.1805824    0.0095012733
       1441.0000       290.78647       99569.165       7983.9852      0.73900000       1.5330000      0.25575000       342.02900       2.1373093    0.0098429400
       1446.0000       290.81689       99587.557       8076.5424      0.89025000       1.2050000     0.093750010       342.15800       2.2185846     0.011901433
       1451.0000       290.77886       99586.015       8061.2750      0.90125010      0.70225000      0.43225000       342.64800       5.7758276     0.025971341
       1456.0000       290.69715       99581.506       7941.9782      0.51425000       1.5007500     -0.44525000       341.93600       2.9092848     0.010507704
       1461.0000       290.67577       99578.701       7906.6095      0.59575000       1.8440000     -0.27575000       342.26700       2.1973403     0.010735241
       1466.0000       290.62234       99562.063       7857.3666      0.36125000      0.88175000    0.0015000000       342.80100       2.7906854    0.0085601171
       1471.0000       290.65747       99563.405       7846.4989       1.9310000      0.58550000      0.18600000       343.23000       2.8708203    0.0097198236
       1476.0000       290.78579       99582.419       7874.3793       1.9200000      0.49750000    -0.024750000       343.11200       5.2565565     0.015726963
       1481.0000       290.85535       99581.951       7909.6609      0.26475000      0.67250000      0.35025000       343.72500       6.0015029     0.011619754
       1486.0000       290.93165       99573.547       7936.2659      0.54100000       1.9870000     -0.56725000       342.23600       6.5730132     0.011223984
       1491.0000       291.01188       99577.307       8031.7700      -1.1595000      0.68900000       1.1410000       342.73300       2.8026887     0.012049258
       1497.0000       291.11162       99579.150       8231.8389     -0.11975000       1.3397500      0.50725000       342.62400       4.4034528     0.010920229
       1502.0000       291.13952       99595.787       8306.1217     -0.22025000       2.7745000     0.084000010       342.19400       4.2642677     0.015234137
       1507.0000       291.16247       99599.888       8367.2670      0.75150000       2.8302500    -0.017750000       342.60000       3.5378465     0.015370819
       1512.0000       291.12986       99576.810       8344.8509    -0.031750000       3.3067500     -0.31075000       341.75100       3.5129500     0.010898684
       1517.0000       291.10014       99572.285       8333.4331      0.96050010       3.3765000     -0.31850000       341.96300       5.3452769     0.010105624
       1522.0000       291.07047       99573.927       8324.1153     -0.90500000       2.6757500     -0.34775000       342.01000       4.0948327    0.0094729741
       1527.0000       291.04426       99580.134       8332.2480     -0.59300010       1.7470000     -0.12200000       342.26100       3.5845945     0.010218055
       1532.0000       291.04552       99579.235       8323.0015     -0.56650000       1.2530000      0.22275000       342.94000       4.1511423     0.016617118
       1537.0000       291.05081       99587.960       8305.4268     -0.82425000       2.0887500     -0.40900000       342.04400       3.3120979     0.012962536
       1542.0000       291.05465       99571.715       8245.6006     -0.52525000       1.3490000     -0.18150000       342.76300       4.0151394     0.014308572
       1547.0000       291.05604       99566.956       8196.2958     -0.43900000       1.9257500     -0.11950000       342.04600       11.850277     0.015951562
       1552.0000       291.05973       99580.884       8126.3329     -0.37300000       1.7975000      0.13600000       342.30200       4.1090901    0.0099971835
       1557.0000       291.01242       99582.233       8050.9973      0.47900000       2.8110000     -0.20600000       341.78900       6.4320185     0.012200999
       1562.0000       290.88010       99573.930       7940.3778    -0.047000000       1.8165000    -0.098500010       342.07000       4.8335667     0.011585871
       1567.0000       290.83792       99574.836       7898.7450      -1.8792500       1.0687500     -0.24175000       342.41800       4.6632632     0.013504416
       1572.0000       290.82038       99576.950       7887.2539      0.41750000       1.0635000      0.46650000       343.37200       9.1215689     0.014385738
       1577.0000       290.78740       99573.188       7891.0429      0.81325010       2.3877500     -0.54700010       341.55600       4.4611164     0.011900293
       1582.0000       290.78094       99576.683       7892.0574       1.1162500       3.0765000     -0.43325000       341.76900       3.6861367     0.010498361
       1588.0000       290.86339       99593.498       7952.8803      0.43750000       2.3640000      0.27550000       342.91900       5.1739949     0.011868736
       1593.0000       290.80990       99574.240       7946.3943      0.53725000       1.5237500      0.52100000       342.82700       3.2476397     0.011886234
       1598.0000       290.79097       99572.608       7938.7015      0.10650000       1.6942500     -0.25175000       341.88000       6.0751226     0.010265701
       1603.0000       290.77188       99582.584       7926.3112     0.098750000       1.8910000      0.43850000       342.51200       3.7062194     0.011084969
       1608.0000       290.79443       99580.500       7939.3771     -0.29900000       1.7502500     0.040250000       342.55300       7.4752135     0.015886924
       1613.0000       290.92526       99578.664       7972.8419     -0.73450010       1.7012500      0.64575000       343.19700       5.2058587     0.013335069
       1618.0000       290.91963       99581.547       7971.8095     -0.65300010       1.4980000      0.84425000       342.92800       3.6508021     0.013685900
       1623.0000       290.85796       99574.683       7979.4229     -0.83175000       1.2195000     -0.29875000       341.50800       4.3324267     0.012562306
       1628.0000       290.80423       99573.233       7977.4625     -0.40175000       1.1002500      0.15275000       341.82500       3.2397368     0.011380349
       1633.0000       290.61704       99591.606       7927.4616     -0.86225000      0.83700000      0.33925000       342.47600       3.7952692     0.015887004
       1638.0000       290.50987       99593.923       7894.5801      0.54750000       1.1382500     0.018000000       343.13300       4.9419966     0.012212496
       1643.0000       290.46107       99575.903       7870.7728      0.88375000       1.0367500     -0.30550000       342.94200       4.7260219     0.015072188
       1648.0000       290.43416       99573.394       7860.9318     -0.13125000       1.3447500      0.20450000       343.33200       2.3775919     0.012383228
       1653.0000       290.44347       99576.352       7857.2946      0.52300000       1.4200000    -0.012750000       341.61400       2.6202191    0.0098812708
       1658.0000       290.44441       99574.533       7851.9173      0.59975000      0.94875000     0.072500010       342.01400       3.5112096     0.011764154
       1663.0000       290.49054       99576.488       7863.4256    0.0017500000       1.7887500     -0.30025000       341.86300       2.9146114     0.011600242
       1668.0000       290.50931       99581.585       7872.9726     -0.14825000      0.37275000      0.46400000       342.30400       8.9545215     0.017785385
       1673.0000       290.48593       99583.869       7871.5399      0.89975010       1.3450000     -0.31275000       341.49500       6.5581272     0.013426985
       1679.0000       290.50097       99585.319       7881.3609       1.0450000       1.1515000     -0.11450000       341.52000       4.7390673     0.014036777
       1684.0000       290.53852       99594.995       7909.1192       1.0095000       1.1585000     0.091000010       342.24300       6.4235190     0.012819012
       1689.0000       290.55869       99597.926       7921.6575      0.91500000       1.0322500      0.10100000       342.40900       6.1886507     0.011720978
       1694.0000       290.58262       99590.830       7911.6876      0.87125000       2.1045000     -0.23350000       341.63700       8.8543052     0.019251252
       1699.0000       290.61264       99589.229       7934.7940      0.64050000       1.7582500    -0.046000000       342.01600       5.4576092     0.013138637
       1704.0000       290.61069       99594.506       7959.9637      0.40175000       1.8070000     -0.66475000       342.41700       9.2068447     0.013997910
       1709.0000       290.65879       99590.388       8006.7931      0.30075000       1.7460000     -0.27775000       342.01700       3.9322455     0.010702917
       1714.0000       290.79620       99577.586       8116.5176      0.61275010       1.8447500     -0.29375000       341.58800       3.8889420     0.010101153
       1719.0000       290.82477       99572.943       8162.0437      0.58075000       1.6492500    0.0047500000       342.33700       3.2663858     0.010765581
       1724.0000       290.82587       99562.844       8195.6828      0.78825000       1.0225000      0.23400000       342.55000       12.926446     0.017391677
       1729.0000       290.80475       99562.632       8201.0981    -0.069750000      0.90025000    -0.056000000       342.60100       2.5913127     0.010719481
       1734.0000       290.67131       99581.319       8147.9889      0.41900000       1.1077500     -0.32850000       342.14000       5.3548288     0.013118220
       1739.0000       290.61943       99582.745       8118.3397   -0.0025000000      0.88600000     -0.41550000       341.76300       3.8371262     0.012439902
       1744.0000       290.61808       99574.046       8094.5461     -0.25300000      0.74750010     -0.37125000       341.84300       4.6528822     0.011269958
       1749.0000       290.58838       99575.417       8049.9638     -0.18075000       1.0792500     0.033250000       342.05200       4.2565755     0.014046157
       1754.0000       290.53573       99576.994       7970.9718     -0.32550000       1.0475000      0.27625000       343.16700       4.2238027     0.019125052
       1759.0000       290.54312       99574.016       7939.1875     -0.58975010       1.2322500     -0.15975000       341.97600       4.0921372     0.012966868
       1764.0000       290.55524       99573.395       7899.0319    -0.014500000       1.5640000     -0.15825000       342.21500       8.9956483     0.015368833
       1770.0000       290.62096       99577.043       7903.5103     -0.12525000       1.5947500     -0.11850000       342.07900       4.8175940     0.011644180
       1775.0000       290.77328       99575.345       7980.5809     -0.55775000       1.3235000    -0.034750000       343.01200       5.7858733     0.011731281
       1780.0000       290.85761       99573.911       8014.5062     -0.25150000       1.7630000      0.20775000       342.64300       4.3169353     0.010723879
       1785.0000       290.90737       99582.827       8016.0637     -0.10525000       1.0097500    -0.083750000       343.16500       3.7618821     0.010386822
       1790.0000       291.00294       99581.307       8091.1117      0.21200000       1.0275000      0.13700000       343.28500       5.6155423     0.011645011
       1795.0000       291.09980       99562.782       8181.3590     -0.42600000       3.1280000     -0.61475000       342.38600       3.2588917     0.010676319
       1800.0000       291.20667       99563.006       8303.8423      0.61600010       3.3747500     -0.57575010       342.56700       7.9620436     0.014580624
       1805.0000       291.39205       99578.338       8561.4873      0.37500000       2.6480000     -0.22525000       342.44800       4.3524421     0.010636405
       1810.0000       291.45718       99574.685       8641.5461      0.83675000       2.2445000     -0.16325000       341.81400       7.7807991     0.017221573
       1815.0000       291.49007       99562.964       8669.8333     -0.27525000       2.3420000     -0.52750000       343.08000       6.5150001     0.014436010
       1820.0000       291.44930       99565.102       8634.3262      0.22900000       3.3107500     -0.52675000       343.13600       7.7210280     0.015032804
       1825.0000       291.28539       99565.130       8452.9652      0.66275000       2.2897500     -0.16550000       342.72900       4.0484817     0.013854013
       1830.0000       291.19627       99563.422       8354.3820       1.5890000       2.1242500      0.79050000       342.72700       5.2435998     0.012178495
       1835.0000       291.07229       99576.302       8239.2544      0.81950000       1.7225000      0.43350000       343.55600       2.9686536    0.0092821836
       1840.0000       290.99535       99578.879       8160.0480      0.95750000       3.8032500     -0.47750000       341.81800       3.1258303     0.013064537
       1845.0000       290.94785       99564.636       8085.9668       1.1460000       2.3312500     -0.48425000       342.98700       3.0371277     0.011426916
       1850.0000       290.93028       99562.526       8064.7789      0.27500000       1.9027500      0.19425000       342.51000       4.3428192     0.012783752
       1855.0000       290.95361       99571.145       8106.1739      0.35450000       1.4642500      0.48075000       342.73700       2.8726298     0.011630269
       1861.0000       290.94111       99570.498       8090.9299      0.89700000       3.1497500     -0.40275000       342.85100       3.6121460     0.011793695
       1866.0000       290.94725       99562.840       8095.1852       1.1797500       3.2097500    -0.099500010       342.37600       2.3623697     0.010181183
       1871.0000       290.95722       99566.437       8086.6293      0.94625000       1.8727500      0.18125000       343.13300       3.7565163     0.013384875
       1876.0000       290.92452       99578.341       8016.4326       1.0395000       2.9157500     -0.19275000       342.00200       4.3805146     0.010840248
       1881.0000       290.97000       99573.910       8038.1312      0.23350000       1.9630000     -0.73050000       342.60700       5.3451235     0.011186685
       1886.0000       291.08463       99563.946       8130.0961      0.57050000       2.7542500     0.011250000       342.66500       4.4108830     0.012405531
       1891.0000       291.15523       99566.677       8164.7593       1.2265000       2.8900000    -0.073250000       342.33500       4.2619694     0.013502716
       1896.0000       291.25177       99564.743       8214.9443       1.3425000       3.8542500     -0.60750000       341.95400       8.4862922     0.017663705
       1901.0000       291.29470       99563.526       8239.9076      -1.0717500       2.2725000     -0.10200000       342.20300       4.7191567     0.011018859
       1906.0000       291.30381       99575.266       8215.1627      0.76650010       2.0865000     -0.25675000       342.46500       4.8536973     0.010945193
       1911.0000       291.31523       99580.527       8245.8367    -0.098000000       2.2750000      0.47525000       341.90700       3.7986782     0.014979207
       1916.0000       291.29075       99575.045       8299.0829      0.18700000       2.8800000     -0.18200000       341.98600       4.0518443     0.013360082
       1921.0000       291.30925       99573.961       8350.8949      0.52150010       1.8500000      0.29525000       342.87200       8.2456132     0.013189119
       1926.0000       291.35467       99582.919       8450.0779     -0.18725000       2.7880000     -0.15800000       342.21400       3.2404176    0.0096156154
       1931.0000       291.35593       99580.449       8454.4692     0.060500000       1.8042500      0.29500000       342.53100       3.9976775     0.011183335
       1936.0000       291.34866       99562.335       8416.1424      0.66000000       2.0550000     -0.30375000       342.68800       3.6352833     0.013276555
       1941.0000       291.35858       99563.771       8394.4892      0.95175000       2.0582500     -0.25325000       341.79300       4.2503656     0.012174510
       1946.0000       291.36071       99578.269       8320.1371      0.79325000      0.76025000    -0.039750000       342.01400       3.5032728     0.012962977
       1952.0000       291.30919       99563.071       8292.4488     0.062250000      0.10600000      0.30350000       342.47900       4.8551091     0.014426911
       1957.0000       291.29870       99563.653       8280.1995     -0.14500000      0.35800000      0.34350000       342.78300       5.0390466     0.015330657
       1962.0000       291.25946       99567.210       8274.4235      0.31325000      0.20025000      0.51775000       343.54800       5.8447803     0.014055768
       1967.0000       291.23715       99563.992       8255.8558      0.33925000      0.32400000      0.13025000       342.74400       6.2879896     0.016344723
       1972.0000       291.23948       99563.232       8236.9530     -0.18500000      0.29550000     0.071000000       343.08000       3.1894994     0.014358504
       1977.0000       291.31202       99576.635       8232.0911     -0.16550000       2.0877500    -0.056750000       342.69500       3.8134438     0.011450338
       1982.0000       291.29855       99581.257       8210.2308     -0.88150010       1.0945000      0.13000000       343.29400       6.9697373     0.012340111
       1987.0000       291.25578       99575.276       8168.1413      -1.3857500       1.0862500     0.044750000       342.34100       4.9907550     0.011345868
       1992.0000       291.18428       99575.158       8143.6651      -1.2115000       1.1855000     -0.25025000       342.30700       3.7592474     0.016769642
       1997.0000       291.14266       99576.395       8126.6178     -0.22200000       1.6877500      0.11550000       342.39100       6.4234611     0.011065662
       2002.0000       291.08506       99567.770       8102.5710     -0.49400000       1.4797500     0.067750010       342.52500       7.2093662     0.016617027
       2007.0000       291.08191       99563.495       8097.6039     -0.12500000       1.9322500      0.13175000       342.27800       3.9973142     0.011010898
       2012.0000       291.16005       99570.123       8122.0485     -0.31275000      0.80225000      0.67025010       343.52000       5.2803538     0.010104207
       2017.0000       291.19973       99571.322       8134.0238     -0.14750000       1.3805000    -0.058750000       341.60500       4.3312229     0.011234369
       2022.0000       291.23935       99570.077       8146.1752     -0.10375000       1.1462500    -0.074250010       341.57600       3.6859246     0.010651606
       2027.0000       291.30569       99563.385       8159.8395     -0.21075000       1.2292500     -0.20025000       341.76400       5.5341186     0.011240182
       2032.0000       291.34439       99567.830       8194.1439     -0.28875000      0.92325000     -0.13400000       341.91300       11.946202     0.016590205
       2038.0000       291.35954       99577.081       8241.5452     -0.38200000       2.1570000     0.098000000       342.59000       6.8230701     0.012523134
       2043.0000       291.32152       99562.979       8251.9652     -0.21475000      0.35325000      0.30550000       343.91900       4.4797565     0.018387037
       2048.0000       291.30031       99564.083       8248.0011     -0.52475010      0.92550000      0.26500000       342.96000       3.9950819     0.010718851
       2053.0000       291.23322       99569.240       8196.4126     -0.47825000       1.8032500     -0.47425000       341.96700       5.3333716     0.017532463
       2058.0000       291.18476       99564.283       8147.5673      0.55150000       2.2902500     -0.24725000       341.83200       5.4366125     0.015272575
       2063.0000       291.12226       99561.494       8076.3042      -1.1067500       1.5417500     -0.29600000       342.78400       7.2662104     0.014733350
       2068.0000       291.13633       99566.519       8044.6115     -0.31175000       1.0772500      0.19375000       343.05000       7.3168081     0.014063116
       2073.0000       291.18435       99569.519       8020.2681     -0.39225000       1.8432500    -0.075250010       341.62100       2.4670864    0.0099844095
       2078.0000       291.24861       99564.536       8001.9114     -0.73675000       1.8912500      0.38450000       342.86800       6.7217764     0.012941098
       2083.0000       291.44077       99561.102       8036.2787     0.039250000       1.3690000     -0.42850000       341.93700       5.3687162     0.015097137
       2088.0000       291.53792       99566.047       8038.0878     0.040250000       1.4072500      0.12300000       342.45400       9.9407862     0.017697993
       2093.0000       291.62382       99566.334       8005.8810      0.28475000       1.9682500     -0.33825000       342.34500       11.497370     0.021241040
       2098.0000       291.62699       99563.607       7992.1874      0.31225000       1.8045000     -0.24775000       342.26500       4.1702287     0.014939634
       2103.0000       291.52655       99573.666       7983.4046     -0.33175000       1.6490000      0.33300000       342.12200       4.5559967     0.013231736
       2108.0000       291.44483       99578.112       7970.8180      0.52400000       1.7337500     -0.11125000       342.30300       5.6699208     0.013602284
       2113.0000       291.26327       99567.936       7961.4228       1.0170000       2.0910000     -0.25525000       341.88200       5.3547312     0.015227323
       2118.0000       291.16720       99563.148       7953.7134      0.46050000       2.1305000     -0.34800000       341.56900       5.9540745     0.012514009
       2123.0000       291.12069       99564.447       7940.1793      0.54525000       1.2005000      0.48825000       342.45700       4.3905139     0.012037165
       2129.0000       291.07835       99565.703       7932.1379      0.97600010       1.5127500     0.012500000       342.41000       3.3361040     0.014030167
       2134.0000       291.07429       99564.603       7923.3135      0.44550000       1.7290000     -0.45300000       342.11300       4.8302155     0.013716645
       2139.0000       291.10145       99564.969       7936.9577      0.95400010       1.5052500      0.24100000       342.37800       6.4070395     0.012350849
       2144.0000       291.17599       99571.144       7979.5151      0.28750000       1.2827500     -0.14300000       342.25800       8.7370896     0.016669356
       2149.0000       291.21541       99571.382       7993.6852      0.67100000       1.9615000    -0.078000000       342.13000       4.2569225     0.012384475
       2154.0000       291.33095       99565.301       8045.9096    -0.067000000       1.3227500     -0.14150000       342.13500       3.0089773     0.010539076
       2159.0000       291.32144       99564.729       8023.6554     -0.29875000       1.5180000    -0.077250000       341.92000       3.4327919     0.014420356
       2164.0000       291.21158       99565.961       7920.2517      0.41000000       1.5225000     -0.11675000       341.66000       9.0176785     0.018624575
       2169.0000       291.12375       99564.976       7865.6282      0.28600000       1.6540000     -0.33000000       341.76900       3.9215403     0.013270090
       2174.0000       290.94909       99564.624       7775.7350      0.17350000       1.3165000    0.0072500000       342.10000       3.4449591     0.013447808
       2179.0000       290.84593       99565.594       7735.6518      0.42375000      0.98275010      0.38800000       342.62900       6.0521107     0.016763925
       2184.0000       290.77117       99568.685       7754.1309      0.55800000       1.8752500     -0.15950000       342.44600       2.4106818     0.012122142
       2189.0000       290.71928       99565.033       7748.1005    -0.010250000      0.93500010      0.17050000       341.90600       2.3661598     0.015391344
       2194.0000       290.70514       99554.656       7744.6922       1.4975000       1.1022500      0.21850000       342.69400       3.3292780     0.012364379
       2199.0000       290.68890       99554.435       7748.1410      0.32425000       1.1420000      0.37175000       343.19700       4.3427518     0.013100612
       2204.0000       290.70075       99554.428       7776.5616       1.1515000     -0.36375000      0.58500000       343.71500       3.2123251     0.011828459
       2209.0000       290.70098       99554.260       7758.8999       1.2065000       1.4635000    -0.058750000       341.86700       6.6138953     0.016821200
       2214.0000       290.71329       99560.995       7725.8098      0.67400000      0.96300010      0.28750000       342.65100       4.5453751     0.014340458
       2220.0000       290.69550       99569.487       7677.0709       1.8742500       1.2305000    -0.031000000       341.62800       4.3451180     0.013867596
       2225.0000       290.65703       99578.550       7575.9676       1.7670000       1.0957500     -0.35300000       341.67500       3.0309587     0.011469304
       2230.0000       290.63691       99575.098       7535.6104       1.2557500      0.96425000   -0.0045000000       341.63000       3.6405078     0.011281426
       2235.0000       290.60078       99563.544       7526.1283       1.1242500      0.91225000     -0.10100000       341.69900       3.8836346     0.013538132
       2240.0000       290.58715       99565.816       7513.8814      0.88700000      0.78350000     -0.11350000       341.90100       4.1504788     0.012487198
       2245.0000       290.56587       99567.229       7506.5251       1.0247500      0.98525010     0.078500000       342.71700       4.6631406     0.014964194
       2250.0000       290.61564       99562.320       7534.0858       1.7230000      0.65100000      0.15525000       342.52600       2.6963313     0.014535902
       2255.0000       290.71491       99565.607       7591.3896      0.75175010       1.2587500      0.13450000       342.67000       2.2933386     0.011287305
       2260.0000       290.79143       99567.504       7629.0165       1.5940000       1.3462500     -0.11725000       341.64200       4.9097593     0.012160578
       2265.0000       290.93047       99556.714       7690.6365       1.3715000       1.3677500    -0.086000000       341.66500       5.2107681     0.013960796
       2270.0000       291.00832       99550.969       7738.0221       1.1085000      0.96925000     -0.14125000       342.06800       7.0479480     0.014654415
       2275.0000       291.07526       99558.674       7785.5727       1.1035000      0.52425000     -0.36150000       342.47300       2.6224344     0.011328104
       2280.0000       291.05994       99555.202       7784.5150       1.3017500      0.90175000     -0.18125000       342.37600       2.2394815     0.010456854
       2285.0000       290.95072       99532.906       7748.3222      0.92050000       1.1647500     -0.28200000       342.33500       2.2604405    0.0097573134
       2290.0000       290.93677       99531.573       7749.3295      0.97775010      0.48050000      0.26725000       342.82200       2.2556014    0.0081931839
       2295.0000       290.89717       99542.925       7720.7552       1.5410000     -0.19725000    -0.060250000       342.39800       2.2055670     0.011401506
       2300.0000       290.88041       99547.682       7713.5149       1.1297500      0.47775000      0.31125000       342.57300       2.1707851     0.010250972
       2305.0000       290.93355       99563.407       7744.2429       1.2755000     0.036500000      0.18650000       342.85500       2.1385565     0.010720387
       2311.0000       290.98209       99561.716       7780.2412       1.3835000     0.061250000      0.39725000       343.69100       2.0935405     0.011697283
       2316.0000       290.99045       99542.808       7803.8513      0.77675000     -0.15500000      0.41550000       343.21900       2.3090634     0.015988091
       2321.0000       291.01913       99544.320       7814.6555       2.3752500      0.52475010      0.11650000       342.50500       2.1702268    0.0083507553
       2326.0000       291.09739       99550.630       7852.8992       2.2052500   0.00050000000      0.19050000       342.47600       2.1214142    0.0081043601
       2331.0000       291.13855       99549.682       7850.0474       1.9952500      0.22250000     -0.18550000       342.63700       2.0844271     0.010415514
       2336.0000       291.16386       99555.161       7802.6534       1.4577500      0.45775000      0.31950000       342.19700       2.1819202     0.011665083
       2341.0000       291.14589       99559.255       7769.4709       1.1850000       1.3255000      0.65975000       343.37100       2.0816706     0.011573590
       2346.0000       291.12727       99555.877       7743.5460       2.1507500      0.65425000     -0.23850000       342.35400       2.1213109    0.0085900672
       2351.0000       291.06030       99552.809       7689.5853      0.27300000     -0.16975000     -0.10050000       342.76900       2.1657195    0.0076497495
       2356.0000       290.89954       99554.466       7598.4279       2.2655000      0.77225010     -0.27750000       342.39600       2.1144648     0.013570392
       2361.0000       290.83707       99557.481       7559.5742       2.4487500       1.4620000     -0.15200000       341.99000       3.8233471     0.015554507
       2366.0000       290.79324       99555.741       7525.6063       2.3700000      0.99450000     -0.30275000       341.63500       2.1477858    0.0085018023
       2371.0000       290.77086       99552.685       7508.5350       2.1075000       1.0487500     -0.18250000       341.91400       2.1001712    0.0091998920
       2376.0000       290.78226       99554.620       7511.6100       2.5940000      0.47550000     -0.36450000       342.78400       2.0548327    0.0091654642
       2381.0000       290.81939       99557.583       7550.2179       3.0592500      0.30225000    -0.094750000       342.54700       2.0576783    0.0097200718
       2386.0000       290.88992       99555.685       7616.0036       2.5625000       1.0325000      0.27375000       342.32100       2.0584293    0.0083839869
       2391.0000       290.93029       99552.717       7662.5622       2.9675000      0.66225000     -0.17250000       342.35700       2.0433632    0.0096287337
       2396.0000       290.99661       99555.703       7751.8521       3.5532500      0.49275000     0.021500000       342.68700       2.1007017    0.0088577101
       2402.0000       291.03044       99553.813       7770.5044       4.8607500       1.6437500     0.093250010       342.57800       2.1288610     0.012316547
       2407.0000       291.05069       99549.669       7787.1260       4.9945000       2.1927500    0.0052500000       342.24100       2.1067987     0.012059101
       2412.0000       291.07039       99546.828       7803.3507       3.4540000       4.7700000     -0.34125000       342.47000       9.2418199     0.023085616
       2417.0000       291.10027       99549.711       7822.0955       3.0027500       3.1850000      0.40650000       342.58600       5.6266990     0.010428472
       2422.0000       291.13021       99553.830       7840.8092       3.3077500       3.8077500     -0.43450000       342.61300       5.5127736     0.012796585
       2427.0000       291.13611       99554.473       7856.8756       1.4372500       3.2142500      0.17175000       342.78500       4.8370299     0.022009710
       2432.0000       291.19954       99556.675       7871.9142      0.63950000       2.6830000      0.28025000       342.54800       4.3859549     0.019228316
       2437.0000       291.30023       99566.779       7883.5383      0.37575000       2.9400000     -0.37325000       342.21800       3.1073765    0.0088147973
       2442.0000       291.37138       99560.162       7917.6920      0.46400000       1.8425000      0.16875000       342.74900       6.1603904     0.011552965
       2447.0000       291.45185       99558.837       7959.0130      0.46075000       1.5000000     -0.67025010       342.48100       2.6751122    0.0088050070
       2452.0000       291.60589       99567.821       8112.2462      0.49600000       1.8840000    -0.019000000       342.83800       5.0067048     0.012061821
       2457.0000       291.63115       99567.143       8128.5745    -0.059500000       2.1255000      0.13875000       343.20500       4.6977325     0.012337260
       2462.0000       291.58002       99555.338       8036.8918     -0.88275000       2.7025000       1.0037500       343.42300       4.3783269     0.014834456
       2467.0000       291.52561       99554.116       7965.5707      0.11825000       3.4257500     -0.96375010       342.43700       2.8224927     0.010042164
       2472.0000       291.42193       99555.351       7859.3319      -1.0317500       3.3460000     -0.36375000       342.89100       6.2255358     0.014946922
       2477.0000       291.19741       99555.997       7651.9333      -1.1807500       2.1735000      0.44975000       343.12500       2.2810558     0.011231034
       2482.0000       291.05792       99550.950       7536.1901     -0.74750010       2.7845000    -0.017000000       342.40100       3.6621217     0.011249520
       2487.0000       290.93827       99549.701       7464.2981     -0.56150000       1.5892500      0.69100000       343.23800       5.1379987     0.011223919
       2493.0000       290.82915       99553.609       7343.8598      0.90775010       4.6185000      0.48225000       342.69600       2.3162319    0.0084859769
       2498.0000       290.77210       99549.651       7278.9193       1.1560000       2.0737500      0.44650000       342.53500       2.7535604    0.0087154534
       2503.0000       290.75729       99547.137       7235.7306       1.6072500       2.8177500      0.54575000       343.08300       3.0737070     0.011609988
       2508.0000       290.79083       99551.091       7227.7038      0.39875000       3.6130000      0.43200000       342.97000       3.4912582     0.014725603
       2513.0000       290.89978       99553.217       7273.4115      0.44925000       4.1095000     0.076250000       342.10300       5.2981465     0.014298548
       2518.0000       290.95968       99549.162       7302.3047      0.75625000       2.9210000      0.22075000       342.54200       5.1398692     0.011734727
       2523.0000       291.04210       99546.987       7349.4359       1.1920000       2.1182500     -0.57625000       342.60300       3.2660276     0.011050812
       2528.0000       291.12165       99551.054       7401.9179       1.7807500       2.2310000     -0.74125000       342.52000       5.7960523     0.013069957
       2533.0000       291.16952       99552.329       7445.4464       1.8945000       3.8170000     -0.60675000       342.35100       3.7018300     0.010332209
       2538.0000       291.20989       99549.523       7499.6526       2.7025000       3.1055000     0.017250000       342.13800       4.9328831     0.010922221
       2543.0000       291.28112       99551.985       7572.3758       1.9357500      0.69625000     0.047500000       343.19700       5.2388797     0.013360845
       2548.0000       291.31801       99556.824       7648.4378      0.80925010       3.5152500      0.24750000       343.26100       2.6304672     0.010751553
       2553.0000       291.31423       99554.863       7766.7072       1.0327500       1.4302500    -0.044500000       343.22000       4.9599022    0.0096207278
       2558.0000       291.30301       99554.111       7815.9616      0.88350000       1.3377500     0.021000000       342.73900       4.4478226     0.017043365
       2563.0000       291.31122       99564.040       7857.5582       1.9030000       1.5040000      0.26625000       342.83900       3.5874644     0.010715767
       2568.0000       291.25722       99567.612       7850.9898       1.8542500       1.9297500     -0.29800000       342.80500       4.3757762     0.011582698
       2573.0000       291.10839       99559.867       7736.0729       2.5612500       2.8950000     -0.88525000       342.29700       3.3106209    0.0099127374
       2579.0000       291.01477       99559.213       7665.6980       1.4062500       2.2975000    0.0017500000       342.87700       6.1993876     0.012350813
       2584.0000       290.95338       99567.989       7615.9807       2.0927500       2.7482500     0.056250000       342.17400       6.2058827     0.010952260
       2589.0000       290.86332       99565.942       7563.7726       1.0912500       1.2217500    -0.015750000       343.18000       3.0473329    0.0091147337
       2594.0000       290.79872       99554.503       7523.4783      0.81800000       2.2807500     -0.20150000       342.52200       7.6805786     0.021045527
       2599.0000       290.72547       99554.265       7491.5980       3.0375000       2.5210000     0.042000000       342.37400       2.4617463    0.0077096942
       2604.0000       290.60410       99558.409       7452.4776       2.3602500       2.4842500      0.35125000       342.73100       2.6359500    0.0094377836
       2609.0000       290.50770       99554.085       7427.0251       2.0537500       2.5160000     -0.25475000       342.49100       2.4015190    0.0090246327
       2614.0000       290.41682       99548.473       7412.2630       1.6607500       1.0502500     -0.39000000       342.79200       2.3635838     0.011506662
       2619.0000       290.37441       99550.985       7419.0388       1.8637500       2.1935000     0.086500000       342.60000       3.4628632     0.010790035
       2624.0000       290.34891       99551.675       7447.4196       1.8072500       1.4705000      0.14775000       342.17700       6.6786394     0.021570748
       2629.0000       290.33649       99549.102       7463.6242       2.2655000       1.8422500     -0.23550000       342.23100       4.4298646     0.014694343
       2634.0000       290.36896       99553.051       7485.8448       2.8437500       2.3627500     0.039250000       342.37900       6.0794943     0.017715926
       2639.0000       290.41229       99557.645       7524.1370       1.9235000       2.1940000      0.57375000       342.63800       4.0429137    0.0098104247
       2644.0000       290.46294       99554.515       7548.5551      0.52325000       1.8042500      0.22100000       342.76300       4.9328946     0.011506239
       2649.0000       290.51610       99554.257       7602.6645       2.8165000       1.0082500     0.034250000       342.46900       4.3581310     0.018350242
       2654.0000       290.62715       99567.904       7706.4745       2.2522500       2.9597500     -0.85725000       342.50200       3.0153906    0.0099780103
       2659.0000       290.67960       99567.999       7783.7459      0.72850000       2.7735000      0.41575000       343.22000       4.2292526     0.017353806
       2664.0000       290.70712       99549.532       7902.3148       1.0930000       2.1957500     -0.21275000       342.69900       4.2510080     0.013680173
       2670.0000       290.70725       99548.410       7928.4948       1.6792500       1.7382500     -0.42675000       342.34200       3.1691613     0.019301026
       2675.0000       290.65791       99557.741       7886.7005      0.64000000       2.2842500     -0.38400000       342.87600       4.3041863     0.013835186
       2680.0000       290.63803       99554.552       7855.5873       1.7290000       2.5097500     -0.76900010       342.35600       2.6890149     0.011232161
       2685.0000       290.57830       99548.576       7753.4792       1.2167500       1.7222500    -0.079250000       342.55100       2.1081709     0.011237590
       2690.0000       290.59685       99551.105       7704.6944       1.5457500       2.3665000     -0.50875000       342.15300       2.2611730     0.014616681
       2695.0000       290.67027       99551.759       7681.7063       1.3370000       1.1565000      0.13200000       342.98700       2.2323920     0.012564390
       2700.0000       290.72670       99547.829       7661.5179       1.1620000       2.1645000     -0.54425000       341.75600       2.1296454    0.0093060655
       2705.0000       290.80737       99548.612       7627.0705      0.50600000       1.2235000      0.52650000       342.68300       2.4322026     0.015403818
       2710.0000       290.90461       99552.685       7649.5925       1.1722500       1.6325000     -0.12150000       342.06900       2.1778408     0.012306506
       2715.0000       291.02848       99548.627       7717.6182      0.61275010       1.3820000      0.21850000       342.89100       2.4630585    0.0095671865
       2720.0000       291.10266       99549.485       7776.9366       1.7100000       2.2515000     -0.47175000       342.47100       2.2193468     0.015376148
       2725.0000       291.19844       99565.909       7893.5954      0.77525000       2.7487500      0.11050000       342.24500       2.1349447     0.010409762
       2730.0000       291.23904       99569.355       7941.1697      0.81675000       1.8932500     -0.28125000       342.11800       2.1356053     0.013084177
       2735.0000       291.21096       99559.171       7956.8575       1.7092500       1.9195000     -0.13975000       341.88100       2.1461884     0.010885929
       2740.0000       291.19489       99559.408       7968.7381       1.0022500       1.5585000     -0.21900000       342.76500       2.2621410     0.016185197
       2745.0000       291.14692       99568.952       7929.9599      0.62850000      0.78875010      0.36400000       343.19800       2.3786085     0.015792787
       2750.0000       291.14312       99564.342       7940.9233      0.53350000       1.8560000     0.038500000       343.02100       2.1392039     0.014334332
       2755.0000       291.14297       99548.978       7985.5564      0.54350000       2.2117500     -0.36150000       342.65500       2.1762849     0.011090565
       2761.0000       291.15182       99549.335       7988.7733       1.1835000       2.3305000     -0.13400000       342.42700       4.1492823     0.018986314
       2766.0000       291.21194       99551.251       7996.0882       1.0777500       1.8275000     -0.37300000       342.27500       3.8297160     0.018062290
       2771.0000       291.20462       99547.274       7984.5490     -0.22200000       1.4280000      0.44300000       343.03600       5.0928003     0.011938952
       2776.0000       291.17200       99550.537       7942.4500       1.3362500       1.2650000    -0.024250000       343.08000       4.1964635     0.019977506
       2781.0000       291.11506       99552.697       7900.6110      0.67100000      0.30525000      0.59200000       342.85200       3.0309127     0.013678288
       2786.0000       291.01625       99541.993       7858.8157       1.2725000      0.94325010      0.29125000       343.22100       2.4236298     0.011249962
       2791.0000       290.94595       99545.641       7813.4775      0.16425000       1.1067500     0.070000000       343.39600       3.6460383     0.013124021
       2796.0000       290.83978       99568.330       7744.0365      0.48150000       1.5015000     -0.24775000       342.53700       3.8581422     0.014494692
       2801.0000       290.81601       99568.132       7700.1348      0.91375010       2.9190000     -0.32575000       342.20700       5.5992349     0.014057061
       2806.0000       290.85229       99553.927       7669.8931      0.32150000       1.9485000     -0.34400000       342.65300       3.5938095     0.018734113
       2811.0000       290.84226       99554.677       7641.6885    -0.055500000       1.9542500      0.24975000       342.76900       5.1672991     0.015744193
       2816.0000       290.85736       99556.757       7612.6297     0.016750000       2.5320000      0.18600000       342.59700       5.6089211     0.021210115
       2821.0000       290.84877       99551.914       7603.0549       1.9550000       2.5552500      0.50450000       343.32400       3.6192207     0.012072301
       2826.0000       290.80639       99548.968       7611.7363       1.0595000       2.5882500      -1.4650000       342.57200       4.6333795     0.015633520
       2831.0000       290.77676       99551.729       7611.1938       1.7717500       2.2170000     -0.24550000       342.39500       5.5936668     0.016066557
       2836.0000       290.75493       99549.935       7618.2249       1.2447500       1.2695000      0.28150000       342.62600       4.6361098     0.018013334
       2841.0000       290.73475       99547.867       7623.0618       1.0902500       2.4500000     -0.27325000       342.13300       2.4122846     0.013924321
       2846.0000       290.68892       99558.522       7623.4643      0.95575000       2.5570000     -0.19525000       342.02500       2.6440029     0.017567886
       2852.0000       290.71556       99535.725       7622.9561      0.74350010      0.98275010     0.054250000       342.64400       3.0912162     0.015237551
       2857.0000       290.74425       99530.613       7636.8923       1.8447500       1.8622500      0.43725000       342.43200       4.8100902     0.018364126
       2862.0000       290.83076       99549.809       7673.8885       1.6517500       2.3797500     -0.43650000       341.80400       4.6456187     0.018249873
       2867.0000       290.86304       99552.135       7690.7817       1.2997500       1.3582500     -0.21500000       342.17700       5.0174755     0.019072177
       2872.0000       290.87074       99550.781       7703.6049       1.4230000       1.0405000     -0.17450000       342.93600       2.2322063     0.015837295
       2877.0000       290.86403       99553.114       7728.5377       1.3467500      0.83675000      0.17025000       343.20600       2.1770793     0.015107078
       2882.0000       290.83082       99548.423       7720.3164      0.45700000      0.63825010      0.60050000       343.00600       2.4617866     0.021476029
       2887.0000       290.73770       99525.671       7676.6927      0.94250010      0.33825000      0.52475010       343.27400       2.6482184     0.018421780
       2892.0000       290.74539       99547.032       7685.0499      0.50150000       2.8895000     -0.22875000       342.26700       3.5259197     0.025026267
       2897.0000       290.74415       99552.568       7688.1667     -0.14750000       2.6680000      0.59525000       342.59200       4.8702805     0.017744669
       2902.0000       290.78548       99552.517       7718.5901       1.0155000       2.0465000      0.27175000       342.99700       3.2852615     0.016863179
       2907.0000       290.80642       99556.746       7731.0328       2.4537500       1.7630000     -0.32325000       342.53600       2.4990381     0.020570996
       2912.0000       290.81516       99555.332       7720.5071       2.3785000       1.6532500     0.068250000       342.42000       4.0939019     0.024509752
       2917.0000       290.80658       99550.390       7716.1554       1.9332500      0.39925000      0.59650000       342.89500       3.0147433     0.022993640
       2922.0000       290.78570       99545.461       7710.8460       1.7580000      0.32475000      0.48025000       343.26900       2.4513702     0.015416263
       2927.0000       290.73155       99544.131       7689.7536       1.6015000      0.62325000     -0.10625000       343.26300       2.3168133     0.020821917
       2932.0000       290.77591       99548.389       7722.1205       1.3797500       1.5790000      0.41700000       342.94800       2.2762425     0.020411752
       2937.0000       290.84989       99550.520       7783.7281       2.2572500       2.4835000    -0.050750000       342.72700       2.6686863     0.021731629
       2943.0000       290.96462       99553.036       7819.9844       1.3285000      0.78550000      0.51350000       343.91500       6.3676178     0.025190490
       2948.0000       290.97946       99556.692       7851.7527       1.6215000      0.72450010      0.31200000       342.81500       4.0542719     0.017925036
       2953.0000       290.85558       99550.015       7860.9552       1.3757500       1.6830000      0.12300000       343.43300       2.9387408     0.022217682
       2958.0000       290.78628       99548.425       7860.9890       1.4702500       2.0192500     -0.40675000       342.81400       4.9828937     0.020721691
       2963.0000       290.68558       99562.774       7869.2957       1.4015000       1.1775000    -0.074000000       343.45600       2.7850679     0.018458223
       2968.0000       290.62838       99563.079       7870.6925       1.3502500       2.4887500      0.27475000       343.43500       2.7948696     0.018957775
       2973.0000       290.61039       99544.626       7850.6189       1.6895000       1.4215000      0.37125000       343.35000       4.8187505     0.019085500
       2978.0000       290.59175       99543.235       7828.3004       2.3067500       3.5375000     -0.73800000       342.86600       3.1509117     0.017896317
       2983.0000       290.58612       99552.655       7804.7628       2.4260000       2.6637500     -0.39075000       342.63500       4.6747889     0.015450914
       2988.0000       290.59744       99550.587       7787.3229       1.8050000       1.8352500      0.48200000       343.27200       2.4510589     0.021603356
       2993.0000       290.62016       99551.580       7746.7252       2.1642500       1.8810000      0.45025000       343.50800       3.8657568     0.017500635
       2998.0000       290.65131       99552.235       7734.8251       2.2215000       2.1367500     -0.35275000       341.76900       5.2469125     0.021710529
       3003.0000       290.71019       99533.417       7747.6768       1.8847500       2.3122500     -0.42250000       342.69700       3.7305699     0.015529243
       3008.0000       290.75988       99531.301       7763.1360       1.9020000       1.9712500      0.17925000       343.32900       5.7671642     0.022790208
       3013.0000       290.79435       99558.088       7781.9329       1.8400000       1.3000000    -0.057000000       343.22900       7.4641821     0.019033036
       3018.0000       290.85583       99559.155       7823.4736       1.5150000       2.0212500    -0.090750000       343.03500       5.9502168     0.020613600
       3023.0000       291.01360       99539.908       7905.4784       1.4252500       1.2675000      0.18025000       343.11600       3.6691340     0.018249755
       3028.0000       291.02728       99539.249       7952.6128       2.0852500      0.93625000     -0.31175000       343.10400       8.6288868     0.020450301
       3034.0000       290.93526       99535.029       8011.0917       1.2155000       1.2962500     -0.21525000       342.76800       7.1623593     0.015156436
       3039.0000       290.88758       99532.479       8044.6817       1.6327500      0.95475010     -0.23275000       342.81200       2.8087267     0.012809106
       3044.0000       290.70674       99551.433       8041.7817       2.1550000      0.35375000      0.40200000       342.45300       14.480098     0.029620306
       3049.0000       290.65604       99554.125       8048.3036       1.8095000       1.3792500      0.23450000       342.86600       4.9885363     0.016478798
       3054.0000       290.72410       99533.350       8060.1755       1.6177500       1.5025000     0.050250000       341.93000       4.5334820     0.018205999
       3059.0000       290.75821       99532.231       8066.2687       2.5025000       1.3242500     0.058750000       342.42100       5.7555151     0.021794092
       3064.0000       290.84516       99546.139       8077.0561       2.3767500       1.8317500     -0.28725000       341.83700       4.4331987     0.019065638
       3069.0000       290.86760       99546.353       8058.5843       1.2075000       1.7830000      0.37100000       342.72900       3.6293132     0.020869575
       3074.0000       290.85618       99545.984       8018.4188       2.1847500       2.0260000     -0.23875000       341.99100       4.5225630     0.017149047
       3079.0000       290.85238       99546.263       7987.3851       1.8890000      0.91675000     0.046750000       342.19900       3.6282279     0.018797312
       3084.0000       290.77897       99531.682       7916.1759       2.1547500       1.6982500     -0.24050000       342.35200       4.4280639     0.016539542
       3089.0000       290.79044       99532.955       7894.8219       1.6062500      0.45900000    -0.082000000       342.99800       2.9404027     0.021517745
       3094.0000       290.84948       99559.093       7885.0370       1.5190000       1.3440000      0.11825000       342.24800       6.9237220     0.018179505
       3099.0000       290.91611       99558.577       7920.4438       1.8127500       1.3637500     -0.42825000       342.85100       3.6630377     0.018431874
       3104.0000       291.06397       99539.677       8031.7227       1.0917500       1.1625000     -0.63325010       342.46100       3.7842773     0.020749512
       3109.0000       291.13636       99539.373       8087.2524      0.91750000       2.0457500     -0.36225000       342.40000       4.6686732     0.020634214
       3114.0000       291.18868       99532.364       8145.1579       1.5610000       2.1002500      -1.2020000       342.12100       6.2802613     0.021216876
       3119.0000       291.22146       99532.467       8206.3966      0.35650000       1.5055000      0.48400000       344.14300       4.0673039     0.016595933
       3125.0000       291.20001       99563.379       8256.3515      0.24300000       3.1555000     -0.48875000       342.25100       5.5712434     0.015471485
       3130.0000       291.20001       99565.552       8279.9172      0.95400010       3.0047500     -0.21100000       342.73500       5.2270938     0.019731816
       3135.0000       291.21173       99544.170       8333.2533       1.2850000       1.8877500     -0.60000000       342.26700       4.8546394     0.020827126
       3140.0000       291.19573       99542.985       8325.1896      0.81950000       3.7997500      0.29400000       342.73200       6.6543660     0.023905281
       3145.0000       291.14726       99545.221       8243.1817     -0.38000000       2.8502500     -0.97875010       342.71500       4.7293955     0.019108728
       3150.0000       291.14361       99543.917       8202.7029       1.0127500       1.9032500     0.075000000       343.08400       4.6783931     0.026404457
       3155.0000       291.14327       99552.587       8163.1597     0.037750000       3.0660000      0.46000000       343.51800       3.0866846     0.015416243
       3160.0000       291.14954       99551.067       8112.4170    -0.064000000       3.6992500     -0.88975010       342.60200       3.5176191     0.015842674
       3165.0000       291.19972       99532.541       8055.3491      0.34925000       1.5095000     0.098750000       343.18600       4.0091001     0.015184690
       3170.0000       291.21358       99532.532       8014.6289      0.54125010       2.4997500     -0.44300000       342.25400       3.5769605     0.011704693
       3175.0000       291.20019       99546.289       7961.3775      0.69700000       3.4862500     -0.63575010       342.47900       5.2443292     0.017122136
       3180.0000       291.20013       99545.998       7933.7063       2.1070000       3.6842500      -1.0110000       341.87900       4.7504129     0.024755069
       3185.0000       291.20025       99546.474       7937.3759       1.0485000       3.7435000     -0.27525000       342.20600       4.1884364     0.021091451
       3190.0000       291.20037       99546.296       7930.3528       1.2965000       2.9775000      0.61550000       342.79600       3.1848578     0.015724562
       3195.0000       291.19977       99532.290       7930.9387     -0.29825000       2.2632500      0.10600000       342.57300       3.6441821     0.017847676
       3200.0000       291.19966       99533.483       7920.9650      0.25575000       1.9297500    -0.010250000       342.48100       2.6493462     0.019499780
       3205.0000       291.18882       99551.910       7894.0665      0.89925000       1.6847500     -0.54075000       342.18300       3.6687007     0.019641228
       3211.0000       291.20981       99551.950       7907.7813      0.87375000       2.5612500      0.10700000       342.38300       5.2399430     0.018589695
       3216.0000       291.23800       99544.054       7924.3169      0.89425000       1.6247500     0.055500000       342.51400       4.5045895     0.019302896
       3221.0000       291.27678       99545.867       7963.3968      0.74250000       1.6560000     -0.68450000       342.18600       3.3643074     0.014219433
       3226.0000       291.35782       99543.253       8051.6924       2.5177500       2.1180000     -0.14325000       342.63600       4.4519237     0.020831433
       3231.0000       291.37014       99545.840       8089.5583       1.1617500       1.9822500     -0.30075000       342.60600       3.5215872     0.014472478
       3236.0000       291.35745       99565.990       8112.9493       1.5295000      0.95550010     -0.14500000       342.93700       3.6912404     0.016390587
       3241.0000       291.34806       99559.852       8140.8162       2.0757500       1.6112500      0.44125000       343.24300       3.8887545     0.016834307
       3246.0000       291.30578       99534.721       8160.9678       3.4707500       2.5295000      0.82100000       342.92200       3.0393808     0.015655374
       3251.0000       291.27545       99530.449       8161.6324       2.5962500       1.9305000     0.043250000       342.46000       4.2219488     0.013521006
       3256.0000       291.24495       99521.055       8159.3387       1.3297500       2.4640000    -0.054000000       343.25500       2.7216088     0.014025904
       3261.0000       291.24390       99525.144       8149.5295       1.3060000       3.4192500     -0.12400000       342.54500       5.1004107     0.017702020
       3266.0000       291.24276       99554.666       8111.9593       1.9277500       2.4727500     -0.13075000       342.10300       6.8890215     0.022227994
       3271.0000       291.25149       99552.506       8089.7738      0.91550000       3.4892500     -0.14100000       341.71600       4.1368819     0.018697831
       3276.0000       291.29372       99533.529       8071.4215       1.0332500       1.9235000      0.30300000       342.59100       4.6396904     0.019017075
       3281.0000       291.32347       99535.125       8062.6730      0.73700000       2.1637500      0.17050000       342.67500       3.7673421     0.013991096
       3286.0000       291.33569       99533.374       8042.7096       1.4202500       1.6830000      0.75425000       343.12200       4.5941142     0.015228944
       3291.0000       291.37479       99534.159       8059.2136     -0.22500000       3.2462500      0.21475000       342.04600       5.3858932     0.015541761
       3296.0000       291.44867       99555.076       8108.2148      0.66325000       2.8340000     -0.55350000       341.78100       2.6739993     0.015083133
       3302.0000       291.54411       99526.774       8174.8216      0.64475010       2.4780000    -0.078750010       342.70600       3.3169656     0.020827567
       3307.0000       291.53145       99520.664       8197.9083      0.50550000       1.7245000     -0.35650000       342.06800       4.4513417     0.016454098
       3312.0000       291.37974       99534.313       8177.1652    -0.067500000       2.3647500     0.019000000       342.52300       5.4959451     0.018451666
       3317.0000       291.30058       99535.344       8170.4668      0.81725000       3.0327500     -0.10850000       341.85200       3.5440369     0.016228742
       3322.0000       291.22141       99536.361       8158.3971      0.53525000       2.5282500    -0.050250000       342.83200       4.4116910     0.017365463
       3327.0000       291.08784       99549.877       8134.9703    -0.059500000       2.3300000     -0.16100000       342.11200       5.1277871     0.013106896
       3332.0000       291.01045       99543.713       8083.7649      0.35400000       2.7532500     -0.22450000       342.11600       4.2514863     0.015779081
       3337.0000       290.99394       99515.647       8028.5772      0.98275010       1.9610000     -0.33625000       342.35400       4.7320822     0.017655902
       3342.0000       290.96011       99533.012       7950.7780       2.5832500       1.9110000     -0.36650000       342.56000       6.5988224     0.024793322
       3347.0000       290.93738       99536.265       7886.7018       2.2227500       1.6445000      0.39600000       342.51700       3.1960269     0.018933638
       3352.0000       290.98526       99546.822       7842.8160       1.0795000       1.1450000      0.21350000       342.54900       3.6521291     0.020610477
       3357.0000       291.00595       99549.530       7810.3557       1.6607500       1.9630000     -0.16225000       342.76100       5.4954222     0.016908802
       3362.0000       290.98483       99521.163       7769.3278       1.7932500       1.1682500     0.041000000       342.54100       4.5043702     0.019891636
       3367.0000       290.99341       99515.111       7753.8019       1.8270000      0.93275000      0.19175000       342.58600       4.6993466     0.018155210
       3372.0000       291.01429       99518.878       7758.9384       1.6020000      0.88625000      0.12550000       342.43600       3.0519517     0.012999194
       3377.0000       291.03574       99535.150       7788.2886       2.0717500       1.5490000     -0.42050000       342.27500       9.9584482     0.019560009
       3382.0000       291.09895       99539.365       7832.5217      0.71200000       1.3095000     -0.24075000       342.16200       4.3050271     0.017248365
       3387.0000       291.20587       99555.094       7904.5898      0.15350000       1.4290000   -0.0090000010       342.58000       6.5052791     0.019257330
       3393.0000       291.28079       99524.840       7977.7832      0.30725000      0.85950010    -0.041000000       342.75100       4.6830277     0.016223482
       3398.0000       291.31889       99520.511       8014.1168     0.044750000      0.71600000    -0.054250000       342.63900       6.8907552     0.023411598
       3403.0000       291.31446       99534.520       8024.9463      0.83400010      0.90600000     -0.19000000       342.91000       4.6797035     0.020840098
       3408.0000       291.30344       99535.548       8024.7788      0.91375010       1.0757500    -0.032250000       342.82700       6.3614370     0.018522121
       3413.0000       291.28129       99548.387       8004.0817      0.46775000      0.82950000    -0.059000000       342.99500       4.2054990     0.018117781
       3418.0000       291.24978       99549.358       7981.3756       1.2040000      0.93925010      0.25500000       343.38200       4.5530007     0.016495590
       3423.0000       291.16233       99519.567       7921.1318      0.79975000       2.0110000     -0.37150000       342.11400       4.3988502     0.017834532
       3428.0000       291.13511       99515.671       7902.0026      0.75350000       1.7955000      0.19050000       342.57000       3.3283193     0.017119600
       3433.0000       291.14443       99533.774       7916.1476      0.24425000       1.3000000     -0.14400000       342.22300       3.2762114     0.017920833
       3438.0000       291.14578       99536.749       7909.8128       1.1627500       1.1812500     -0.23375000       342.59900       3.9179964     0.022111012
       3443.0000       291.19092       99548.052       7923.5117      0.34300000       2.3112500      0.20975000       342.89700       2.2954934     0.015230525
       3448.0000       291.20939       99549.040       7919.2628      0.87375000       3.1827500     -0.42625000       342.87500       2.6244805     0.017545984
       3453.0000       291.20001       99519.167       7873.5442       1.9087500       2.3737500     -0.85825000       342.87800       3.5150414     0.018054193
       3458.0000       291.19998       99515.079       7855.9731      0.62600000       3.9232500     -0.53125000       342.12300       4.7995880     0.016677967
       3463.0000       291.21457       99533.219       7856.5831       2.0292500       3.2005000     -0.78800000       342.10900       4.6964814     0.020736124
       3468.0000       291.20326       99536.111       7849.4357       1.6510000       2.1922500     -0.50300000       342.39500       3.7541424     0.014028524
       3473.0000       291.19474       99540.732       7867.1862       1.1685000       2.0310000     -0.31825000       342.12500       5.8007647     0.015274033
       3478.0000       291.15238       99547.592       7851.3812      0.94075010       2.2677500    -0.014500000       342.07400       5.7322195     0.017541778
       3484.0000       291.00174       99545.837       7772.3001      0.51725000       2.7332500     -0.48500000       341.92500       3.2393589     0.014837183
       3489.0000       290.97205       99544.165       7759.8639       1.6137500       1.6645000     -0.45400000       342.13600       5.9912586     0.014036134
       3494.0000       290.98618       99548.701       7761.5873       1.0035000       2.5625000      -1.1472500       342.31600       2.7737069     0.018143635
       3499.0000       290.99375       99552.316       7768.6570      0.29000000       2.7372500     -0.22575000       342.45700       3.2761822     0.015907208
       3504.0000       291.07740       99555.618       7824.7456       1.1150000       3.7370000      -1.1330000       342.25900       3.7447179     0.012857860
       3509.0000       291.12379       99549.511       7858.8218       1.8635000       2.7252500     -0.78950010       342.29300       2.4563605     0.020988160
       3514.0000       291.12572       99536.487       7871.5342     -0.18375000       2.4655000      0.40700000       342.37100       4.5637395     0.012810345
       3519.0000       291.15990       99533.961       7899.4261       1.0550000       3.1535000    -0.092750010       341.86600       3.6949928     0.014798348
       3524.0000       291.23399       99521.804       7940.2024      0.64325000       2.7897500     -0.22375000       342.13300       3.5181740     0.013935334
       3529.0000       291.27059       99522.420       7977.9458      0.76050000       2.2050000     -0.11175000       341.66600       5.2026094     0.015342246
       3534.0000       291.26989       99553.027       8003.9029      0.28025000       1.8857500      0.12025000       342.45000       4.6571104     0.014564912
       3539.0000       291.31361       99554.953       8055.0158       1.3035000       1.7322500     -0.26025000       342.11600       2.9406632     0.014169305
       3544.0000       291.38894       99536.557       8145.1851      0.38625000       1.7715000    -0.026000000       342.65700       2.7029314     0.013869134
       3549.0000       291.41502       99533.998       8188.4096      0.18100000       1.5840000    -0.017000000       342.67000       4.4867740     0.015503699
       3554.0000       291.43999       99521.311       8244.8815      0.99000010       2.1380000    -0.012250000       342.74700       2.6344059     0.013785111
       3559.0000       291.46638       99522.033       8252.4894      0.14600000       1.4167500      0.41775000       343.37900       3.5042573     0.017363285
       3564.0000       291.48164       99552.616       8210.5271      0.51750000       3.0192500     -0.11300000       341.81400       5.7870775     0.018566347
       3569.0000       291.44374       99554.646       8155.1872    -0.072000000       2.6407500     -0.12450000       342.10100       3.8656899     0.014252691
       3575.0000       291.38292       99536.639       8034.1355      0.78900000       3.1667500     -0.27300000       341.95900       2.3860613     0.014465508
       3580.0000       291.32068       99532.625       7969.2261      0.48025000       1.9277500      0.47675000       342.72700       4.9614282     0.017432080
       3585.0000       291.18272       99515.715       7909.7410      0.58150010       1.8020000     0.073000010       343.04500       4.0422214     0.015010745
       3590.0000       291.08975       99517.720       7837.5878       1.3980000       1.6455000    -0.034000000       341.66500       5.3985178     0.018420351
       3595.0000       291.01887       99546.291       7782.5066      0.51500000       2.0462500    -0.032000000       342.43700       3.8072619     0.015550083
       3600.0000       290.96531       99550.180       7717.6739      0.23775000       2.8267500     -0.60975000       342.20100       4.5807948     0.015735418
       3605.0000       290.91323       99549.721       7610.1383      0.55575000       2.6795000    -0.060250000       341.72500       4.2056426     0.018511506
       3610.0000       290.86927       99544.659       7561.0686      0.30650000       2.5802500     -0.71975000       341.93900       5.0885373     0.013855267
       3615.0000       290.84591       99518.294       7541.7535      0.93850000       1.9277500     -0.76300000       342.53100       2.8338280     0.015164890
       3620.0000       290.84194       99514.895       7534.0896      0.38825000       2.3552500     -0.53000000       342.35500       4.5201717     0.014056387
       3625.0000       290.84302       99523.124       7572.1934       1.0265000       1.0120000      0.30275000       343.16500       4.0271782     0.019485761
       3630.0000       290.84934       99526.379       7567.1895       1.0325000       1.0857500      0.46875000       342.75900       4.5330174     0.018233353
       3635.0000       290.87674       99543.394       7524.4786       1.1380000       1.5615000     -0.71750000       343.02700       5.4810061     0.015180381
       3640.0000       290.92256       99542.696       7556.5691      0.96775010       1.3265000    -0.092500000       342.06000       5.6698388     0.018158836
       3645.0000       290.98258       99525.622       7596.6140      0.23175000       1.0652500      0.42175000       342.96600       3.0065101     0.016131830
       3650.0000       291.02298       99522.872       7665.9688      0.57975000      0.71975000     0.025000000       342.56300       3.7815203     0.015966872
       3655.0000       291.09752       99515.777       7843.8714      0.77250000      0.88050000    -0.079500000       341.90500       4.7465805     0.015058883
       3660.0000       291.12539       99520.551       7907.6837      0.52525000       1.1015000    -0.064250000       341.75500       3.0391431     0.017347856
       3666.0000       291.09993       99547.570       7930.9833      0.68575000       1.1047500     0.097500000       342.47800       4.1254040     0.015407414
       3671.0000       291.09999       99550.236       7925.9776      0.33525000      0.63000010     -0.24250000       342.15800       2.6471377     0.013105077
       3676.0000       291.09977       99550.059       7853.4778      0.40650000       1.2200000     0.068250000       342.48200       2.2565169     0.016662126
       3681.0000       291.09966       99541.901       7836.6041       1.0880000      0.78075000     0.062250000       342.98400       2.8243858     0.012477207
       3686.0000       291.09105       99512.002       7822.8013      0.48125000      0.65050010     -0.18800000       341.77100       7.4562195     0.016730493
       3691.0000       291.11018       99510.241       7815.3854      0.16600000      0.67950000      0.21575000       342.30000       4.0303549     0.019626524
       3696.0000       291.15449       99517.831       7829.8876      0.60325000      0.75400000      0.35475000       343.11000       5.4913273     0.012723976
       3701.0000       291.15542       99522.427       7827.6692      0.57300000       1.2337500      0.23650000       342.85600       3.3980930     0.011855176
       3706.0000       291.13855       99544.339       7789.6513      0.94525000      0.97275010    -0.097500000       342.55700       3.4418701     0.015792235
       3711.0000       291.16724       99543.306       7840.6591      0.88475010      0.62075000     -0.17975000       342.27400       2.7338328     0.014509833
       3716.0000       291.18900       99524.660       7956.1674      0.39500000      0.63575010     0.046000000       342.53000       2.5925398     0.015092707
       3721.0000       291.21745       99522.420       7993.4352      0.35125000       1.2717500    -0.094750000       343.03000       3.0309995     0.013672638
       3726.0000       291.30590       99517.641       8078.4098     -0.25300000       1.2702500      0.10675000       343.33600       3.0863502     0.020278606
       3731.0000       291.32849       99520.064       8062.7238      0.24150000       1.1295000     -0.14050000       342.01200       5.1654310     0.013649864
       3736.0000       291.29948       99536.310       7922.7484      0.42850000       1.2050000     -0.15500000       342.00400       2.8918558     0.011320810
       3741.0000       291.29936       99538.677       7888.6515      0.65900000       1.4940000     0.020750000       341.84600       2.8639078     0.013624343
       3746.0000       291.30918       99538.724       7846.1439      0.79300000       1.2495000    -0.036500000       342.07100       7.5900080     0.019400687
       3751.0000       291.29049       99532.271       7876.9478      0.62725000       1.0665000     0.038500000       342.35800       3.1547836     0.017126691
       3757.0000       291.26160       99512.552       8005.6710       1.0327500       1.3692500      0.27900000       342.42000       3.9057932     0.012161844
       3762.0000       291.15447       99512.329       8029.6148      0.23800000       1.3800000     -0.33450000       342.67000       3.8565703     0.019289158
       3767.0000       291.09371       99512.863       8055.3650      0.83525000       1.3875000     -0.52600000       342.30600       3.4943277     0.013558359
       3772.0000       291.04524       99518.326       8060.9309      0.42325000       1.0072500     -0.19175000       342.43900       2.6187163     0.014711682
       3777.0000       290.97413       99538.905       7995.7392       1.3135000       1.7720000     -0.19225000       341.98900       2.1427053     0.015549828
       3782.0000       291.00006       99536.938       8031.0415       1.8015000       1.1035000      0.37300000       342.44200       2.1985823     0.014877078
       3787.0000       291.10039       99525.730       8123.1321      0.87825010       1.2682500     -0.13425000       342.10500       2.2376907     0.015553817
       3792.0000       291.14053       99510.229       8146.3122       1.0550000      0.62225000     0.048750000       342.49200       2.2055840     0.014364680
       3797.0000       291.20059       99506.373       8184.6096       1.4675000       1.2630000      0.20725000       342.67400       3.5997534     0.014809985
       3802.0000       291.24583       99519.469       8211.7298       1.2155000       1.0240000    -0.081750010       341.96400       3.3604337     0.013796820
       3807.0000       291.29429       99525.443       8222.4089      0.69625000      0.92175010     -0.23575000       342.78400       2.8837138     0.016648788
       3812.0000       291.37003       99540.361       8235.4652      0.37300000       1.6187500     -0.40775000       342.40700       2.9438326     0.015945881
       3817.0000       291.44943       99544.147       8258.0226      0.81975000       1.6675000     -0.13175000       342.76000       3.0012780     0.018616242
       3822.0000       291.52882       99540.559       8275.8821       1.2470000      0.92675010      0.17575000       342.78700       2.3522822     0.010716820
       3827.0000       291.60422       99524.393       8257.7646      0.23675000      0.33675000      0.47025000       343.35300       2.1455314     0.012295735
       3832.0000       291.65313       99522.647       8297.7206      0.94150010      0.53350000      0.58100000       343.20500       2.5102460     0.017502232
       3837.0000       291.71140       99516.740       8386.9524       1.6102500       1.4030000      0.21100000       342.75200       2.2243746     0.016689581
       3843.0000       291.72831       99542.856       8427.5250      0.98900000       1.5162500      0.28500000       342.50600       3.8371011     0.018415570
       3848.0000       291.70628       99549.352       8422.1489      0.73725000       1.4362500     -0.28700000       343.37700       5.1649371     0.019377277
       3853.0000       291.66062       99551.309       8355.3292      0.93650010       1.2477500      0.20325000       342.59700       5.9142211     0.020079698
       3858.0000       291.59872       99547.479       8295.0634       1.7812500       2.1622500     -0.72400000       342.25500       3.9958363     0.017111030
       3863.0000       291.46742       99518.852       8211.3454      0.54750000       2.4402500    -0.052250000       342.38900       4.4113546     0.017562386
       3868.0000       291.37873       99510.741       8133.0557       1.5282500       1.7972500      0.82450000       343.40300       4.2981109     0.020177126
       3873.0000       291.27195       99511.983       8033.8899      0.96225010       1.8340000    -0.094000000       342.74800       3.7152358     0.021436563
       3878.0000       291.22560       99513.432       7964.9158      0.54175000       1.5132500      0.19900000       343.24500       4.3835652     0.017037176
       3883.0000       291.25832       99532.430       7907.2709      0.54725000       1.8272500     -0.62775000       342.62200       4.1094263     0.014521191
       3888.0000       291.24835       99539.036       7860.2807      0.51175000       2.0660000     -0.16425000       342.94600       5.2002408     0.017474816
       3893.0000       291.28432       99538.738       7844.3530      0.16150000       1.6472500      0.16325000       343.43900       5.2154660     0.016304467
       3898.0000       291.26029       99536.349       7817.8082      0.68825000       1.3210000    -0.059250000       343.26900       9.6947408     0.018111296
       3903.0000       291.15610       99520.217       7795.7356      0.57500000      0.90350000      0.30675000       343.28400       5.5597178     0.019413000
       3908.0000       291.08647       99517.688       7767.5884      0.57600000      0.44175000      0.54450010       344.21400       6.5701007     0.021721487
       3913.0000       291.00123       99519.114       7723.9980       1.1925000       2.4822500     -0.33825000       342.87800       3.7660814     0.016266324
       3918.0000       290.93246       99523.572       7700.6740     0.063250010       2.0122500     -0.79000000       342.00600       3.8421466     0.017895855
       3923.0000       290.86235       99548.205       7676.4010      0.94600000       1.9357500      0.25325000       342.64400       2.8778648     0.021535032
       3928.0000       290.83475       99554.524       7670.9627      0.40100000       1.7052500      0.19200000       343.16300       3.8451982     0.015286352
       3934.0000       290.84395       99550.267       7700.4407      0.33600000       1.8580000     -0.44450000       342.54500       5.8844980     0.021798482
       3939.0000       290.84780       99544.817       7715.7852       1.1810000       1.8915000     -0.48075000       342.10600       3.6864547     0.017144464
       3944.0000       290.85598       99521.553       7719.4445      0.68000000       2.3812500    -0.083000000       342.55600       4.0247927     0.015597646
       3949.0000       290.91297       99515.442       7754.8663     0.058500000       2.3152500     -0.23250000       342.61600       9.1734784     0.019162637
       3954.0000       291.01195       99514.681       7799.6354      0.18100000       2.9975000  -0.00050000000       342.45900       2.4173402     0.012796061
       3959.0000       291.07214       99519.656       7857.1543      0.76050000       2.6337500     -0.13400000       341.87000       3.4049862     0.017069463
       3964.0000       291.14604       99543.252       7942.2498      0.60275000       2.1620000      0.22425000       342.50400       3.8884874     0.013983521
       3969.0000       291.23694       99549.809       8032.6184      0.18800000       1.0852500     0.020750000       342.96700       4.4957412     0.016606819
       3974.0000       291.32964       99556.321       8167.3290       1.2480000       2.0087500     -0.24625000       342.89900       4.9903170     0.018004797
       3979.0000       291.37639       99551.732       8230.7514      0.14500000       3.0422500     -0.86575000       342.98800       7.2411807     0.017466214
       3984.0000       291.47326       99521.936       8295.0200      0.37850000       2.7405000    0.0087500000       342.98800       2.5610518     0.016151014
       3989.0000       291.47378       99514.867       8299.4829       1.2107500       1.3075000      0.33150000       342.68400       3.4633022     0.011674588
       3994.0000       291.35544       99512.315       8212.7424       1.0227500       2.9487500     -0.19100000       342.63100       3.3439044     0.018348995
       3999.0000       291.27245       99513.089       8149.1091       1.3435000       1.6957500     -0.18000000       342.63800       2.3799827     0.012725306
       4004.0000       291.12261       99532.498       8048.2682       1.1292500       2.3810000     -0.44300000       342.19600       3.5402606     0.016398736
       4009.0000       291.06402       99539.318       7983.9347       1.8907500       1.4827500      0.14225000       342.36300       3.0617347     0.015468921
       4014.0000       291.04911       99543.697       7920.6749       1.1840000       1.5135000    -0.080750000       342.99400       3.3870486     0.023429524
       4019.0000       291.03632       99541.246       7880.2716      0.69325010       1.8637500     -0.57625000       342.79500       2.7909605     0.013744474
       4025.0000       291.11104       99527.580       7873.3461      0.80625000       1.3812500      0.31275000       342.48600       4.5950635     0.018990533
       4030.0000       291.10896       99521.557       7853.9095     -0.27825000       1.9977500      0.12300000       343.06100       3.9072279     0.014903746
       4035.0000       291.05811       99507.059       7829.0781      -1.2227500       2.4030000      0.59500000       342.83100       4.6885895     0.018762183
       4040.0000       291.03844       99507.800       7826.5014     0.073500000       1.0300000      0.74900000       343.27800       4.4959870     0.017047975
       4045.0000       291.00091       99522.506       7829.7540      -1.0602500       2.8110000     -0.13025000       342.65300       4.3871279     0.020237429
       4050.0000       290.98741       99528.473       7838.6091     -0.39625000       3.2472500     -0.67475000       342.04500       4.7135845     0.015639995
       4055.0000       290.99982       99543.478       7870.3306     -0.15175000       2.6792500     -0.48075000       342.13100       4.1773043     0.016042827
       4060.0000       290.99971       99542.804       7890.0323   -0.0090000010       2.4197500    -0.046750000       342.49700       6.0808688     0.018997932
       4065.0000       291.00024       99527.515       7906.9236     -0.84375010       2.0662500    -0.091750000       342.69800       2.9521302     0.017966283
       4070.0000       291.00041       99521.536       7918.7557      0.58825000       2.3307500     -0.65275000       342.55100       3.8110941     0.015015167
       4075.0000       290.99981       99506.974       7934.3967    -0.089000000       1.4077500      0.47450000       343.18500       5.0718754     0.015288797
       4080.0000       290.99964       99507.714       7936.5211      0.49075000       1.2427500      0.22975000       342.87000       5.2878962     0.018491312
       4085.0000       290.98850       99527.392       7902.0863      0.37500000       1.5017500     -0.30700000       343.16500       3.7155458     0.020518147
       4090.0000       291.00446       99526.919       7926.0510       1.7362500       1.9682500      0.93400000       342.62500       3.3832721     0.015658358
       4095.0000       291.02908       99518.976       7976.8680      0.62900000       1.3167500     0.074750010       342.80500       3.7857470     0.013948900
       4100.0000       291.06546       99521.611       8017.5411      0.83325000       3.1037500      0.31100000       342.83100       2.4563627     0.016670931
       4105.0000       291.15242       99522.051       8105.1405    -0.035750000       1.0845000      0.26600000       342.62300       4.0256150     0.013642397
       4110.0000       291.17039       99518.021       8142.7015      0.82050000       2.4990000      0.87425010       343.04900       2.9604492     0.017940102
       4116.0000       291.16527       99521.859       8155.5367      0.37125000       2.3515000     -0.51375000       342.79600       6.4822136     0.018449822
       4121.0000       291.13796       99520.262       8142.4464     -0.62550000       2.0012500     0.078500000       342.89200       4.6149139     0.015039291
       4126.0000       291.06012       99500.935       8109.4987     -0.59125000       3.3280000     -0.24550000       342.52200       5.1167159     0.020141171
       4131.0000       291.01058       99504.003       8066.7265       1.3407500       2.5857500     -0.18150000       342.67200       4.9607704     0.015593449
       4136.0000       290.94228       99524.224       7981.6668      0.67250000       2.1537500      0.13925000       342.64600       5.0488948     0.021912219
       4141.0000       290.92996       99531.390       7943.4960      0.31775000       2.3497500     -0.85600010       342.40000       4.2022479     0.015029444
       4146.0000       290.95264       99543.785       7925.7821      0.38050000       3.4980000     -0.33550000       342.51400       6.0667010     0.016706821
       4151.0000       290.94282       99541.584       7881.7539      0.21575000       2.1027500    -0.027000000       342.39700       2.7045223     0.017558484
       4156.0000       290.94713       99526.948       7836.2181      0.71525000       3.2907500     -0.49650000       342.40400       4.2670017     0.017282519
       4161.0000       290.95699       99519.026       7806.0979      0.56475000       2.3795000     0.068000000       342.16600       7.4474625     0.023001020
       4166.0000       290.95213       99502.266       7759.4769       1.3472500       3.2042500     -0.61750000       341.95300       4.3712068     0.018112109
       4171.0000       290.94236       99502.647       7738.7369       1.5270000       2.3332500     -0.39325000       342.81200       3.6009838     0.025153006
       4176.0000       290.95738       99512.684       7746.6586      0.16175000       2.5755000      0.42275000       342.73400       3.4064012     0.014765534
       4181.0000       290.94903       99519.294       7752.9907       1.2915000       1.6897500      0.56975000       342.73900       6.4377080     0.024083251
       4186.0000       290.90672       99536.425       7762.7263      0.92325000       1.6927500     -0.66075000       342.45700       3.2909017     0.017504267
       4191.0000       290.87673       99539.834       7770.3711      0.53725000       1.6792500      0.41100000       342.45000       3.4866051     0.018370053
       4196.0000       290.85417       99538.480       7792.8266       1.2800000       1.7287500   -0.0085000000       342.36600       3.3873035     0.014946597
       4201.0000       290.83414       99531.954       7802.6834       1.2007500       1.8500000      0.27700000       343.20000       3.3210747     0.017880170
       4207.0000       290.78706       99514.378       7798.4880       2.1265000       1.3810000     -0.21775000       342.43000       3.2013448     0.015142680
       4212.0000       290.81530       99500.375       7813.5837       2.0437500       1.5592500      0.13100000       342.73200       2.7925939     0.016291741
       4217.0000       290.84389       99496.742       7826.5284       1.3562500       2.6295000     -0.59400000       343.20000       2.4135632     0.015729320
       4222.0000       290.88477       99500.498       7839.9302       1.4090000       1.2025000      0.29075000       343.12400       2.6148902     0.015546990
       4227.0000       290.94992       99514.646       7850.7010       1.0642500       2.2330000     0.010250000       343.07800       2.3673603     0.014598108
       4232.0000       291.00061       99522.971       7878.3462      0.83875010      0.92650000      0.44400000       343.67800       2.1392350     0.016239083
       4237.0000       291.05613       99537.097       7915.1665      0.75900010      0.73025010      0.43375000       342.94600       2.3074380     0.016863636
       4242.0000       291.08543       99544.715       7951.4858       1.7882500       1.6307500    -0.065750000       342.65100       2.1899422     0.016233864
       4247.0000       291.10708       99543.391       7967.9201       2.3407500       2.2390000     -0.30025000       342.47100       2.1907945     0.015136828
       4252.0000       291.11522       99526.889       7961.5091       1.5237500       2.4267500     -0.26600000       342.97000       2.1820963     0.015182800
       4257.0000       291.10656       99519.945       7945.6491       2.8470000       2.0165000      0.16375000       342.61500       2.1589879     0.012757332
       4262.0000       291.07026       99504.755       7905.1078       2.0285000       2.6062500     -0.51350000       342.58400       2.1915083     0.016800969
       4267.0000       291.05058       99500.855       7874.7792       1.5942500      0.92200010      0.86025010       343.32300       2.1228203     0.014059481
       4272.0000       291.03091       99505.579       7843.8271       1.6907500       1.3935000     -0.26900000       342.64900       2.0943938     0.012225555
       4277.0000       291.00060       99525.690       7799.6146       2.4517500       1.4100000     -0.20725000       341.75900       2.0509089     0.013168061
       4282.0000       290.97047       99532.632       7785.5563       2.0225000       1.8207500     -0.39875000       341.89600       2.0751432     0.015099811
       4287.0000       290.95040       99542.624       7787.7228       2.0575000       2.6730000     -0.25525000       341.84100       2.1052642     0.015182774
       4292.0000       290.91496       99541.583       7794.5408       1.6445000       1.2942500     -0.39450000       342.17200       2.0821068     0.013013959
       4298.0000       290.89061       99535.544       7798.1240      0.73025010       1.5927500      0.54225000       342.76900       2.1681927     0.019129095
       4303.0000       290.87172       99521.219       7775.2731       1.5920000       1.4215000     -0.10150000       342.66400       2.0906450     0.017526526
       4308.0000       290.89413       99513.505       7793.9183       2.3460000       2.6090000     -0.10475000       342.16900       2.0736113     0.017679030
       4313.0000       290.96631       99498.650       7844.4027       2.2067500       2.2625000     -0.36975000       341.81300       2.1109565     0.020436524
       4318.0000       291.00632       99496.473       7884.2129       1.6977500       1.5072500     -0.10925000       341.96900       2.0421876     0.011934056
       4323.0000       291.06609       99509.095       7947.9260       1.1065000       1.9850000     -0.33100000       342.26200       2.1339765     0.020687177
       4328.0000       291.11525       99516.291       8006.3205       2.0167500      0.92275010     0.072750000       342.39600       2.0526083     0.011403644
       4333.0000       291.12067       99530.829       8044.8829       1.8597500       1.6595000     -0.45175000       341.95300       2.0972649     0.014264232
       4338.0000       291.15206       99538.486       8098.6808       1.7640000       2.0647500     -0.15000000       341.99300       2.1400052     0.019827100
       4343.0000       291.28160       99543.647       8220.9693       1.9445000       1.5490000     -0.22100000       342.24500       2.1361205     0.019475410
       4348.0000       291.27482       99542.127       8250.1201       1.4430000       2.0440000     -0.11900000       342.74500       2.0489386     0.012888664
       4353.0000       291.15454       99531.631       8220.1354       2.1857500       1.6937500     -0.20450000       341.89200       2.1274273     0.021838889
       4358.0000       291.09400       99524.599       8197.9045       1.1397500      0.75350000      0.12950000       342.50000       2.0404831     0.014831620
       4363.0000       290.92499       99505.651       8078.9187       1.0532500       1.2170000      0.11700000       342.18700       2.0958511     0.016929335
       4368.0000       290.86177       99501.500       8036.7904       1.7122500       1.8430000     -0.20150000       342.41500       2.0748489     0.015039666
       4373.0000       290.92018       99510.260       8036.3084       1.9910000       1.3365000     0.043250000       342.86300       2.1147925     0.019519305
       4378.0000       290.95171       99515.603       8056.1176      0.94775000      0.47425000      0.25650000       343.01600       2.1147999     0.019653892
       4383.0000       291.02467       99530.850       8159.0354       1.3862500       1.1492500      0.37650000       342.81100       2.1526423     0.024429821
       4389.0000       291.07009       99539.706       8196.2115       1.4517500       1.2412500   -0.0037500000       342.70700       2.1285616     0.017963676
       4394.0000       291.08233       99543.736       8206.8124      0.61225000       1.7927500      0.21500000       342.80500       2.1027360     0.015040034
       4399.0000       291.11224       99541.272       8210.0725      0.39750000      0.82775000      0.57350000       343.04200       2.1059368     0.021976619
       4404.0000       291.13743       99530.406       8150.0245       1.8385000       1.5947500      0.19050000       342.38800       2.1100755     0.016865336
       4409.0000       291.15760       99522.925       8131.4296       2.3970000       1.8582500      0.43225000       342.24500       2.1537018     0.021457733
       4414.0000       291.19436       99508.145       8142.4493       1.2070000       1.4860000     -0.62550000       342.09100       2.1945642     0.021726312
       4419.0000       291.21057       99501.232       8138.0682       2.0447500       2.1840000     -0.40050000       341.89000       2.1585572     0.021967185
       4424.0000       291.20001       99496.826       8142.9099       2.6630000       1.6490000     0.056000000       342.28700       2.1613216     0.022812256
       4429.0000       291.20001       99499.259       8126.8927       1.8087500       1.4467500      0.38625000       342.46100       2.1454077     0.017890225
       4434.0000       291.20019       99510.470       8083.9756      0.91375010       1.6147500     0.075750000       342.59600       2.1354792     0.018298237
       4439.0000       291.20015       99517.786       8066.0941      0.82525000       2.1740000     -0.56100000       342.35100       2.1150963     0.015932220
       4444.0000       291.18714       99532.587       8029.0930       1.0505000       1.5755000     0.035000000       342.44600       2.1293083     0.019450570
       4449.0000       291.20080       99539.433       8034.5794       1.1220000       1.6372500      0.22200000       343.01500       2.1461212     0.020763211
       4454.0000       291.23721       99543.898       8087.5975       1.8265000       1.7627500     0.086750000       342.23200       2.1009619     0.014704561
       4459.0000       291.25722       99541.360       8120.1455      0.50875000       1.7635000      0.14750000       343.28300       2.1507528     0.023670453
       4464.0000       291.28177       99532.875       8189.8824      0.64100000       2.3677500      0.18450000       342.05400       2.1144350     0.019489793
       4469.0000       291.31209       99522.748       8204.8978      0.53025000       1.7330000    -0.093750010       342.11700       2.1561748     0.020465476
       4475.0000       291.38722       99494.395       8199.5524      0.74300000       1.8382500     -0.23875000       341.91800       2.1425001     0.017464166
       4480.0000       291.34289       99489.092       8146.1230      0.38475000       1.7430000     -0.15900000       342.02900       2.1544863     0.018200896
       4485.0000       291.24197       99490.901       8020.7423      0.70700000       1.5510000     0.021000000       342.13500       2.1529578     0.017259535
       4490.0000       291.15991       99495.973       7946.8052      0.38350000       1.5640000    -0.054500000       342.32000       2.1694539     0.018547501
       4495.0000       290.96143       99517.278       7853.4913       1.0262500       1.1605000     0.046500000       342.60000       2.1217838     0.017333469
       4500.0000       290.88693       99527.045       7788.7624      0.70950000      0.22725000     0.072500010       343.54100       2.1158424     0.016150501
       4505.0000       290.87907       99535.424       7738.7627      0.98400000      0.27625000      0.14250000       342.49600       2.1372931     0.017056586
       4510.0000       290.89801       99538.583       7730.9925      0.37725000      0.23150000      0.17925000       342.65900       2.1612894     0.019175606
       4515.0000       290.97465       99538.025       7747.9229      0.63675000      0.28300000     0.074750010       342.70800       2.1341632     0.019256615
       4520.0000       291.03095       99534.133       7769.8687      0.62600000      0.48325000     0.018000000       342.07000       2.1020757     0.015577125
       4525.0000       291.13015       99523.042       7844.6575      0.85775010      0.49125000    -0.048000000       342.96900       2.1276439     0.017227884
       4530.0000       291.19316       99516.064       7889.1925      0.87600000       1.1025000     -0.18650000       342.11400       2.1541896     0.019018949
       4535.0000       291.24118       99505.158       7924.1963       1.1472500      0.91975000     -0.15550000       342.75100       2.1781875     0.019645186
       4540.0000       291.27487       99502.032       7949.8111       2.2152500       1.9877500     -0.17050000       342.95900       2.0673859     0.012987212
       4545.0000       291.29928       99502.059       7958.1008       1.9457500       3.0515000      0.33700000       342.78300       2.0987595     0.011844396
       4550.0000       291.31293       99505.919       7998.4279       2.1660000       1.7420000     -0.45625000       341.96500       2.0972376     0.014504427
       4555.0000       291.30028       99517.376       8053.6333       1.6905000       1.8780000     -0.37650000       342.03700       2.1481996     0.018188984
       4560.0000       291.30034       99524.369       8080.2759       1.4637500       1.7685000     -0.41500000       342.19300       2.1447116     0.015903775
       4566.0000       291.29084       99536.531       8138.5571       1.1192500      0.78800000    -0.030000000       342.75600       2.1657535     0.015843807
       4571.0000       291.30933       99538.946       8135.0858       1.0035000       1.0970000     0.082500000       342.40200       2.1643766     0.017216052
       4576.0000       291.35473       99537.665       8069.4735       1.1645000      0.69725000     0.061250000       342.58700       2.1179223     0.012034518
       4581.0000       291.35589       99533.029       8044.2216       1.5785000      0.73700000     0.075000000       342.05500       2.1586739     0.013348631
       4586.0000       291.35745       99521.721       8005.9593       1.0147500       1.3557500     0.037500000       342.20400       2.1882224     0.018959982
       4591.0000       291.34806       99514.581       8004.1349       1.1840000      0.93900010     -0.16000000       341.92400       2.1161945     0.014726017
       4596.0000       291.28880       99505.252       8009.3593       1.0085000      0.42750000     -0.35275000       341.83800       2.1810625     0.016190991
       4601.0000       291.29647       99501.072       8061.0361       1.0750000     0.012250000      0.33225000       342.65300       2.1919283     0.017881472
       4606.0000       291.34693       99497.391       8162.9038       1.3357500       1.3255000     -0.22550000       341.99000       2.1582015     0.013920447
       4611.0000       291.36685       99501.895       8230.2705      0.82050000       1.0705000     -0.26125000       342.53000       2.1438075     0.017795869
       4616.0000       291.40282       99514.195       8350.9296       1.2210000      0.93600000    -0.043500000       342.74200       2.1549961     0.015987387
       4621.0000       291.41383       99520.180       8352.2538       1.0107500      0.33550000      0.43950000       342.60600       2.1547481     0.016460095
       4626.0000       291.41761       99531.041       8294.8156      0.87225000      0.84050010   -0.0072500000       342.50200       2.1991354     0.018881178
       4631.0000       291.38036       99534.342       8218.5181      0.84575000      0.57350000      0.20750000       342.74400       2.1631556     0.016601724
       4636.0000       291.29120       99532.221       8035.7017       1.1165000      0.92900000     -0.17300000       342.43200       2.1539226     0.019049963
       4641.0000       291.28865       99528.453       7985.2677       1.2470000      0.49950000      0.12800000       342.36300       2.1314630     0.018273481
       4646.0000       291.30393       99521.957       7977.7006       1.8887500       1.5300000     -0.45950000       343.02800       2.1402535     0.017059909
       4651.0000       291.28344       99516.107       7949.2595       1.2647500    -0.019500000      0.41450000       343.54900       2.1338188     0.011367942
       4657.0000       291.31183       99503.897       7975.1141       1.1745000      0.70825000    -0.028500000       342.50700       2.0651492     0.010484829
       4662.0000       291.25913       99500.227       7940.1353       1.4842500      0.95325010    -0.076750000       341.94600       2.1244458     0.016693282
       4667.0000       291.19938       99499.001       7897.9007      0.89400010      0.79050000     -0.18925000       341.93400       2.1282588     0.014243222
       4672.0000       291.13958       99500.246       7853.0457       1.0170000      0.60425000     -0.19775000       342.00600       2.1122936     0.016304401
       4677.0000       291.10761       99505.662       7820.4746       1.0010000      0.60975000    -0.096500000       342.18600       2.1675966     0.020669836
       4682.0000       291.04525       99505.474       7770.3163      0.97525010      0.36625000     0.026250000       342.71900       2.1300336     0.017415594
       4687.0000       290.93215       99504.216       7685.7480       1.0127500       1.0355000     0.095250000       342.92500       2.0853527     0.013166478
       4692.0000       290.93046       99511.004       7687.4580      0.93225000      0.30225000      0.31350000       343.01600       2.0609341     0.014167483
       4697.0000       290.93778       99514.968       7690.2151       1.3275000       1.1647500     0.079000000       342.36700       2.1249369     0.018341780
       4702.0000       291.00086       99528.924       7730.9239      0.66525000      0.75825010    -0.060000000       341.88500       2.0685246     0.014958105
       4707.0000       291.05051       99533.471       7767.4208       1.1957500    -0.086750000    -0.024500000       343.18300       2.0859965     0.012401188
       4712.0000       291.11492       99525.709       7809.1890       1.1627500      0.38125000     0.064750000       342.29300       2.1326790     0.019185650
       4717.0000       291.15585       99520.856       7840.0453       1.2270000      0.78800000     -0.29100000       342.14400       2.1344462     0.017334455
       4722.0000       291.18443       99514.782       7867.5425       1.0290000      0.41800000      0.38400000       342.30400       2.1110720     0.019034179
       4727.0000       291.19266       99505.525       7890.8694       1.0747500      0.62550000    0.0017500000       343.06900       2.0925523     0.015574794
       4732.0000       291.24412       99497.507       7938.9030       1.6410000      0.72700010      0.21700000       342.80600       2.1289469     0.018209119
       4737.0000       291.30571       99488.212       7985.6867       1.1972500       1.1552500    -0.090750000       342.09800       2.1550588     0.016247426
       4742.0000       291.32499       99492.483       8061.2025       1.4755000       1.5545000     -0.22500000       341.97200       2.1203463     0.016370692
       4748.0000       291.36126       99494.923       8138.9933       1.0030000       1.3915000     -0.24475000       342.17200       2.1337071     0.019312628
       4753.0000       291.35794       99504.531       8219.7850       1.5385000       1.8437500     -0.27500000       342.41700       2.1143188     0.016887016
       4758.0000       291.34814       99512.343       8244.9412       1.5507500       1.2150000     0.046000000       342.49200       2.1662723     0.015426689
       4763.0000       291.37170       99516.884       8257.7078       1.3500000      0.89300010     -0.15175000       342.50500       2.1276770     0.016211312
       4768.0000       291.35879       99520.867       8228.3680      0.98700000       2.0682500     -0.20875000       342.46100       1.8073755     0.019614373
