MIRICO/SHELL project - Processed LDS file generated on
Fri Jul 07 22:48:37 2017
Time stamp for record start
05/10/2017  15:03:58.0000
Nb of points in the record
         944
Beam position index
       2.0000000
Beam angle (degrees)
      -8.6100000
Open Path length (m)
       64.850000
****************** Temporal data record ************************
Elapsedtime_sec Temp_K Press_Pa Humidity_ppmv WindX_m/s WindY_m/s WindZ_m/s Speedofsound_m/s CH4vmr_ppmv CH4vmrerror_ppmv  
      0.00000000       290.53512       99620.459       8010.5817     -0.74500010       3.1187500     -0.55200000       341.85300       1.9560385    0.0061196345
       5.0000131       290.58917       99620.355       8064.6096     -0.48625000       2.3505000     -0.22375000       342.40200       1.9951918    0.0067019027
       10.000026       290.60568       99620.398       8079.3829      0.77850000       3.0092500      0.48375000       343.32000       1.9717738    0.0073848704
       15.999994       290.63765       99622.060       8109.5064      0.45875000       3.7127500     -0.48425000       341.29200       1.9735181    0.0083499009
       21.000007       290.67629       99618.326       8115.3160      0.54250000       3.6830000     -0.22925000       342.25700       1.9886805    0.0062604612
       26.000020       290.77599       99612.177       8103.2246      0.68800000       2.8125000     -0.15550000       341.86000       2.0014918    0.0079256298
       30.999993       290.75096       99606.446       8087.0806      0.98750010       3.2310000     -0.31325000       342.15800       2.0007372    0.0055630701
       36.000006       290.65568       99596.940       8054.5769     -0.41100000       2.3465000     -0.75025000       341.97500       2.0187651    0.0085864897
       41.000019       290.62564       99589.046       8049.0965       1.0762500       2.7525000     -0.59500000       341.70700       1.9540638    0.0064685676
       45.999992       290.51763       99579.143       8037.2739      0.86250000       3.3102500      0.36375000       342.51300       1.9883561    0.0064745410
       51.000005       290.54234       99577.797       8051.4043      0.13900000       1.1300000      0.43925000       343.54600       1.9807839    0.0058688879
       56.000018       290.69469       99576.302       8098.2269      0.52600000       2.7947500     -0.12275000       342.33600       2.0241859    0.0073738800
       60.999991       290.74650       99583.694       8127.7314       1.6237500       2.7370000    -0.070000000       341.86300       2.0004831    0.0078046643
       66.000004       290.79760       99604.072       8159.7823      0.48275000       2.6745000     -0.46050000       341.64800       2.0084747    0.0076217865
       71.000017       290.83915       99614.256       8188.2084      0.94575010       2.5230000    -0.056500000       342.25000       2.0234434    0.0073933554
       76.000030       290.83719       99626.686       8212.8422      0.22675000       1.7937500     -0.12350000       342.62000       2.0377245    0.0085930617
       81.000003       290.87561       99630.183       8243.4322     -0.63775000       2.6322500     -0.13025000       341.95100       1.9926401    0.0067820836
       86.000016       290.92091       99626.278       8268.0258    -0.063750010       2.5687500     -0.27750000       341.53500       2.0393230    0.0078883525
       91.000029       291.00954       99625.393       8315.0302     -0.13550000       2.7515000     -0.36375000       341.32900       1.9787089    0.0071190474
       96.000002       291.14932       99621.743       8387.7859      0.58350000       1.2327500      0.15675000       343.01600       2.0360314    0.0071399786
       101.00002       291.20186       99616.877       8418.3606    -0.075750000       1.5647500     -0.13375000       342.23600       2.0418099    0.0075489405
       107.00002       291.26295       99610.794       8452.4986       1.2177500       2.2132500     -0.18750000       341.41000       2.0681145    0.0087216833
       112.00000       291.26004       99600.397       8446.8641      0.59850000       1.9337500      0.21525000       342.18800       1.9857209    0.0064614274
       117.00001       291.25022       99594.330       8428.3292      0.65350000       1.8012500      0.71125000       341.76100       1.9966664    0.0064060034
       122.00002       291.31489       99587.163       8404.0728      0.21725000       2.3415000    -0.027250000       341.52300       2.0574365    0.0092878510
       127.00000       291.28164       99587.598       8367.5684     0.024750000       1.6827500     -0.58575000       342.12600       2.0362745     0.010389903
       132.00001       291.18683       99592.963       8316.4981      0.38375000       1.8342500    -0.017000000       341.93400       2.0283747    0.0094173695
       137.00002       291.01087       99604.344       8244.1242      0.23225000       1.2907500      0.51000010       343.09900       1.9677385    0.0056093872
       141.99999       290.87829       99612.550       8167.9285     -0.38350000       1.2712500    -0.012250000       342.55700       1.9829787    0.0080681038
       147.00001       290.67686       99627.305       8075.4116     -0.36075000       2.2500000     0.096500000       343.50000       1.9872471    0.0069651682
       152.00002       290.63015       99628.708       8006.1305      -2.4040000       1.4940000     -0.67400000       342.06900       1.9856887    0.0059116067
       156.99999       290.58694       99630.862       7956.4546     -0.79500000       1.5477500      0.10675000       342.38300       2.0202239    0.0067383813
       162.00001       290.61525       99631.774       7957.6978     -0.56825000       1.3455000      0.66625010       342.33700       1.9895366    0.0068658983
       167.00002       290.60657       99630.882       7939.0067      -1.6850000       4.0927500     -0.55275010       342.60500       1.9545335    0.0064852570
       171.99999       290.58559       99628.768       7916.7343     -0.74550000       3.7587500    -0.085750010       341.85600       2.0365041    0.0076727337
       177.00001       290.55124       99627.579       7892.5523     -0.68325000       1.0622500      0.12675000       342.88200       2.0308957    0.0073056392
       182.00002       290.53118       99619.164       7872.9504     -0.51275000       1.8232500      0.36825000       342.48100       1.9870216    0.0067591253
       186.99999       290.50582       99605.927       7848.6433      -1.1867500       4.0172500     -0.48200000       341.86600       2.0100790    0.0066167647
       192.00000       290.39414       99584.204       7781.3029      -1.2430000       3.8292500     -0.12075000       341.30400       2.0468504    0.0092505062
       198.00001       290.38103       99575.683       7787.3805     -0.82300000       3.9925000     -0.42500000       341.22700       1.9872964    0.0073064748
       203.00003       290.42141       99579.648       7850.7799     -0.77750000       2.8890000      0.19425000       342.06500       1.9821332    0.0070493916
       208.00000       290.44393       99584.169       7887.6718     -0.89950010       3.0032500    -0.016500000       341.87100       1.9867978    0.0065843533
       213.00001       290.54227       99602.814       7931.7250     -0.75650010       1.6230000      0.44250000       342.22300       1.9488082    0.0068950965
       218.00002       290.62046       99613.539       8029.6483     -0.90625010       2.8842500     0.072500010       341.47700       1.9988992    0.0065569903
       223.00000       290.66669       99621.734       8163.5539     -0.57125000       2.8160000     -0.63875000       341.42900       2.0034893    0.0065348804
       228.00001       290.70677       99627.503       8257.9388     -0.77600000       2.8135000      0.83575000       341.90700       2.0365063    0.0071154819
       233.00002       290.77953       99630.717       8432.8571      0.24150000       1.9637500      0.36400000       342.03900       2.0504677    0.0094762857
       238.00000       290.81750       99631.526       8521.6502     0.076000010       2.6852500     -0.68775000       341.79200       2.0252092    0.0057029599
       243.00001       290.80030       99630.921       8491.1894     -0.23350000       1.9995000   -0.0047500000       341.79700       2.0002512    0.0083499809
       248.00002       290.80042       99625.553       8495.4047      0.66550000       1.8242500    -0.065250000       341.63800       2.0384314     0.010422098
       253.00000       290.78630       99613.893       8489.3006       1.2017500       2.3740000      0.41600000       342.48500       2.0380382    0.0077558723
       258.00001       290.79786       99603.868       8483.3543      0.25200000       2.0920000      0.47775000       341.72800       2.0355591    0.0074151557
       263.00002       290.83313       99583.595       8488.1324       1.2422500       2.0185000     -0.35575000       341.34700       2.0283526    0.0099585782
       267.99999       290.85315       99576.323       8473.5609       2.1247500       2.5402500      0.18875000       342.18800       2.0481067    0.0095987329
       273.00001       290.87604       99577.983       8412.9056      0.29750000       1.8105000      0.28225000       342.15500       2.0442996    0.0070315429
       278.00002       290.90633       99579.486       8406.1846      0.63550000       1.5982500     -0.42875000       341.30300       2.0483703    0.0083032711
       282.99999       290.93458       99587.592       8431.5240      0.96625010       1.3837500     -0.19400000       341.51100       2.0221561    0.0071406092
       289.00000       290.95866       99598.703       8442.8744    -0.019500000       1.0550000      0.41950000       342.62400       2.0047614    0.0080912021
       294.00001       291.02107       99612.649       8521.0840     -0.14500000       1.9092500  -0.00025000000       342.33800       1.9814757    0.0065741872
       299.00003       291.00956       99618.852       8509.2005     0.021000000       1.6850000      0.20550000       341.95800       2.0096321    0.0072008606
       304.00000       290.91135       99627.734       8399.9848     -0.35825000       2.2910000    0.0065000000       341.98900       2.0020475    0.0070329898
       309.00001       290.88527       99627.968       8362.1383     -0.80925010       1.0332500      0.38325000       343.03600       2.0072028    0.0087758235
       314.00003       290.86086       99617.632       8325.0590     -0.87250010       1.3075000     0.077000010       342.28600       2.0170551    0.0077576211
       319.00000       290.83474       99607.922       8283.9171     -0.65600000       1.6602500     -0.31975000       341.29400       2.0362781    0.0087745659
       324.00001       290.86892       99587.485       8284.1051     -0.54300000       1.7105000     -0.28525000       341.53200       1.9828107    0.0051173187
       329.00003       290.85132       99580.992       8258.7998     -0.86400000       2.0395000     -0.12575000       341.92700       2.0215419    0.0074949324
       334.00000       290.75348       99578.133       8182.5398     -0.58350000       2.0787500     -0.36525000       341.45100       2.0082565    0.0079313169
       339.00001       290.73040       99578.571       8151.3906     -0.60000000      0.60950010      0.34025000       343.10400       2.0132977    0.0066256357
       344.00003       290.71730       99590.597       8129.8293     -0.74575000       1.2540000      0.10325000       341.72200       1.9717152    0.0058093276
       349.00000       290.74843       99598.579       8145.5499     -0.27500000       2.1895000     -0.19100000       341.59100       2.0267640    0.0086165055
       354.00001       290.85653       99607.179       8200.0015     -0.54750000       1.6107500    -0.029500000       342.41100       2.0107113    0.0063015688
       359.00002       290.92682       99612.773       8250.7768     -0.19525000       1.8730000      0.13100000       343.42500       2.0427761    0.0073050027
       364.00000       291.03998       99621.690       8385.1157     -0.79275010       1.8675000     -0.23650000       342.32100       2.0162493    0.0077913261
       369.00001       291.07874       99622.140       8402.3255     -0.13300000       2.1720000      0.12900000       342.05900       2.0471009     0.011214767
       375.00002       291.05683       99614.884       8331.9791     -0.71925000       1.8495000      0.33125000       342.16500       2.0675891     0.014432640
       379.99999       291.05063       99605.966       8300.3550     -0.43150000       1.7785000      0.11450000       342.68700       2.0492525     0.010725916
       385.00000       291.01179       99587.899       8201.9250    -0.020500000       1.7257500     -0.12800000       341.92300       1.9998506    0.0066753199
       390.00002       290.98199       99579.302       8165.0791    -0.079500000       1.9487500     -0.50775000       341.92800       2.0525190    0.0092522952
       395.00003       290.95854       99565.116       8165.0285      0.38750000      0.96850000     -0.14700000       341.82200       2.0424436     0.011230098
       400.00000       290.93892       99569.073       8188.6282     -0.24225000      0.75850000      0.25175000       343.52100       2.0254941    0.0065627947
       405.00002       290.90097       99590.884       8254.8495      0.66650000      0.98550000      0.17625000       343.65800       2.0162755    0.0091873779
       410.00003       290.88737       99600.963       8270.2533       1.2502500       1.7150000     -0.43125000       342.01800       1.9982077    0.0078350971
       415.00000       290.88877       99619.649       8314.2634       1.0207500       1.4607500     -0.35800000       342.70100       2.0397197    0.0090306318
       420.00002       290.90501       99626.624       8303.7492      0.31650000       1.2090000      0.36475000       343.40300       2.0114400    0.0069977489
       425.00003       290.94284       99623.529       8220.8298       1.5967500       1.9692500      0.21650000       342.96900       2.0165598     0.011328181
       430.00000       290.96306       99618.675       8167.9565      0.73625000       1.0117500   -0.0075000000       343.32800       1.9571618    0.0079603195
       435.00001       291.02178       99609.989       8120.1582    -0.034750000       1.9387500      0.27525000       342.18100       1.9809511    0.0070727541
       440.00003       291.00312       99600.828       8056.4325     0.065000010       1.3605000      0.13875000       342.50700       2.0316929    0.0097547929
       445.00000       290.91738       99579.931       7951.8779      0.87775000       1.6822500     -0.29425000       341.60800       2.0022809    0.0082732762
       450.00001       290.87702       99575.137       7919.6335       1.5815000       2.0290000    -0.051750000       341.81100       2.0012386    0.0060701001
       455.00003       290.81264       99575.647       7902.5526       1.2035000       1.3915000    -0.024250000       342.31700       1.9504158    0.0071892830
       460.00000       290.76828       99581.846       7915.5337      0.67550000      0.80175010      0.77200000       343.35600       2.0364400    0.0064028847
       466.00001       290.75321       99605.039       8012.1720      0.31525000      0.87900010    -0.041500000       342.43300       1.9788191    0.0054160788
       471.00002       290.73315       99613.323       8049.2714      0.33600000      0.82550000     -0.18350000       341.73200       1.9783150    0.0067678494
       475.99999       290.70563       99623.020       8091.6879      0.41200000       1.1125000     -0.18025000       342.49700       2.0537232     0.013970468
       481.00001       290.67563       99622.575       8088.8230      0.36525000       1.3647500     -0.38225000       341.79900       2.0055905     0.011959568
       486.00002       290.65423       99611.270       8053.1761      0.45025000       1.1147500     -0.22925000       342.60500       2.0202689     0.010426297
       490.99999       290.63444       99607.393       8032.0608     0.046750000      0.93300000      0.53150000       343.45000       1.9684585    0.0078073805
       496.00001       290.59693       99599.875       7979.6894     0.087000000      0.82675000     -0.16200000       341.84700       2.0079755    0.0085282420
       501.00002       290.58573       99597.696       7959.4247      0.25725000      0.74650000     -0.13525000       342.09100       2.0531109     0.011389200
       505.99999       290.59058       99598.413       7955.4288      0.30350000      0.54475000     -0.33700000       342.12000       1.9911014    0.0061589110
       511.00000       290.60921       99602.134       7958.1643      0.34425000      0.23425000      0.10250000       342.93900       1.9735763    0.0066223618
       516.00002       290.62861       99611.385       7951.5128       1.0557500      0.38000000      0.47800000       343.31000       1.9737433    0.0072824514
       520.99999       290.68570       99611.696       8000.9114      0.87075010       1.9350000      0.14825000       343.03300       2.0118838    0.0096579767
       526.00000       290.79531       99612.510       8103.0106      0.65225010       2.4782500     -0.21250000       342.34000       1.9761264    0.0076117533
       531.00002       290.84618       99608.882       8157.9824      0.17175000       2.7227500     -0.19500000       342.53000       1.9863877     0.010074772
       536.00003       290.87861       99598.120       8225.4463      0.16375000       2.4867500     -0.22425000       342.28800       2.0221732     0.011605347
       541.00000       290.95802       99588.207       8293.8101      0.86475000       3.0130000    -0.082500000       342.82900       1.9857270    0.0071009751
       546.00002       291.04689       99573.634       8359.9708     -0.55400000       2.5107500      0.66225000       343.51000       1.9555429    0.0059366371
       551.00003       291.08830       99572.220       8365.0566      0.44375000       4.1337500     -0.20500000       342.33100       2.0186397     0.012164851
       557.00000       291.17549       99571.734       8370.8350       2.1460000       2.5620000     -0.36825000       342.60600       1.9683562    0.0074858533
       562.00001       291.12908       99597.905       8272.2339      0.78950010       1.0610000      0.62425010       343.95700       1.9313676    0.0064644947
       567.00002       291.06186       99608.342       8181.4331       1.1162500       1.9015000      0.31775000       343.38100       2.0262733     0.013527671
       572.00000       290.90970       99614.359       8061.9680      0.99375000       2.6485000      0.43950000       342.59100       1.9774764    0.0090291588
       577.00001       290.83752       99614.140       7985.9037       1.5947500       2.0280000     0.067250010       342.27200       1.9520298    0.0072653869
       582.00002       290.78992       99606.532       7925.8513       1.0752500       2.1042500     -0.52575000       342.21600       2.0854881     0.011190200
       586.99999       290.73085       99584.228       7863.1657      0.59025000       1.1435000     -0.20675000       342.97600       2.2321118    0.0069350005
       592.00001       290.72528       99576.388       7828.2594      0.35550000       1.6887500    -0.039000000       343.11800       2.5257659    0.0083608899
       597.00002       290.81223       99566.872       7840.3284      0.95650010       2.4205000      0.24700000       342.32500       2.6482170    0.0071273635
       601.99999       290.76983       99576.508       7809.5910      0.45600000       2.4785000     -0.10675000       342.73900       3.3418200    0.0078298855
       607.00001       290.74968       99584.308       7780.4276       1.1065000      0.68775000      0.60825000       343.08800       2.6246932    0.0071326218
       612.00002       290.69994       99606.274       7726.5868     -0.26900000       2.3190000     -0.42375000       342.77900       2.6538080    0.0075853692
       616.99999       290.68766       99613.913       7713.1442      -1.3862500       3.0617500      0.28100000       342.25900       2.3181583    0.0088592967
       622.00001       290.69990       99614.177       7719.8682     -0.74100010       2.4035000     -0.21600000       341.58400       3.1717354    0.0072223888
       627.00002       290.73644       99608.726       7731.6583     -0.26925000       1.0847500      0.25050000       342.52000       2.9116361    0.0084406212
       631.99999       290.79998       99597.881       7788.8303     -0.43775000       1.8967500     0.047250000       343.72000       2.4492333    0.0097747997
       637.00000       290.90600       99571.787       7897.2497     -0.95725010      0.71175000    -0.090750000       342.43900       2.3913904    0.0088550603
       642.00002       290.91137       99569.414       7961.7889       1.6190000       1.9862500     0.099000010       342.37700       2.1530529    0.0068973834
       648.00003       291.00754       99572.974       8068.3552    -0.056500000       3.1427500     -0.23250000       342.67100       2.8237018     0.011881826
       653.00000       291.15148       99600.614       8203.7465       1.4697500       2.4905000     -0.53625010       341.83600       3.1459322    0.0069050051
       658.00001       291.21963       99609.859       8272.1618     -0.17775000       2.8920000    -0.031500000       341.91000       3.1410334    0.0068477002
       663.00002       291.37008       99616.040       8351.4335     -0.11375000       2.1105000     -0.32075000       341.79100       2.1478719     0.010225744
       668.00000       291.39193       99613.157       8373.3490   -0.0085000000       1.4670000      0.16625000       343.08900       2.5939373    0.0090872547
       673.00001       291.21031       99587.379       8295.8281    -0.059500000       1.5377500   -0.0082500000       343.29100       2.4905122    0.0099428141
       678.00002       291.13168       99576.714       8239.0501      -2.4852500       1.3362500     -0.62025000       341.62300       2.4597214    0.0072125257
       683.00000       291.07287       99560.835       8161.5821     -0.40800000       2.6530000      0.21925000       342.90600       3.4904316    0.0083027970
       688.00001       290.98205       99560.983       8091.6938     -0.39625000       1.8457500     0.048000000       342.65300       2.9256710    0.0070052956
       693.00002       290.88236       99589.635       8003.1839     -0.19700000       1.8082500   -0.0047500000       341.93000       3.3627676     0.010569302
       698.00000       290.83281       99599.511       7944.7628      -1.4307500       1.3632500    -0.033500000       342.79300       3.2372344     0.011929220
       703.00001       290.74840       99612.879       7914.7181     -0.77800010       1.2340000      0.39725000       343.35000       2.8687214    0.0098160411
       708.00002       290.72353       99614.835       7871.2503     -0.98475000      0.66450010      0.10925000       342.73000       2.5146151    0.0063550625
       713.00000       290.80873       99593.577       7827.0209      -1.4482500       1.2352500     -0.34275000       342.44000       2.6042285    0.0073238508
       718.00001       290.85868       99582.673       7801.9657     -0.44075000       1.1560000    0.0075000000       342.26900       2.3083535    0.0069022290
       723.00002       290.92362       99564.287       7762.9653      0.18150000       1.1242500      0.17375000       343.42400       2.6019586    0.0072025791
       727.99999       290.96240       99561.232       7756.3198     -0.41350000      0.64325000      0.46600000       343.22900       2.9285443    0.0066648690
       733.00001       290.99093       99572.139       7804.6719     -0.17900000       1.1547500     -0.59975000       342.90100       4.1909851     0.011090997
       739.00001       291.01250       99582.574       7833.4178     -0.21825000       3.0282500     -0.24000000       342.96500       2.5138564    0.0073398415
       744.00003       291.01293       99609.943       7855.9178      -2.0402500       1.5082500   -0.0057500000       342.84500       2.4522475    0.0068811152
       749.00000       290.99907       99616.205       7883.2038      -1.2132500       1.2645000      0.28700000       342.77700       2.7339458    0.0091468511
       754.00001       290.98760       99610.515       7938.8188     -0.82425000       2.7865000      0.46825000       342.88300       4.5355246     0.018828823
       759.00003       290.94041       99605.128       7926.7022      -1.2857500       1.6412500      0.10300000       343.31100       3.3703031    0.0067321010
       764.00000       290.83122       99581.680       7880.5956      -1.5105000       2.2047500     -0.58050000       342.67800       2.8386681    0.0067045452
       769.00001       290.77501       99575.589       7839.6248     -0.85400000       3.2712500      0.96275000       343.02200       3.2107591    0.0078420773
       774.00003       290.72389       99575.107       7734.1664      0.30650000       2.8117500     0.011500000       342.86700       2.7619484    0.0073321094
       779.00000       290.67725       99579.982       7675.6160      0.11050000       2.2787500     -0.70725010       342.57700       2.4550218    0.0095424647
       784.00001       290.67425       99604.707       7647.2308      0.14075000       1.2715000      0.14150000       343.04900       3.3954847    0.0080089770
       789.00003       290.64058       99609.962       7624.5627      0.41350000      0.83550010      0.13950000       343.93000       2.6497327    0.0076799951
       794.00000       290.59269       99611.287       7626.4169     -0.55400000       2.0500000      0.78850000       342.29300       2.6099239    0.0067607329
       799.00001       290.52943       99606.056       7602.1835     -0.50750010       1.5295000     0.027250000       341.96900       2.3119820    0.0076095000
       804.00002       290.43049       99576.797       7571.3158     -0.67750000      0.66200010   -0.0095000010       343.23000       2.3077276    0.0062055779
       809.00000       290.37430       99570.224       7553.1921     -0.54825000       1.2702500      0.65675000       342.33700       4.4484883    0.0085394667
       814.00001       290.31096       99571.981       7513.3663     -0.10925000       2.5025000     0.040500000       342.36000       3.2334163    0.0087266365
       819.00002       290.27843       99574.495       7501.1168      0.67175000       4.0710000     -0.58625000       342.55700       3.7522870     0.011174534
       824.00000       290.27408       99597.915       7504.0949      0.12075000       3.6732500     -0.57400000       342.71300       5.3126285    0.0086901773
       830.00000       290.30986       99598.618       7543.9173     -0.87450000       2.1370000     -0.15575000       342.47300       2.6335470    0.0092047644
       835.00002       290.37349       99583.431       7610.1847      -1.3172500       1.6585000      0.39075000       342.81400       3.2638179    0.0069522963
       840.00003       290.42952       99576.878       7656.6190      -1.7697500       1.7630000     -0.45250000       341.45800       3.1317940    0.0067265909
       845.00000       290.54027       99556.255       7723.8328      -1.7967500       1.1000000     -0.43700000       341.59700       3.4934716    0.0087147718
       850.00002       290.58764       99557.204       7781.0459     -0.34100000       1.5905000      0.27575000       343.12900       4.2393424    0.0087481539
       855.00003       290.59970       99576.752       7829.1354      -2.0287500       1.4877500     -0.33825000       342.27400       3.2388670     0.010454425
       860.00000       290.61358       99584.832       7860.7606     -0.87825010       1.9165000      0.28825000       342.73000       4.0608893     0.010446442
       865.00002       290.59999       99603.180       7893.9396     -0.85925010       2.0067500    -0.022000000       342.63200       4.0012268    0.0074810370
       870.00003       290.60009       99603.909       7916.3307     -0.82475010       2.3422500     -0.35300000       342.63500       2.9649058    0.0068301880
       875.00000       290.57801       99588.603       7895.9069     -0.49375000       2.6732500      0.19300000       342.94300       2.5108404    0.0091031107
       880.00001       290.61037       99580.980       7918.1304     -0.38500000       2.6005000      0.22875000       342.66800       2.9850881    0.0093825008
       885.00003       290.68406       99561.868       7974.6107      -1.0902500       4.0405000    -0.088000010       341.99800       2.7037959    0.0072369090
       890.00000       290.72359       99562.264       8000.2658     -0.97425000       4.3662500     -0.33200000       342.05300       3.8103493    0.0078113777
       895.00001       290.78804       99576.844       8012.2288     -0.30500000       2.6137500     -0.30850000       341.68900       2.6106684    0.0077521978
       900.00003       290.83202       99583.536       8054.5629     0.010250000       3.9090000      0.13675000       341.77900       3.2731292    0.0082476703
       905.00000       290.84183       99603.220       8097.2912    -0.084750000       2.9740000     -0.58725010       341.79100       3.4095096    0.0085232951
       910.00001       290.86179       99603.880       8142.6040      0.14625000       2.6525000     -0.34350000       342.00500       2.6890282    0.0086844552
       916.00002       290.89496       99586.264       8256.7856     0.031500000       2.2677500      0.36200000       342.33000       2.9679396    0.0095828405
       920.99999       290.92522       99580.291       8260.9207     -0.55100000       2.8985000     -0.26850000       341.87000       3.4455623    0.0074820814
       926.00001       290.93770       99566.835       8202.7374      0.51875000       2.0597500     -0.47475000       342.81700       2.5348998     0.017799444
       931.00002       290.97641       99569.172       8176.6455     0.060500000       2.4910000      0.12750000       342.96200       3.0333574    0.0077724634
       935.99999       291.03069       99585.133       8077.8034       1.3467500       4.5282500     -0.49625000       341.65700       2.9479066    0.0074484849
       941.00001       291.09883       99589.271       8111.1723      0.52075000       3.7642500    -0.038250000       341.56800       3.8513273    0.0084307794
       946.00002       291.19385       99599.634       8219.5725       1.5090000       1.9197500      0.23200000       342.51000       2.5516174    0.0086228953
       950.99999       291.24564       99595.356       8306.5001      0.52150010       2.9645000    -0.098500010       341.54500       2.6423620    0.0064554792
       956.00000       291.31404       99572.655       8488.5946     0.017250000       2.3295000     -0.39125000       341.81500       2.5504402    0.0076470443
       961.00002       291.31811       99573.008       8522.4981     -0.31575000       2.2015000      0.13925000       341.77300       4.4976047    0.0086966680
       965.99999       291.25320       99578.074       8499.8014     -0.50500000       1.8722500     -0.34950000       341.61300       4.8274682    0.0092747083
       971.00000       291.23321       99582.680       8437.1179      0.14100000       2.0340000     0.032750000       342.18400       2.0969380    0.0065318194
       976.00002       291.22383       99605.158       8283.1579     -0.69575010       2.8527500     -0.48100000       341.91900       2.6539697    0.0071419928
       981.00003       291.15687       99602.235       8174.5997      -1.1430000       2.2672500      0.13975000       342.36200       3.9666485     0.014434202
       986.00000       291.05544       99581.324       8028.7925    -0.048000000       1.6320000      0.38475000       343.23300       5.7453450    0.0088752695
       991.00002       291.01408       99575.145       7955.9836      0.48100000       2.0215000     -0.15450000       342.37700       4.0384891    0.0081247894
       996.00003       290.92875       99561.133       7910.5583     -0.98875000       2.3252500      0.17775000       342.58500       4.2556649     0.010403633
       1001.0000       290.93353       99564.270       7877.4036     -0.87350000       3.4655000     -0.37200000       342.12500       5.0766071    0.0098345687
       1007.0000       291.06334       99586.652       7888.8515     -0.47925000       3.0132500     -0.20850000       342.16700       5.5670336     0.010050385
       1012.0000       291.05503       99597.416       7866.7524     -0.80750010       2.8072500      0.26125000       342.83200       3.7381800    0.0083634477
       1017.0000       291.05595       99599.058       7853.7038      -1.3325000       3.7485000    -0.059000000       341.36400       2.5035591    0.0076135173
       1022.0000       290.99983       99576.811       7837.0053     -0.76900010       3.1555000     -0.30650000       341.41100       3.5326835    0.0071913764
       1027.0000       290.98726       99572.202       7837.3202      -1.0322500       3.4255000      0.80950000       342.02500       2.9708771    0.0098808093
       1032.0000       290.99927       99573.745       7849.3807     -0.92450000       2.1782500     -0.11375000       342.57200       3.5026294    0.0088223153
       1037.0000       291.03517       99578.149       7873.8157      -1.7810000       3.3592500     -0.14000000       341.98000       2.8379309    0.0079335131
       1042.0000       291.09834       99583.698       7900.2318      -1.7910000       1.6195000      0.46075000       342.83800       4.8499492    0.0094394130
       1047.0000       291.21820       99605.246       7950.3659     -0.65050010       1.6230000      0.33525000       343.31100       2.6929836    0.0093433295
       1052.0000       291.19414       99583.465       7919.1470      -2.4085000       1.9837500     -0.54850000       341.42900       5.1238477    0.0083686124
       1057.0000       291.20542       99577.848       7927.6307     -0.93875000       1.0752500      0.62450000       342.72600       3.2988815    0.0078131779
       1062.0000       291.16001       99573.867       7930.1365      -1.9585000      0.58575000     -0.27700000       342.03000       3.2294556     0.010671058
       1067.0000       291.13794       99572.329       7949.4818      -2.4522500       2.4467500     -0.25450000       341.65600       3.4633312     0.010231857
       1072.0000       291.14050       99576.943       7991.0780      -2.2545000       1.8962500     -0.79675000       341.93400       3.2523012     0.010263162
       1077.0000       291.21261       99597.075       8095.6807      -2.2192500      0.99225000     -0.27675000       341.50100       3.6573104     0.010101457
       1082.0000       291.19938       99601.637       8098.8911      -2.3432500      0.36750000     -0.51150000       341.71500       3.4891383    0.0076406212
       1087.0000       291.13849       99601.383       8067.7994      -1.9217500      0.35375000      0.35450000       342.52400       4.6732423     0.012005533
       1092.0000       291.17608       99595.697       8040.9545      -2.0527500       1.3520000      0.31650000       342.30000       5.5502557    0.0078862646
       1098.0000       291.20034       99594.429       8007.5260      -1.9987500       1.6805000     -0.40375000       341.68700       5.3289869     0.011384654
       1103.0000       291.29548       99596.090       8003.4377      -1.5222500      0.94675000    -0.059750000       342.06800       5.9508976    0.0094481801
       1108.0000       291.32106       99595.065       7992.6116     -0.82450000      0.86050000      0.29375000       342.22900       4.1132905    0.0098929587
       1113.0000       291.25182       99600.267       7923.8673      -2.0295000      0.72750000      0.29100000       342.08400       4.5009642    0.0098810863
       1118.0000       291.24307       99596.870       7931.1316      -1.2362500       1.9287500     -0.56050000       342.16300       3.6596383    0.0085281948
       1123.0000       291.25813       99579.923       8012.0626      -2.4192500       2.0417500     -0.37850000       341.68700       2.9274666    0.0079219043
       1128.0000       291.24828       99573.210       8059.0256     -0.86550000       1.1105000     0.053250000       342.81800       3.4724623     0.010343357
       1133.0000       291.29760       99563.889       8175.2105      -1.0790000      0.99050000     -0.14500000       342.82100       3.8739142     0.010163422
       1138.0000       291.26245       99562.473       8206.3192      -1.4177500       1.7787500     -0.30900000       342.53400       4.0164490     0.010403370
       1143.0000       291.10599       99578.989       8145.9306      -1.2590000      0.66425000     -0.14150000       342.72000       2.7283952     0.012740366
       1148.0000       291.02636       99582.705       8115.8650      -1.3750000       1.4370000     0.094250000       342.45300       6.4575461     0.010471262
       1153.0000       290.94328       99581.625       8052.9748      -2.0052500       1.5532500     -0.49100000       342.18500       2.5617760    0.0078983273
       1158.0000       290.87645       99581.371       8008.3439     -0.62150000       1.6582500    -0.011500000       342.96800       5.9540135     0.011071336
       1163.0000       290.83780       99567.975       7973.2907      -1.6172500       1.6875000     -0.28550000       342.97300       4.3879327     0.010077662
       1168.0000       290.84078       99567.751       7958.2890      -2.3675000       1.8207500     -0.21250000       341.98600       3.8344316    0.0093936090
       1173.0000       290.85017       99582.055       7948.4017     -0.77250000       1.9195000     0.034250000       342.32500       2.9821640    0.0076822879
       1178.0000       290.89429       99587.023       7953.3694      -1.5372500       1.1705000    -0.074000000       342.00300       4.3426722    0.0081662170
       1183.0000       291.03666       99598.351       7992.7450      -1.8200000       1.6522500     -0.64025000       341.71400       4.4425576     0.011782828
       1189.0000       291.14257       99597.876       8030.6955      -2.0942500       1.2547500     -0.45600000       341.55400       4.6491789    0.0093966748
       1194.0000       291.28028       99573.939       8086.8345      -1.1232500       2.3400000    -0.091000010       342.07500       3.4521092    0.0078733461
       1199.0000       291.27710       99571.830       8097.3895      -1.1195000       1.2820000      0.43950000       342.58500       3.2555757    0.0087310772
       1204.0000       291.14331       99578.300       8058.1074      -1.5815000       1.4502500     -0.49075000       341.48400       2.9885081    0.0079004550
       1209.0000       291.08011       99579.976       8072.6701     -0.90700010      0.67275010     -0.54075000       341.54300       2.5588477    0.0070751700
       1214.0000       290.90674       99598.581       8090.8598     -0.79625000      0.35650000     -0.83375010       341.68200       2.9991124     0.010335427
       1219.0000       290.85581       99598.829       8103.1379     -0.32175000      0.68500010    -0.092500000       342.36200       2.2971817    0.0082434148
       1224.0000       290.93793       99575.587       8174.7611     -0.32400000      0.82150010     -0.10775000       341.46800       2.5704287    0.0096817274
       1229.0000       290.95791       99572.053       8187.4682     -0.18300000      0.93325010    -0.052250000       341.66900       2.6851420    0.0082071843
       1234.0000       290.96921       99573.339       8131.3215     -0.38900000       1.0072500    -0.047500000       342.45300       3.8490592    0.0084606351
       1239.0000       291.01276       99574.474       8116.0167      -1.6587500      0.62900000      0.15900000       342.02300       7.0728087     0.010557903
       1244.0000       291.08943       99592.724       8104.1184     -0.50625000       1.1702500      0.36750000       342.55700       3.2672295    0.0083768412
       1249.0000       291.11553       99593.460       8096.3822     -0.12075000      0.47225000      0.35225000       343.38500       2.4297406    0.0072984961
       1254.0000       291.15347       99573.804       8102.9981     -0.12275000      0.23150000     -0.25025000       342.17300       2.8985435    0.0078419414
       1259.0000       291.16567       99573.349       8110.0898     -0.56975000       1.2007500      0.11200000       342.79600       3.5457841    0.0087673708
       1264.0000       291.13090       99578.412       8132.7632      0.13375000       1.0817500     -0.53625010       342.39800       5.4217270    0.0098621383
       1269.0000       291.08673       99580.172       8125.1362      0.86525010       1.5197500      0.12825000       343.22100       3.5176973    0.0080732082
       1274.0000       291.02282       99598.523       8104.3846      0.32400000       1.1162500      0.17600000       343.38300       3.5326125    0.0091281107
       1280.0000       290.97470       99598.046       8083.5355       1.4747500       1.8652500    0.0032500000       341.94100       3.9022801     0.010043930
       1285.0000       290.90125       99574.202       8029.9295      0.85625000       1.8850000     -0.26425000       342.39100       2.3204875    0.0083509311
       1290.0000       290.87419       99571.704       8018.9418      0.22825000       1.7365000      0.29200000       343.38300       4.2065915    0.0089592977
       1295.0000       290.88888       99573.132       8026.8709      -1.1300000       1.7150000     -0.26000000       342.04500       5.2347471    0.0091702961
       1300.0000       290.90490       99574.940       8050.2402     -0.57375000       1.9560000      0.52700000       342.91800       3.8734025    0.0085860056
       1305.0000       290.94102       99593.693       8110.5561     -0.21975000       1.6110000     -0.23075000       342.80800       2.9708863    0.0081514958
       1310.0000       290.96108       99592.891       8135.8054     -0.86350010       1.6170000      0.57725000       343.10900       3.4804450     0.011276481
       1315.0000       290.98815       99574.485       8161.7285     -0.64375000       1.4385000     -0.12575000       343.23200       4.1298064     0.011894604
       1320.0000       291.01864       99573.440       8182.1820       1.0805000       2.7527500      0.68750010       343.54800       3.8055141     0.012860542
       1325.0000       291.03194       99572.261       8182.7249       2.5657500       1.0190000     -0.10150000       342.92400       2.6767417    0.0075150640
       1330.0000       291.06816       99575.697       8184.8593       2.0307500      0.97200010     -0.13500000       342.13500       3.0114954    0.0098523989
       1335.0000       291.15233       99598.888       8193.5035      0.83600000      0.60900000      0.33875000       343.76600       5.3510488     0.011183015
       1340.0000       291.16958       99598.596       8192.5489       1.2567500       1.3345000    -0.063750010       342.80100       2.8203594    0.0079416760
       1345.0000       291.18120       99580.337       8183.8436      0.38525000      0.93850000    -0.055250000       343.26700       3.8086658     0.010830996
       1350.0000       291.14162       99578.646       8160.5267      0.56100000       1.0307500     -0.21300000       343.77000       4.9406122     0.010343754
       1355.0000       291.02763       99573.355       8137.8046    -0.069750000       1.6602500     -0.29875000       343.06100       3.1581836    0.0085654856
       1360.0000       290.95720       99573.867       8093.5304      0.39650000       2.1467500      0.12950000       342.65900       3.1095785    0.0090669602
       1365.0000       290.84660       99593.473       8001.4051      0.64700000       2.4707500     -0.13375000       342.31300       3.5038094    0.0080645617
       1371.0000       290.81312       99591.711       7960.4059      0.54625000       2.7062500     -0.17800000       342.95400       3.8447005    0.0085973766
       1376.0000       290.85206       99572.987       7945.9565     0.043750000       2.6695000     -0.34300000       341.59500       2.6119241     0.010380204
       1381.0000       290.84211       99574.541       7923.6882     -0.19625000       1.8592500      0.28775000       342.05200       3.2752362    0.0080641856
       1386.0000       290.84749       99580.457       7930.1504     -0.73800000       2.3810000     0.063000000       342.32100       3.4754640     0.010383572
       1391.0000       290.85715       99579.462       7913.3902      0.41025000       1.9905000     -0.19575000       342.17600       2.1777383    0.0080656801
       1396.0000       290.84226       99588.760       7876.7816      0.66975000       1.5035000      0.47725000       343.01300       2.0237759    0.0091021304
       1401.0000       290.85137       99585.223       7850.8902    -0.022500000       1.4460000     -0.12625000       342.45800       2.0458025    0.0062600831
       1406.0000       290.90295       99561.417       7824.2696     -0.61200000       1.6697500     0.097000000       342.95200       2.0751661     0.010153697
       1411.0000       290.91459       99563.568       7815.7459    -0.022250000       1.1290000     -0.37500000       341.58400       2.0615990    0.0088321726
       1416.0000       290.90917       99581.334       7811.5110    -0.092500000       1.0240000     0.077000010       342.69300       2.0404325    0.0084644019
       1421.0000       290.89068       99582.600       7811.1328     0.075750000      0.54425000     -0.21425000       342.22200       2.0070965    0.0067739397
       1426.0000       290.85428       99587.907       7809.5494     0.058500000      0.24550000      0.14775000       342.10300       1.9802904    0.0088120000
       1431.0000       290.83455       99586.498       7858.6744      0.13525000       1.0280000     -0.47400000       342.09300       2.0116004    0.0095243141
       1436.0000       290.79739       99566.723       7943.1046      0.47050000      0.90325000      0.10400000       342.23100       2.0523616    0.0092398005
       1441.0000       290.78647       99569.165       7983.9852      0.78900000       1.6615000     0.082000000       342.14400       1.9525907    0.0076240860
       1446.0000       290.81689       99587.557       8076.5424       1.2262500       1.7660000      0.24750000       342.57500       2.1246151    0.0079852435
       1451.0000       290.77886       99586.015       8061.2750      0.92775010      0.73900000      0.16825000       343.08500       2.9596346    0.0087276017
       1456.0000       290.69715       99581.506       7941.9782      0.84250000       1.4955000     -0.30325000       341.93600       2.0610954    0.0077590294
       1462.0000       290.62972       99566.298       7883.3603      0.33950000       1.8665000     -0.41100000       342.36600       2.0032638    0.0085985537
       1467.0000       290.62542       99561.741       7853.2762      0.82075010       1.3017500      0.40200000       342.71200       2.3461650    0.0096884116
       1472.0000       290.73014       99579.243       7857.4334       1.8317500       1.1607500      0.14575000       342.96100       2.5912421    0.0090901283
       1477.0000       290.79970       99582.720       7880.1768       2.0042500      0.65225010   -0.0030000000       342.76800       7.3746631     0.010905119
       1482.0000       290.86926       99581.266       7918.6137      0.13150000      0.91025010      0.29225000       343.85200       3.7038479     0.011607148
       1487.0000       290.94764       99574.100       7952.1104      0.72475000       2.5150000      0.70225000       343.11300       4.8456963     0.010095391
       1492.0000       291.02800       99578.357       8055.7806     -0.21675000       1.3407500      0.94125000       343.00100       2.8770635    0.0083444005
       1497.0000       291.11162       99579.150       8231.8389    -0.050250000      0.91175000      0.62250000       342.47100       4.2926491    0.0090878265
       1502.0000       291.13952       99595.787       8306.1217       1.4895000       3.6997500     -0.46475000       342.30700       2.6399744    0.0080099374
       1507.0000       291.16247       99599.888       8367.2670      0.48100000       2.0327500      0.79325000       342.86500       2.8703475    0.0071363631
       1512.0000       291.12986       99576.810       8344.8509     -0.29125000       3.2150000     -0.50550000       341.76900       3.1343059    0.0076723677
       1517.0000       291.10014       99572.285       8333.4331       1.0680000       4.0955000      -1.0017500       341.93500       4.3911402    0.0090998447
       1522.0000       291.07047       99573.927       8324.1153      0.18700000       2.9585000      0.21350000       342.41100       2.4103791    0.0071948505
       1527.0000       291.04426       99580.134       8332.2480     -0.39350000       1.4347500      0.57900010       342.72800       3.1127820    0.0083012583
       1532.0000       291.04552       99579.235       8323.0015     -0.91950010      0.57800000      0.12850000       343.07400       3.9476593    0.0080005518
       1537.0000       291.05081       99587.960       8305.4268     -0.98050000       1.2535000     0.051500000       342.40600       2.6791676    0.0071698722
       1542.0000       291.05465       99571.715       8245.6006     -0.41375000      0.75350000     -0.18350000       342.95000       3.7231430    0.0086178216
       1547.0000       291.05604       99566.956       8196.2958     -0.42725000       2.0917500     0.086250010       342.32900       2.9481794    0.0077704056
       1553.0000       291.05223       99581.449       8111.1929      0.79300000       1.9107500      0.11600000       342.65300       2.6632560    0.0082213453
       1558.0000       291.00001       99582.061       8036.0471      0.59425000       2.4520000     -0.33650000       341.91800       2.4539083    0.0078560423
       1563.0000       290.86970       99574.015       7929.6273     -0.26100000       2.2790000     -0.26800000       342.61500       3.6726563    0.0092041919
       1568.0000       290.83244       99575.163       7894.0422     -0.85400000       1.6532500      0.57850000       342.69900       2.8862511    0.0086188019
       1573.0000       290.81110       99573.183       7901.2954      0.59125000       1.8335000     0.051750000       342.93900       3.9990649     0.010556150
       1578.0000       290.78405       99573.576       7890.0173       1.4835000       2.0280000     -0.12100000       342.31300       3.3024711    0.0084754108
       1583.0000       290.84559       99591.273       7929.4601       1.4077500       2.7250000     0.031000000       341.99300       2.7901792    0.0077953832
       1588.0000       290.86339       99593.498       7952.8803      0.42975000       2.2427500      0.29500000       342.53700       3.2289962    0.0073931674
       1593.0000       290.80990       99574.240       7946.3943      0.51025000       1.8222500      0.13450000       342.46600       5.5355796     0.017681274
       1598.0000       290.79097       99572.608       7938.7015     -0.64000000       1.7350000     -0.32475000       342.21600       3.5681996    0.0081824126
       1603.0000       290.77188       99582.584       7926.3112     -0.94825010       1.8632500      0.33375000       343.50000       3.6803242    0.0083569658
       1608.0000       290.79443       99580.500       7939.3771     -0.65650000       1.9790000      0.44600000       342.83900       6.0075106     0.010181076
       1613.0000       290.92526       99578.664       7972.8419     -0.76875000       1.8175000     -0.27725000       341.92100       2.1746451    0.0093122603
       1618.0000       290.91963       99581.547       7971.8095     -0.46550000       1.1910000     -0.51925000       342.06600       2.4059270    0.0096040591
       1623.0000       290.85796       99574.683       7979.4229     -0.93175010       1.3892500     -0.12525000       341.56500       2.5342020    0.0066647230
       1628.0000       290.80423       99573.233       7977.4625     -0.69175000      0.94400010      0.11125000       341.77000       2.8224379    0.0073350967
       1633.0000       290.61704       99591.606       7927.4616     -0.85500000      0.70825000    -0.019500000       342.44300       3.8693452     0.011566378
       1639.0000       290.49308       99593.478       7888.8592      0.14900000       1.2200000   -0.0012500000       343.10100       2.2777694    0.0082991469
       1644.0000       290.45372       99575.107       7868.2355      0.70900010      0.92775010     -0.33475000       342.61400       3.0888039    0.0082390733
       1649.0000       290.43174       99573.334       7859.8168      0.13775000       2.1415000     0.074500000       342.68800       2.4136725     0.012660687
       1654.0000       290.44268       99575.888       7855.7369      0.48825000       1.3337500     -0.16275000       341.52200       2.2954769    0.0080019362
       1659.0000       290.44607       99574.319       7851.5647      0.35600000      0.87675010     0.042500000       342.14100       3.8943238     0.010829517
       1664.0000       290.49529       99577.507       7865.4303      0.51500000       1.6400000    -0.047000000       341.92800       3.2642348    0.0092254820
       1669.0000       290.51156       99582.604       7874.7391      0.15175000      0.37250000      0.45775000       342.52100       3.7264985    0.0084109652
       1674.0000       290.48718       99583.984       7872.5554      0.99950000       1.2107500     -0.41225000       341.50500       2.7541781    0.0082840030
       1679.0000       290.50097       99585.319       7881.3609       1.1947500       1.1500000     -0.16575000       341.47700       3.6339465     0.010744549
       1684.0000       290.53852       99594.995       7909.1192      0.89700000       1.1627500     0.027750000       342.00200       3.4835833    0.0078368333
       1689.0000       290.55869       99597.926       7921.6575       1.0272500      0.78100000      0.35100000       343.07800       4.1236384    0.0087392166
       1694.0000       290.58262       99590.830       7911.6876      0.96125010       2.1392500     -0.36075000       341.61700       4.6243295     0.010246796
       1699.0000       290.61264       99589.229       7934.7940      0.52725010       1.5380000      0.24725000       342.13900       4.6184634     0.011926989
       1704.0000       290.61069       99594.506       7959.9637      0.48875000       2.3835000    -0.058250000       342.31800       5.0434601    0.0094114700
       1709.0000       290.65879       99590.388       8006.7931      0.18400000       1.5595000     -0.11225000       342.07200       2.7134126    0.0085099851
       1714.0000       290.79620       99577.586       8116.5176      0.55575000       1.7877500     -0.21300000       341.58500       3.0464241    0.0082914427
       1719.0000       290.82477       99572.943       8162.0437       1.2850000       1.4710000    -0.068250000       341.81300       2.4261383    0.0087023654
       1724.0000       290.82587       99562.844       8195.6828       1.3570000      0.98850010      0.42225000       342.09300       3.1432379    0.0084876406
       1730.0000       290.79604       99563.344       8198.8129     -0.18800000      0.84200010     0.029500000       342.80100       2.2000811     0.010090662
       1735.0000       290.65897       99581.999       8142.2058      0.11850000       1.0060000      0.15850000       342.66900       5.8438185     0.014246054
       1740.0000       290.61200       99582.439       8112.1905     -0.16425000      0.79500000    -0.081750010       341.80400       3.0502425    0.0091187863
       1745.0000       290.61213       99574.222       8086.4257     -0.26875000       1.0690000     0.017500000       341.98000       3.1381184    0.0079467250
       1750.0000       290.58244       99575.837       8039.8555      0.11850000       1.0830000     0.023250000       342.35800       4.0104524     0.011324673
       1755.0000       290.53520       99576.394       7963.4287     -0.55700000       1.4757500      0.18850000       342.85800       4.0439162    0.0087261885
       1760.0000       290.54761       99573.427       7934.6041     -0.35700000       1.2185000     -0.42400000       341.95200       3.4087510    0.0083420106
       1765.0000       290.56245       99574.004       7896.6299    -0.076500010       1.0802500      0.29200000       342.67000       3.4458005    0.0083963414
       1770.0000       290.62096       99577.043       7903.5103     -0.26425000       1.4705000      0.33050000       342.75200       2.6860386    0.0099346559
       1775.0000       290.77328       99575.345       7980.5809     -0.48675000       1.3185000    -0.047250000       343.27200       4.0970090    0.0096297249
       1780.0000       290.85761       99573.911       8014.5062     -0.40000000       1.4247500     0.065250000       342.33800       2.2709219    0.0097516035
       1785.0000       290.90737       99582.827       8016.0637   -0.0017500000       1.0175000      0.29050000       343.22800       2.5914524    0.0092623115
       1790.0000       291.00294       99581.307       8091.1117     -0.49975000       2.0285000      0.34975000       343.45000       3.0845152    0.0099553596
       1795.0000       291.09980       99562.782       8181.3590     -0.36050000       2.6145000     -0.74800000       342.21400       3.4415153    0.0079829605
       1800.0000       291.20667       99563.006       8303.8423      0.14550000       3.1972500     -0.23350000       342.21000       4.2972362     0.010229728
       1805.0000       291.39205       99578.338       8561.4873      0.90925000       2.9915000     -0.15150000       342.11000       2.7691913    0.0079435027
       1810.0000       291.45718       99574.685       8641.5461      0.91025010       2.1597500    -0.026500000       342.22000       3.5159788     0.010405051
       1815.0000       291.49007       99562.964       8669.8333     -0.27075000       1.8940000      0.43925000       343.22500       2.8788607    0.0074703097
       1821.0000       291.43361       99565.846       8618.9065      0.18700000       2.6280000      0.95200000       342.79000       3.7862178     0.010572296
       1826.0000       291.26757       99564.593       8432.9905       2.0502500       1.7392500    -0.068750000       342.54800       3.2629170    0.0091518288
       1831.0000       291.17845       99563.374       8335.0510      0.99350010       2.4185000  -0.00050000000       342.83200       3.5546431    0.0085028327
       1836.0000       291.05493       99577.211       8221.8944      0.24475000       1.8412500     0.028500000       343.67100       3.2395293     0.014010128
       1841.0000       290.98292       99578.804       8146.4675      0.64150010       3.5720000     -0.62325000       341.98100       2.3270956    0.0076194755
       1846.0000       290.94234       99563.910       8079.0594      0.62825000       2.7525000     -0.31225000       342.07000       2.7414047    0.0078973463
       1851.0000       290.92976       99562.559       8064.5406      0.48200000       2.4547500    -0.028500000       342.28700       2.5250653    0.0074247442
       1856.0000       290.95153       99571.288       8104.1324      0.41025000       2.4837500      0.25550000       342.86100       2.5275624    0.0084107330
       1861.0000       290.94111       99570.498       8090.9299       1.2070000       2.7050000     -0.81075010       342.76000       2.3953369    0.0086853953
       1866.0000       290.94725       99562.840       8095.1852      0.44350000       2.6075000     -0.17250000       342.43800       2.7014695    0.0089593434
       1871.0000       290.95722       99566.437       8086.6293      0.85550000       2.1547500     -0.34375000       343.18000       2.5230531    0.0088140463
       1876.0000       290.92452       99578.341       8016.4326       1.3112500       2.7962500     -0.23850000       342.44700       3.0411729     0.016922261
       1881.0000       290.97000       99573.910       8038.1312     -0.22125000       2.0152500     -0.15150000       342.68800       3.0049176    0.0086633021
       1886.0000       291.08463       99563.946       8130.0961       1.1492500       2.7927500     0.019500000       342.96800       3.1611357    0.0089004498
       1891.0000       291.15523       99566.677       8164.7593      0.92825000       3.4720000     -0.45200000       342.42400       3.1547033    0.0080621396
       1896.0000       291.25177       99564.743       8214.9443      0.99625000       3.6372500     -0.97675010       341.69000       2.7638284    0.0082808678
       1901.0000       291.29470       99563.526       8239.9076     -0.34525000       2.4447500      0.21025000       342.46200       2.6816759     0.015103257
       1906.0000       291.30381       99575.266       8215.1627      0.53200000       3.0910000     -0.79325000       342.38000       2.9128122    0.0091136002
       1912.0000       291.28480       99576.792       8264.1545      0.34650000       1.9132500    -0.076250000       342.43300       3.7377404    0.0081346253
       1917.0000       291.29347       99574.731       8308.7175      0.16000000       2.5867500     0.051500000       342.13200       3.8572785    0.0089512869
       1922.0000       291.34482       99581.335       8419.4546     0.052000000       2.6035000    -0.075250010       342.23100       4.8875733    0.0087734831
       1927.0000       291.35591       99582.820       8453.9706     -0.27800000       2.4680000    -0.040000000       342.25800       2.6667632    0.0075209602
       1932.0000       291.35471       99579.362       8450.8256      0.33500000       1.8397500      0.28400000       342.58800       3.6522213    0.0085453124
       1937.0000       291.35066       99562.118       8412.9776      0.66100000       2.1022500     -0.29425000       341.76800       3.5870491    0.0088534737
       1942.0000       291.36054       99564.814       8388.4092      0.92975000       1.9935000     -0.41825000       341.75000       3.6271805    0.0097492796
       1947.0000       291.35591       99577.775       8312.3190      0.60800000      0.44075000     -0.25650000       341.90600       3.9778883    0.0085478215
       1952.0000       291.30919       99563.071       8292.4488      0.24050000      0.64350000      0.22300000       342.27500       4.6743076     0.010396010
       1957.0000       291.29870       99563.653       8280.1995      0.27600000      0.45275000      0.33975000       343.08500       4.0444217    0.0086991762
       1962.0000       291.25946       99567.210       8274.4235      0.26300000      0.32600000      0.44275000       343.89700       3.4636661    0.0072526059
       1967.0000       291.23715       99563.992       8255.8558      0.36300000      0.14800000      0.19400000       342.70800       2.4311494    0.0085572902
       1972.0000       291.23948       99563.232       8236.9530     -0.36325000      0.13475000    -0.067500000       343.03800       3.0858096     0.012732966
       1977.0000       291.31202       99576.635       8232.0911     -0.52825000       1.8145000     -0.45725000       342.24700       5.8084233    0.0095892157
       1982.0000       291.29855       99581.257       8210.2308     -0.27900000       1.5770000      0.25250000       343.06300       4.3384830     0.014126025
       1987.0000       291.25578       99575.276       8168.1413     -0.62325000      0.91675000      0.44925000       342.96100       2.9938584     0.010930954
       1992.0000       291.18428       99575.158       8143.6651     -0.48075000       1.4525000      0.20675000       342.01700       4.8190400    0.0087119923
       1997.0000       291.14266       99576.395       8126.6178     -0.59750000       1.7115000      0.10750000       342.84800       3.7055584     0.013476155
       2003.0000       291.08147       99566.620       8100.4961     -0.64525000       1.4055000     0.083500010       342.39200       3.6504393     0.010786811
       2008.0000       291.08572       99563.083       8098.2316     -0.39550000       1.7640000      0.21775000       342.71900       4.0566871    0.0088513401
       2013.0000       291.16799       99570.559       8124.4295     -0.21425000       1.3052500      0.19350000       341.96700       3.2739314    0.0092857160
       2018.0000       291.20766       99571.269       8136.4399     -0.22450000       1.4485000     -0.20650000       341.55400       2.8151028    0.0078490381
       2023.0000       291.26577       99562.560       8139.2415     -0.16675000       1.1467500     -0.11875000       341.60100       2.8505537    0.0080334984
       2028.0000       291.31443       99563.971       8165.9380     -0.21950000       1.2252500    -0.069750000       341.92000       4.3286428     0.010326763
       2033.0000       291.36197       99578.554       8227.9736     -0.23075000       1.0142500    -0.032750000       342.16200       4.2077034    0.0090445617
       2038.0000       291.35954       99577.081       8241.5452     -0.34675000       2.0137500     -0.12075000       342.55700       2.9319134    0.0075467224
       2043.0000       291.32152       99562.979       8251.9652     -0.52100000      0.32575000      0.36700000       344.10500       6.7133258     0.012885752
       2048.0000       291.30031       99564.083       8248.0011     -0.41175000       1.4037500      0.40075000       343.49500       4.5685899    0.0086425679
       2053.0000       291.23322       99569.240       8196.4126     -0.62550000       1.4297500     -0.25050000       341.96000       3.5363224     0.013399004
       2058.0000       291.18476       99564.283       8147.5673      0.21375000       2.4352500     -0.11375000       342.32100       4.5025729     0.013475895
       2063.0000       291.12226       99561.494       8076.3042     -0.52350000       1.6727500      0.31225000       343.04900       6.0366137     0.010316004
       2068.0000       291.13633       99566.519       8044.6115     -0.29975000       1.4090000     0.044500000       342.83200       5.9126618     0.020258588
       2073.0000       291.18435       99569.519       8020.2681     -0.34500000       2.0232500    -0.022000000       341.66800       2.1077132     0.012190656
       2078.0000       291.24861       99564.536       8001.9114     -0.20875000       1.7975000     0.018500000       341.69100       2.7098757    0.0091464424
       2083.0000       291.44077       99561.102       8036.2787      0.22050000       1.8470000    -0.040250000       341.88300       2.9304512    0.0076954773
       2088.0000       291.53792       99566.047       8038.0878      0.47475000       1.6492500     0.045250000       342.02600       5.4338698    0.0090388226
       2094.0000       291.62937       99565.591       8002.8674      0.32800000       1.5782500     -0.40500000       342.44100       3.4739179    0.0085752625
       2099.0000       291.62025       99563.358       7989.8663     -0.11350000       1.8842500     0.051000000       342.29700       2.9972874    0.0086033682
       2104.0000       291.51218       99574.950       7980.7986      0.25225000       1.4722500     -0.18050000       342.51100       6.8505675     0.010777988
       2109.0000       291.42552       99578.410       7968.4265      0.21750000       1.5285000     -0.10075000       342.42000       2.4252634    0.0080250681
       2114.0000       291.24109       99566.776       7959.8967       1.0625000       2.2402500     0.039250000       341.75400       3.5950043     0.011975837
       2119.0000       291.15243       99562.494       7952.1602      0.59400000       2.2795000     -0.50625000       341.83800       2.3221892    0.0075398250
       2124.0000       291.11112       99564.655       7938.3675      0.18925000       1.3995000      0.40675000       342.53600       3.2428247    0.0090005695
       2129.0000       291.07835       99565.703       7932.1379       1.1975000       1.7420000     0.042750000       342.30700       3.7115832    0.0090252752
       2134.0000       291.07429       99564.603       7923.3135      0.49600000       1.8405000     -0.33450000       341.99500       5.2244525     0.015356717
       2139.0000       291.10145       99564.969       7936.9577      0.46350000       1.4747500      0.26225000       342.51200       4.2594939     0.013367922
       2144.0000       291.17599       99571.144       7979.5151      0.12550000      0.90250000     -0.27800000       342.60200       3.5818892    0.0090783700
       2149.0000       291.21541       99571.382       7993.6852      0.57000010       1.8095000     -0.21200000       341.66800       2.4924799    0.0087547559
       2154.0000       291.33095       99565.301       8045.9096    -0.067000000       1.2555000     0.011750000       342.87500       4.0760222     0.013172591
       2159.0000       291.32144       99564.729       8023.6554     -0.25325000       1.5320000     -0.15075000       341.67500       3.4235734    0.0082162442
       2164.0000       291.21158       99565.961       7920.2517      0.44150000       1.5237500     -0.15800000       341.64400       10.565888     0.020313835
       2169.0000       291.12375       99564.976       7865.6282      0.33925000       1.4615000     -0.40400000       341.83800       3.6987841     0.012750765
       2174.0000       290.94909       99564.624       7775.7350      0.32800000       1.1780000      0.27025000       342.00800       4.4169426     0.010262729
       2180.0000       290.82844       99565.791       7731.0529     0.083000000       1.2685000    0.0045000000       342.45400       3.6226917    0.0088592098
       2185.0000       290.75882       99568.151       7752.7527      0.43550000       1.7160000    -0.011500000       342.38100       2.1019145    0.0075032625
       2190.0000       290.71186       99564.008       7747.1556      0.49575000       1.2975000      0.12425000       342.22000       2.5926704     0.011408748
       2195.0000       290.70091       99554.417       7745.1156       1.5490000       1.3202500     0.040000000       343.12300       3.6515942     0.013138341
       2200.0000       290.68713       99554.684       7749.2310      0.56325000       1.3557500      0.31825000       343.27600       2.4841068    0.0093839658
       2205.0000       290.70080       99554.186       7774.4935       1.2140000     -0.15250000      0.14800000       343.32300       2.7377662    0.0076688074
       2210.0000       290.70103       99554.538       7753.1713       1.5835000       1.5607500      0.10050000       341.93100       4.1558637     0.013917311
       2215.0000       290.71157       99562.408       7719.3168      0.97525010      0.81850000      0.30450000       342.52100       3.1543720    0.0083308405
       2220.0000       290.69550       99569.487       7677.0709       1.9915000       1.4190000     -0.13200000       341.59300       3.2241482    0.0077239460
       2225.0000       290.65703       99578.550       7575.9676       1.7672500      0.94175000     -0.26575000       341.63800       2.5378072    0.0085542673
       2230.0000       290.63691       99575.098       7535.6104       1.3927500      0.66075000      0.11950000       342.48100       3.4379123    0.0089654864
       2235.0000       290.60078       99563.544       7526.1283       1.3310000       1.0070000     -0.14675000       341.59800       2.4881195    0.0085404281
       2240.0000       290.58715       99565.816       7513.8814      0.59875010      0.89825000      0.10825000       342.05200       5.9948113     0.010609802
       2245.0000       290.56587       99567.229       7506.5251      0.64275000       1.0362500    0.0060000000       342.97100       4.1453111     0.010111125
       2250.0000       290.61564       99562.320       7534.0858       1.8225000      0.44475000     -0.25725000       341.89300       2.3184057    0.0067269716
       2255.0000       290.71491       99565.607       7591.3896       1.1950000       1.8157500     -0.28825000       342.86800       2.0940114    0.0078349966
       2260.0000       290.79143       99567.504       7629.0165       1.6597500       1.3430000     -0.14950000       341.64300       4.1026626     0.010042082
       2265.0000       290.93047       99556.714       7690.6365       1.3752500       1.3682500    -0.093750010       341.65900       3.8033967     0.010448979
       2271.0000       291.02079       99550.118       7746.6210      0.95750000      0.97125010   0.00075000000       342.07400       4.0854819     0.010428040
       2276.0000       291.07614       99558.374       7787.2775       1.1365000      0.31475000     -0.10500000       342.55500       2.2618864    0.0071937595
       2281.0000       291.05096       99553.916       7781.4298      0.73825000       1.3895000     -0.66150000       342.38300       2.0356878    0.0068983145
       2286.0000       290.94695       99532.048       7748.4986       1.1407500       1.1795000      0.16750000       342.45700       2.0799176    0.0071216112
       2291.0000       290.93544       99532.193       7749.5692      0.72175000      0.44450000      0.57875000       342.80700       2.0891850    0.0077619986
       2296.0000       290.89176       99543.767       7718.0920      0.79350010     -0.43475000     -0.14350000       342.54500       2.0606279    0.0094093544
       2301.0000       290.88015       99548.797       7713.8882       1.1405000      0.70975010     -0.11150000       342.52200       2.0025677    0.0090130530
       2306.0000       290.94163       99563.876       7749.9108      0.96550010      0.28450000    -0.033500000       342.89000       2.0208517    0.0066101196
       2311.0000       290.98209       99561.716       7780.2412       1.8372500      0.27000000     0.056500000       342.50600       2.0401827    0.0092167223
       2316.0000       290.99045       99542.808       7803.8513      0.83625010     0.068500000      0.55425000       343.17500       2.0741019    0.0097906450
       2321.0000       291.01913       99544.320       7814.6555       2.5650000     -0.59450000     -0.70875000       342.43400       2.0563794    0.0068867664
       2326.0000       291.09739       99550.630       7852.8992       1.8422500     -0.15900000      0.11100000       342.52900       2.0294452    0.0076252778
       2331.0000       291.13855       99549.682       7850.0474       2.1825000      0.54425000    -0.074000000       342.66000       2.0603494    0.0082846034
       2336.0000       291.16386       99555.161       7802.6534       1.9805000      0.22300000      0.32300000       342.25400       2.0345385    0.0087982578
       2341.0000       291.14589       99559.255       7769.4709       1.4055000      0.92700000      0.21925000       343.13300       2.0209048    0.0090508154
       2346.0000       291.12727       99555.877       7743.5460       1.4215000      0.21450000     -0.57100000       342.52000       2.0044366    0.0067195513
       2351.0000       291.06030       99552.809       7689.5853      0.58725010      0.17475000     -0.16125000       342.41000       2.0418292    0.0089256734
       2356.0000       290.89954       99554.466       7598.4279       1.1985000       1.4380000     0.078000000       343.14300       2.0177410     0.010185036
       2362.0000       290.82884       99558.166       7551.4237       2.4635000       1.6985000     0.097750010       342.82900       2.7293266    0.0092506901
       2367.0000       290.78680       99555.132       7520.8445       2.2487500       1.2187500     -0.24575000       341.66600       2.0215101    0.0073445642
       2372.0000       290.77029       99552.250       7498.3625       2.1235000      0.99425010     -0.10075000       341.91200       2.0225752    0.0073660594
       2377.0000       290.78772       99555.213       7517.3665       2.5732500    -0.082250010     -0.21300000       343.07900       2.0061185    0.0076667880
       2382.0000       290.82978       99558.176       7560.8984       2.3170000   -0.0037500000      0.30300000       342.55700       2.0041605    0.0067877300
       2387.0000       290.89794       99555.086       7624.8243       2.8895000      0.14500000     -0.51650000       343.06600       2.0402271     0.012465942
       2392.0000       290.93844       99552.132       7672.6124       3.3767500      0.43275000    -0.079500000       342.10100       1.9657427    0.0070323844
       2397.0000       291.00596       99556.052       7761.3784       4.0552500      0.47850000     -0.11850000       342.96300       1.9942278     0.013285765
       2402.0000       291.03044       99553.813       7770.5044       4.9795000       1.1467500      0.16325000       342.56100       1.9767970    0.0068029675
       2407.0000       291.05069       99549.669       7787.1260       3.4312500       4.0725000     -0.69525000       342.47600       2.0369876    0.0089587468
       2412.0000       291.07039       99546.828       7803.3507       3.5597500       3.1705000      0.20875000       342.75100       5.0848096     0.017593064
       2417.0000       291.10027       99549.711       7822.0955       2.5920000       2.6622500      0.54750000       343.03200       2.7776527     0.010334085
       2422.0000       291.13021       99553.830       7840.8092       2.9760000       2.1662500      0.67675000       342.99400       3.5564966    0.0071792749
       2427.0000       291.13611       99554.473       7856.8756       1.3962500       2.8892500    -0.091750000       342.80800       2.6532988    0.0094722182
       2432.0000       291.19954       99556.675       7871.9142      0.30400000       3.1480000      0.28975000       342.88200       3.6168788    0.0079589963
       2437.0000       291.30023       99566.779       7883.5383      0.48050000       2.3322500     -0.56525000       342.13500       3.9299431     0.011770378
       2442.0000       291.37138       99560.162       7917.6920      0.76800000       2.1862500     -0.29375000       342.52700       3.2306914     0.014092762
       2447.0000       291.45185       99558.837       7959.0130      0.50375000       1.3210000     -0.59300010       342.60600       3.1398826     0.011494625
       2453.0000       291.61587       99567.982       8121.0003      0.11700000       2.3192500     -0.29800000       342.73500       4.1083880     0.014895796
       2458.0000       291.62881       99566.562       8123.5979      0.64525000       2.0700000     -0.25550000       342.57800       2.7868101    0.0081098116
       2463.0000       291.57308       99554.897       8025.4632      -1.6837500       3.2667500     -0.18425000       342.56500       4.0983234    0.0097036072
       2468.0000       291.50882       99554.166       7947.0852      0.37725000       3.0512500     -0.57325010       342.58900       2.9330742    0.0077300093
       2473.0000       291.31726       99559.155       7760.9802      -1.0817500       3.3492500      0.18300000       343.10300       3.1557241    0.0084385977
       2478.0000       291.16859       99555.085       7626.9756     -0.46700000       2.7832500     -0.62800000       342.58400       2.4539859     0.013648653
       2483.0000       291.01877       99548.047       7534.5752     -0.48500000       2.9485000      0.27275000       342.39900       3.4748929    0.0083674108
       2488.0000       290.92065       99550.238       7447.4619     -0.68700000       2.6032500    -0.045500000       342.92200       3.2025247    0.0080535159
       2493.0000       290.82915       99553.609       7343.8598     -0.44750000       3.7737500      0.34975000       342.84300       2.0931424     0.011027699
       2498.0000       290.77210       99549.651       7278.9193       1.1317500       2.4540000      0.29150000       342.99400       2.8661278    0.0094972553
       2503.0000       290.75729       99547.137       7235.7306       1.8777500       3.4510000      0.14700000       343.10600       3.7368553     0.013212309
       2508.0000       290.79083       99551.091       7227.7038       1.0940000       4.2187500     -0.53475000       341.86000       2.7505738    0.0099116279
       2513.0000       290.89978       99553.217       7273.4115       1.2152500       2.8777500      0.71025000       342.32100       4.6667081     0.014377295
       2518.0000       290.95968       99549.162       7302.3047       1.2140000       2.7392500      0.28375000       342.61200       3.2242723    0.0077537224
       2523.0000       291.04210       99546.987       7349.4359       1.3327500       1.5097500     -0.41750000       342.76800       2.6797381    0.0079341917
       2528.0000       291.12165       99551.054       7401.9179       2.1055000       1.7515000     0.079750000       342.45800       3.1755755     0.011055471
       2533.0000       291.16952       99552.329       7445.4464       1.4962500       4.4665000     -0.70625000       342.44200       2.7367771     0.011781985
       2538.0000       291.20989       99549.523       7499.6526       2.9162500       3.2792500      0.13100000       342.61300       2.4233636    0.0085978638
       2544.0000       291.29046       99553.051       7587.2464       2.4577500       2.0115000     -0.38450000       342.58400       4.2105472    0.0090475256
       2549.0000       291.32244       99557.645       7664.1529       1.3167500       3.1900000     -0.32650000       342.05000       2.4432836    0.0099011115
       2554.0000       291.31298       99554.515       7778.9524       1.0372500       2.0752500     -0.26275000       342.47700       3.1748208    0.0090826607
       2559.0000       291.29927       99554.257       7822.2190       1.6067500       2.3077500     -0.11775000       342.93800       4.1367365    0.0089285480
       2564.0000       291.30350       99565.061       7859.9152       1.4910000       1.1305000      0.78100000       342.93500       2.7271987     0.010646809
       2569.0000       291.24180       99567.866       7844.1839       1.6600000       1.3540000      0.28800000       342.86900       3.5617653    0.0084767552
       2574.0000       291.09154       99559.510       7723.4505       1.7465000       2.5747500     -0.37025000       342.14400       2.4392134    0.0089717070
       2579.0000       291.01477       99559.213       7665.6980       2.2040000       2.1922500      0.18850000       342.28600       3.0079734    0.0087099978
       2584.0000       290.95338       99567.989       7615.9807       1.7757500       2.3845000     -0.48250000       342.14700       3.6990372    0.0091573172
       2589.0000       290.86332       99565.942       7563.7726       1.4272500       1.3315000     -0.34250000       343.08800       3.4141931    0.0087195984
       2594.0000       290.79872       99554.503       7523.4783       1.1020000       1.9885000      0.35625000       343.02000       3.8215920    0.0085896629
       2599.0000       290.72547       99554.265       7491.5980       1.0035000       3.1127500     -0.56200000       342.58600       2.4307494    0.0065434952
       2604.0000       290.60410       99558.409       7452.4776       2.6635000       3.0630000     -0.49650000       341.96100       2.2868479    0.0094872028
       2609.0000       290.50770       99554.085       7427.0251       1.7967500       2.2872500   -0.0032500000       342.67600       2.1522591     0.010324372
       2614.0000       290.41682       99548.473       7412.2630       1.5277500       1.3420000     0.011500000       342.81500       2.0641470    0.0071597039
       2619.0000       290.37441       99550.985       7419.0388       2.3877500       1.8370000     -0.36275000       342.47100       2.2642618    0.0063573423
       2624.0000       290.34891       99551.675       7447.4196       2.0050000       1.5447500     0.042500000       342.00400       3.2515263    0.0072286271
       2629.0000       290.33649       99549.102       7463.6242       1.8085000       2.0672500      0.50200000       342.31100       2.6486331    0.0073487561
       2635.0000       290.37664       99554.067       7493.0143       1.9350000       2.8780000      0.48850000       342.51500       4.5296681     0.010418768
       2640.0000       290.42243       99558.418       7532.5322       2.6542500       2.4602500     -0.63100000       341.99900       2.5835503     0.011556059
       2645.0000       290.47260       99554.265       7557.7080       1.6657500       2.0500000     -0.26900000       342.69500       2.5300131    0.0082272519
       2650.0000       290.52820       99554.502       7616.0018       2.6012500       1.7367500      0.53000000       342.80300       3.1793120     0.014697874
       2655.0000       290.63962       99568.432       7722.1727       2.6225000       1.5042500    0.0035000000       343.11700       2.8131624    0.0070225275
       2660.0000       290.68711       99567.254       7798.8237      0.94000010       2.1985000      0.20225000       343.44500       2.2702329    0.0068915579
       2665.0000       290.70965       99548.843       7911.3132       1.6290000       2.6702500      0.27975000       343.24100       2.7443007    0.0081044183
       2670.0000       290.70725       99548.410       7928.4948      0.98750010       2.2897500      0.47950000       342.60400       2.3277587    0.0066531391
       2675.0000       290.65791       99557.741       7886.7005       1.0215000       2.5847500    -0.055250000       342.87400       2.7042929    0.0065369748
       2680.0000       290.63803       99554.552       7855.5873       1.2450000       2.3227500     -0.28600000       342.56900       2.1611971    0.0085759580
       2685.0000       290.57830       99548.576       7753.4792       1.2025000       1.9445000     -0.48375000       342.55500       2.0324122    0.0085955448
       2690.0000       290.59685       99551.105       7704.6944      0.91675000       1.9485000     -0.20225000       342.79900       2.1417169    0.0098993106
       2695.0000       290.67027       99551.759       7681.7063       1.9712500       1.9282500     -0.20275000       342.26600       2.0628649    0.0066830527
       2700.0000       290.72670       99547.829       7661.5179       1.2412500       2.2025000     -0.35800000       341.99800       2.1063064    0.0083217666
       2705.0000       290.80737       99548.612       7627.0705      0.60225000       1.5205000      0.19650000       342.60100       2.1139680    0.0069446000
       2710.0000       290.90461       99552.685       7649.5925       1.5412500       1.8255000     0.038750000       342.01100       2.0828682     0.014750390
       2715.0000       291.02848       99548.627       7717.6182       1.4042500       1.9552500    -0.091500010       342.55300       2.6478617    0.0088660771
       2720.0000       291.10266       99549.485       7776.9366       1.4835000       2.4502500     -0.20550000       342.20000       2.0543447    0.0088369118
       2726.0000       291.20952       99566.991       7905.1677       1.5580000       2.5240000     0.096000000       342.41700       2.0097507    0.0070550631
       2731.0000       291.24273       99569.455       7947.5844      0.72075000       2.0470000     -0.38325000       342.06700       1.9936745    0.0070784867
       2736.0000       291.20873       99559.021       7960.5804       1.5610000       1.4505000      0.15200000       342.09200       2.3127539     0.011605350
       2741.0000       291.19020       99559.752       7969.0943      0.35675000       1.4047500      0.50425000       342.83000       2.0955006    0.0065636780
       2746.0000       291.14517       99568.434       7930.9710      0.70125000      0.92450000      0.27175000       343.00300       2.2134717    0.0066259722
       2751.0000       291.14384       99562.815       7944.8896      0.31625000       1.3987500     -0.48000000       342.44900       2.0523999    0.0089316151
       2756.0000       291.14319       99548.660       7987.0693      0.45775000       1.9545000      0.12125000       342.58200       2.8780639    0.0097169537
       2761.0000       291.15182       99549.335       7988.7733       1.1722500       2.2285000     -0.25175000       341.93900       2.9294323     0.012480588
       2766.0000       291.21194       99551.251       7996.0882       1.3150000       1.7847500      0.10825000       342.79700       2.8354613    0.0083151867
       2771.0000       291.20462       99547.274       7984.5490     -0.12425000       1.5217500      0.49325000       343.32900       2.8778986    0.0079658974
       2776.0000       291.17200       99550.537       7942.4500       1.1997500       1.4635000    -0.042750000       343.06100       3.3362374    0.0094150385
       2781.0000       291.11506       99552.697       7900.6110      0.51700000      0.57050000      0.44725000       343.08700       3.3440892    0.0086420371
       2786.0000       291.01625       99541.993       7858.8157       1.4577500       1.2370000      0.11150000       342.64500       2.2040804    0.0078866872
       2791.0000       290.94595       99545.641       7813.4775      0.15100000       1.3262500      0.17950000       343.36100       2.8975668     0.011955534
       2796.0000       290.83978       99568.330       7744.0365       1.0132500       1.1847500      0.35225000       343.06000       3.5148567    0.0097416452
       2801.0000       290.81601       99568.132       7700.1348       1.2295000       2.7952500     -0.27625000       342.28900       3.8392329     0.011427815
       2806.0000       290.85229       99553.927       7669.8931      0.16950000       2.3312500    -0.072500010       342.72700       2.9276183     0.010754728
       2812.0000       290.85543       99559.750       7628.9109      0.56650000       1.6682500      0.20650000       343.46000       4.9776957     0.010433870
       2817.0000       290.85662       99555.886       7609.7563     0.045250000       2.3540000      0.15225000       342.62300       2.8811026     0.011770108
       2822.0000       290.83010       99547.629       7613.9092       2.1797500       2.7205000     0.019250000       341.73700       2.5737481     0.011245184
       2827.0000       290.80047       99549.423       7611.4349       1.0997500       2.0915000     -0.83700000       342.47800       2.8378585    0.0081857292
       2832.0000       290.77084       99552.426       7611.3740       2.0377500       2.2390000     -0.28275000       342.57600       2.4166058     0.010430509
       2837.0000       290.75092       99549.414       7619.2027       1.1925000       1.0910000      0.32950000       343.02800       2.4661022     0.011837051
       2842.0000       290.73067       99547.615       7624.0136       1.7317500       2.5045000      0.20900000       342.54700       2.0952742    0.0074897511
       2847.0000       290.68840       99558.373       7624.2561       1.5730000       2.1595000    -0.040000000       342.49800       2.5327615    0.0071207234
       2852.0000       290.71556       99535.725       7622.9561       1.2607500       1.4765000     -0.12425000       342.23900       2.5582078     0.013616952
       2857.0000       290.74425       99530.613       7636.8923       2.0245000       2.6957500     -0.28875000       342.46900       3.5977852    0.0082284830
       2862.0000       290.83076       99549.809       7673.8885       2.3527500       2.4662500     0.072250000       341.84100       2.7067472    0.0091719438
       2867.0000       290.86304       99552.135       7690.7817       1.4067500       1.3797500     0.068500000       342.59500       2.3097433     0.010468775
       2872.0000       290.87074       99550.781       7703.6049       1.2962500       1.0630000     -0.21900000       342.72100       2.0110140    0.0075991260
       2877.0000       290.86403       99553.114       7728.5377       1.1572500      0.77350000     0.078000000       342.99300       2.0245492    0.0076558339
       2882.0000       290.83082       99548.423       7720.3164      0.57850000      0.58825000      0.38250000       343.37000       2.1249516    0.0081922703
       2887.0000       290.73770       99525.671       7676.6927      0.88925000      0.19375000      0.56850000       343.62600       2.4866075     0.010148353
       2892.0000       290.74539       99547.032       7685.0499       1.8342500       2.7342500      0.11975000       342.89800       3.3577541     0.012628890
       2897.0000       290.74415       99552.568       7688.1667      0.67550000       1.5455000      0.37625000       343.07800       2.7998387    0.0086726545
       2903.0000       290.79065       99553.561       7721.9519      0.85825000       2.1285000     -0.13600000       342.28600       2.5108088    0.0078181383
       2908.0000       290.80912       99557.296       7732.2099       2.2667500       2.0005000     -0.77125000       342.41800       2.2875480    0.0075220101
       2913.0000       290.81443       99554.343       7719.7133       2.1577500       2.4327500     -0.35650000       342.20900       2.8852037    0.0080502441
       2918.0000       290.80338       99549.403       7715.1703       2.2090000      0.65800010      0.30850000       342.48500       2.4267815    0.0084060241
       2923.0000       290.72329       99542.515       7680.9088       1.6692500    -0.074750010      0.34125000       343.53100       2.8608968    0.0091841320
       2928.0000       290.73740       99544.784       7694.3278       1.3265000       1.0932500     -0.28350000       342.95000       2.0437404    0.0087630953
       2933.0000       290.82596       99551.297       7761.8628       1.4535000       1.0050000      0.26250000       343.68100       2.0499087    0.0087013800
       2938.0000       290.85588       99550.327       7788.6894       1.5067500       2.0425000      0.31400000       342.68200       2.8856420     0.010406684
       2943.0000       290.96462       99553.036       7819.9844       1.0177500      0.82675000     0.086750000       343.66200       3.5948211    0.0092352140
       2948.0000       290.97946       99556.692       7851.7527       2.0767500       3.4440000     -0.38100000       342.68700       3.2938381     0.012638099
       2953.0000       290.85558       99550.015       7860.9552      0.85475000       1.7367500     -0.32750000       343.10700       2.3953227     0.011053877
       2958.0000       290.78628       99548.425       7860.9890       1.3377500       1.9655000     0.090250010       343.10300       4.4297331     0.012734460
       2963.0000       290.68558       99562.774       7869.2957       1.1637500       1.8690000     -0.20200000       342.95600       2.6501616     0.010312773
       2968.0000       290.62838       99563.079       7870.6925       1.2817500       1.8895000      0.70550000       343.39300       2.4262358     0.011641211
       2973.0000       290.61039       99544.626       7850.6189       1.5130000       1.7737500     -0.40550000       343.15900       3.4314034     0.013519019
       2978.0000       290.59175       99543.235       7828.3004       2.7102500       3.0642500     -0.91000000       342.89400       2.3381287     0.010969094
       2983.0000       290.58612       99552.655       7804.7628       2.6590000       2.8962500     -0.63200000       343.24300       2.4307187     0.011433768
       2988.0000       290.59744       99550.587       7787.3229       1.6792500       1.6927500      0.26200000       343.07200       2.6571810    0.0097594921
       2994.0000       290.62541       99552.008       7743.0418       2.5562500       2.6970000    -0.056000000       342.36000       2.7825688     0.010811725
       2999.0000       290.65901       99551.920       7734.4015       1.6805000       1.7845000     0.068750000       342.77100       3.3725392     0.011025785
       3004.0000       290.72012       99532.304       7750.0127       2.5622500       2.0537500     -0.27075000       342.55100       3.2557183     0.011220404
       3009.0000       290.76982       99531.912       7767.3655       2.2387500       1.1607500    0.0027500000       342.60800       4.5658207     0.012566309
       3014.0000       290.80559       99559.004       7789.0151       1.6990000       1.0170000      0.15175000       343.41500       3.2716744     0.011631318
       3019.0000       290.86971       99558.315       7833.6292       2.0847500       1.7582500     -0.26450000       343.09400       4.0331902     0.012028149
       3024.0000       291.02135       99539.575       7915.5467       1.6440000      0.56150000      0.54475000       343.30500       2.1718605    0.0086961563
       3029.0000       291.02250       99539.419       7961.0573       1.6855000       1.5995000     -0.33575000       342.73500       4.6390166     0.012844044
       3034.0000       290.93526       99535.029       8011.0917       1.2447500      0.75325010     -0.40250000       342.55500       3.0542553     0.011654384
       3039.0000       290.88758       99532.479       8044.6817       1.7990000      0.91925010    -0.062750000       342.80000       2.1867843     0.015937947
       3044.0000       290.70674       99551.433       8041.7817       2.3100000      0.56600000      0.24775000       342.65600       4.6438688     0.012062056
       3049.0000       290.65604       99554.125       8048.3036       2.1372500       1.6310000     -0.20725000       342.42400       2.9797360     0.012392963
       3054.0000       290.72410       99533.350       8060.1755       1.7447500       1.2757500      0.16550000       342.63300       2.9825302     0.012542083
       3059.0000       290.75821       99532.231       8066.2687       2.8405000       1.7012500     -0.18150000       342.79300       5.8346427     0.013931896
       3064.0000       290.84516       99546.139       8077.0561       2.4875000       2.4167500     -0.67000000       342.23800       2.8747825     0.011424879
       3069.0000       290.86760       99546.353       8058.5843      0.96650000       1.0017500     0.011500000       342.84300       3.3808063     0.012146528
       3074.0000       290.85618       99545.984       8018.4188       1.8195000       1.8095000     -0.51525000       341.79600       2.6430068     0.010688796
       3079.0000       290.85238       99546.263       7987.3851       1.5360000      0.67425000    -0.097250010       342.32800       2.9919480     0.011879695
       3085.0000       290.77832       99531.349       7910.0660       1.2440000       1.9687500     0.054250000       342.20400       3.7080735     0.010812914
       3090.0000       290.79716       99534.091       7893.3049       1.5667500      0.90400000     0.015000000       343.15500       2.9310231     0.010557933
       3095.0000       290.86084       99559.679       7889.4355       1.8095000       1.1557500     0.081750010       342.72600       3.5828534     0.012792249
       3100.0000       290.93239       99557.441       7931.5674       2.0135000       1.6890000      0.14825000       342.35200       4.6726867     0.011772171
       3105.0000       291.08041       99539.425       8043.3655       1.0292500       1.7942500      0.11375000       343.26400       2.7148992     0.010310916
       3110.0000       291.14789       99539.598       8097.5469      0.90225010       2.0060000     -0.20425000       342.55900       3.7962836     0.011674230
       3115.0000       291.19724       99531.784       8158.0514       1.5570000       1.3795000     -0.66225000       342.16000       3.7243173     0.012860580
       3120.0000       291.22500       99533.389       8217.6650      0.52925000       1.1847500     -0.36900000       343.21800       2.5175932    0.0092633325
       3125.0000       291.20001       99563.379       8256.3515      0.44675000       2.9920000      0.16375000       342.61000       3.6026607    0.0093969258
       3130.0000       291.20001       99565.552       8279.9172      0.84800000       2.1167500     0.032500000       342.74200       3.7499643     0.012628993
       3135.0000       291.21173       99544.170       8333.2533       1.3995000       2.0575000      0.10300000       342.36900       4.0813560     0.013179591
       3140.0000       291.19573       99542.985       8325.1896      0.17250000       3.3402500     -0.50175010       342.99800       2.7009374    0.0081926059
       3145.0000       291.14726       99545.221       8243.1817      0.45175000       2.8595000     -0.52825000       342.99500       4.3730901     0.012889284
       3150.0000       291.14361       99543.917       8202.7029       1.3370000       2.0147500      0.52600000       343.38200       3.3937672     0.012134638
       3155.0000       291.14327       99552.587       8163.1597       1.5220000       1.7955000      0.35225000       342.92400       2.5306218     0.010988952
       3160.0000       291.14954       99551.067       8112.4170     -0.22100000       2.5672500      0.51650000       342.78600       3.1870298    0.0079943903
       3165.0000       291.19972       99532.541       8055.3491      0.60050000       1.7012500      0.15150000       343.49300       2.9067893     0.010116226
       3170.0000       291.21358       99532.532       8014.6289      0.33175000       2.0977500     -0.41300000       342.84900       4.4040946     0.011671928
       3176.0000       291.20018       99546.428       7954.5817       1.3450000       3.5830000    -0.017750000       342.77800       2.6306248     0.010432619
       3181.0000       291.20011       99545.645       7930.0643       1.3560000       2.6235000     -0.21275000       342.11100       2.7990241    0.0095440813
       3186.0000       291.20028       99546.636       7935.7474       1.0457500       4.1865000      0.15550000       342.60800       2.3332648    0.0067620447
       3191.0000       291.20039       99545.964       7929.2840      0.41000000       2.8657500      0.71750000       342.73000       2.8129278    0.0098560901
       3196.0000       291.19975       99532.021       7929.2019     0.079750000       1.9477500     -0.12625000       342.86800       3.2097311    0.0077209066
       3201.0000       291.19963       99534.484       7918.5835      0.54450010       1.5870000     -0.27775000       342.35100       2.7842546     0.012124579
       3206.0000       291.19107       99552.418       7894.8912      0.94950000       2.0420000     -0.38100000       342.08100       2.4091115     0.010219916
       3211.0000       291.20981       99551.950       7907.7813       1.4170000       2.5795000     -0.33925000       342.24600       4.3251159     0.011046123
       3216.0000       291.23800       99544.054       7924.3169       1.0795000       2.0507500     -0.34475000       342.41100       2.2246140     0.010401951
       3221.0000       291.27678       99545.867       7963.3968      0.91250000       1.9592500      0.31400000       342.39900       2.2530606    0.0081527737
       3226.0000       291.35782       99543.253       8051.6924       2.1562500       1.6282500      0.29150000       342.59300       2.6259916    0.0099931594
       3231.0000       291.37014       99545.840       8089.5583      0.96375010       2.3612500      0.46925000       342.97800       3.1214597     0.011357578
       3236.0000       291.35745       99565.990       8112.9493       1.6405000       1.6225000     -0.15175000       343.15700       2.3645216     0.010395012
       3241.0000       291.34806       99559.852       8140.8162       1.8795000       2.3062500      0.41650000       342.60500       2.7227536    0.0080116106
       3246.0000       291.30578       99534.721       8160.9678       3.6102500       2.5717500     -0.44500000       342.80000       2.5576284    0.0085888033
       3251.0000       291.27545       99530.449       8161.6324       2.9300000       1.2810000       1.6347500       342.43900       2.3583103    0.0091571562
       3256.0000       291.24495       99521.055       8159.3387       1.3935000       2.7480000     0.078250010       342.55100       3.0687499     0.010787478
       3261.0000       291.24390       99525.144       8149.5295       1.2020000       2.9197500     -0.21225000       342.49400       3.4515495    0.0094227101
       3267.0000       291.24352       99555.022       8107.3694       1.3085000       3.1222500     -0.51600000       342.26700       2.7068084    0.0086150359
       3272.0000       291.26993       99534.902       8081.9189       1.3592500       3.2032500     -0.11550000       342.32400       3.4057821     0.010396274
       3277.0000       291.29967       99533.554       8069.2823       2.3790000       1.8042500      0.39875000       342.70500       4.3510959     0.010164768
       3282.0000       291.32942       99535.886       8061.5088      0.67525010       1.5297500      0.21950000       342.68100       3.9127745    0.0099166750
       3287.0000       291.34247       99533.217       8044.4320       1.0100000       2.2107500     -0.53225000       342.77200       3.1447844     0.010206448
       3292.0000       291.38417       99534.786       8064.8876    -0.051000000       3.1172500    -0.038250000       341.83100       3.5522006    0.0089823502
       3297.0000       291.45600       99555.094       8114.1759      0.73525010       2.5777500     -0.19900000       342.04000       2.9486810    0.0096579965
       3302.0000       291.54411       99526.774       8174.8216      0.35050000       2.2395000     -0.14825000       342.33700       2.4401786    0.0091887455
       3307.0000       291.53145       99520.664       8197.9083      0.45275000       1.9380000      0.41500000       342.83800       2.9002566    0.0086503543
       3312.0000       291.37974       99534.313       8177.1652     -0.91325000       1.7445000    -0.092000010       342.87200       2.8061772    0.0079476750
       3317.0000       291.30058       99535.344       8170.4668      0.87100010       3.0955000     -0.68450000       341.83800       2.4911540    0.0090873183
       3322.0000       291.22141       99536.361       8158.3971       1.0422500       2.4277500    -0.076250000       342.03200       2.3761208    0.0089544137
       3327.0000       291.08784       99549.877       8134.9703      0.28900000       2.5800000      0.10625000       342.54700       3.4901250     0.010204394
       3332.0000       291.01045       99543.713       8083.7649      0.13900000       2.6535000     -0.28750000       342.39500       3.3114808    0.0082442030
       3337.0000       290.99394       99515.647       8028.5772      0.91800000       1.7772500     -0.13650000       342.58500       2.5269544    0.0073859514
       3342.0000       290.96011       99533.012       7950.7780       1.8687500       1.9875000     -0.44250000       342.15100       3.0551864     0.010267481
       3347.0000       290.93738       99536.265       7886.7018     -0.36975000       2.2472500      0.22925000       342.96900       3.0318523    0.0099757433
       3353.0000       290.99039       99548.052       7835.7444       2.7962500       2.7410000    -0.060500000       342.81800       2.4871344     0.010688903
       3358.0000       291.00860       99549.040       7804.7375      0.64925000       1.3087500     0.015750000       342.86000       5.0656564    0.0091238961
       3363.0000       290.98556       99519.167       7764.5704       1.3792500       1.7475000     -0.13125000       343.14400       4.8142149     0.012291849
       3368.0000       290.99660       99515.079       7753.1751       1.7777500       1.8062500      0.16100000       341.68800       3.6691834    0.0092229044
       3373.0000       291.00369       99531.889       7766.0361       1.2172500       1.2020000      0.26350000       342.77900       3.3972609     0.010733478
       3378.0000       291.04632       99535.981       7795.6699       2.0932500       1.0342500    -0.054750000       342.54000       4.3682516     0.011263624
       3383.0000       291.15756       99552.616       7867.0581      0.37300000       1.3947500    -0.052000000       342.41900       2.9868898    0.0097532733
       3388.0000       291.21669       99554.712       7913.7137      0.22050000       1.5325000     -0.33900000       342.70800       3.7355706    0.0088173648
       3393.0000       291.28079       99524.840       7977.7832      0.19675000      0.68950000     -0.11850000       342.63900       2.8802190     0.010729647
       3398.0000       291.31889       99520.511       8014.1168    -0.097500000       1.3157500     -0.10425000       342.58500       2.8303935    0.0081823933
       3403.0000       291.31446       99534.520       8024.9463       1.6522500       1.3985000    -0.045750000       342.56700       3.1210814    0.0090377147
       3408.0000       291.30344       99535.548       8024.7788      0.85100000       1.1360000     -0.25250000       342.88500       3.0971896     0.010626468
       3413.0000       291.28129       99548.387       8004.0817      0.48875000       1.6315000    -0.053250000       343.01700       2.5705007     0.010711722
       3418.0000       291.24978       99549.358       7981.3756       1.1550000       1.0992500      0.34150000       343.44100       4.5031915     0.010898136
       3423.0000       291.16233       99519.567       7921.1318      0.64075010       1.9170000     -0.20225000       342.06000       2.9052403     0.010126428
       3428.0000       291.13511       99515.671       7902.0026      0.83375010       1.6905000     0.037000000       342.61500       3.3861312    0.0086802174
       3433.0000       291.14443       99533.774       7916.1476    -0.035750000       1.6102500      0.17325000       342.38200       2.1352451    0.0096423313
       3438.0000       291.14578       99536.749       7909.8128       1.3537500       1.1902500     -0.12275000       342.62400       2.9117768    0.0087192207
       3444.0000       291.19560       99548.937       7923.7282      0.44225000       2.2260000     -0.45300000       342.83900       2.7468047    0.0084362982
       3449.0000       291.21160       99548.206       7916.8133       1.4347500       2.8917500   -0.0062500000       342.98000       2.3825908    0.0085543079
       3454.0000       291.20001       99517.564       7869.2628       1.6652500       3.3827500     -0.72950010       342.07800       2.7300062     0.010415565
       3459.0000       291.19997       99515.440       7853.6098       1.7765000       3.6497500      -1.1140000       342.37200       3.8464555     0.012290106
       3464.0000       291.21332       99533.887       7855.0052       1.8177500       3.1085000     -0.98775010       342.21100       2.6099482     0.012226552
       3469.0000       291.19948       99536.554       7848.2288       1.8762500       2.0162500     -0.27000000       342.34900       2.5213337     0.011949105
       3474.0000       291.18827       99542.304       7865.4261      0.88100000       2.6752500    -0.051750000       342.65800       3.8951232     0.010856469
       3479.0000       291.14092       99548.664       7846.1234      0.62750010       3.1817500    -0.098250000       342.16600       3.3616112     0.010500937
       3484.0000       291.00174       99545.837       7772.3001      0.37775000       3.4760000     -0.34550000       342.41100       3.1426122     0.010187847
       3489.0000       290.97205       99544.165       7759.8639       1.2777500       2.4465000     -0.23850000       342.05200       2.5666314    0.0078862152
       3494.0000       290.98618       99548.701       7761.5873     -0.60150000       2.0787500    -0.048750000       342.70100       2.2943827     0.010245429
       3499.0000       290.99375       99552.316       7768.6570      0.85100000       2.6535000     -0.16925000       342.60900       3.0883623     0.010599528
       3504.0000       291.07740       99555.618       7824.7456      0.38675000       2.6505000     -0.26325000       342.28900       2.8167546    0.0091230253
       3509.0000       291.12379       99549.511       7858.8218       1.7372500       2.6677500     -0.30825000       342.20500       2.5352896    0.0087242656
       3514.0000       291.12572       99536.487       7871.5342      0.69400000       3.3317500      0.33500000       342.31100       3.7389744     0.013678380
       3519.0000       291.15990       99533.961       7899.4261      0.95850000       2.6475000     -0.17725000       342.08200       2.8417938     0.012933059
       3524.0000       291.23399       99521.804       7940.2024      0.71975000       2.9670000     -0.48875000       342.04500       2.6823429    0.0077208982
       3529.0000       291.27059       99522.420       7977.9458      0.78725000       2.1265000     -0.11025000       341.65900       3.5281022     0.011693927
       3535.0000       291.27765       99554.199       8013.1250      0.31275000       2.1192500     -0.22325000       341.97200       5.7380811     0.011641756
       3540.0000       291.32384       99554.158       8066.7468       1.0020000       2.2175000     -0.26975000       342.04700       2.4070444    0.0095237707
       3545.0000       291.39514       99535.946       8154.9680      0.36875000       1.8602500      0.39350000       342.80800       2.4900568     0.010915961
       3550.0000       291.41876       99533.635       8195.3420     -0.11550000       1.8010000      0.36500000       342.72800       4.6386369     0.013228347
       3555.0000       291.44629       99520.740       8249.1652      0.69650000       1.6452500     0.026250000       342.74500       2.5942868    0.0094370064
       3560.0000       291.47013       99523.250       8249.8625      0.38725000       2.2357500     -0.38175000       342.52600       3.0477753     0.011555628
       3565.0000       291.47606       99553.822       8201.2757      0.45275000       2.5412500     0.043750000       341.76400       4.6043477     0.011718044
       3570.0000       291.43316       99553.852       8141.4071    -0.012750000       2.4655000      0.49075000       342.37700       3.2796018     0.011717101
       3575.0000       291.38292       99536.639       8034.1355      0.40950000       3.2942500     -0.19625000       341.86600       2.4276430     0.010257798
       3580.0000       291.32068       99532.625       7969.2261     -0.12175000       1.7885000      0.33150000       342.44800       2.5694478    0.0084629410
       3585.0000       291.18272       99515.715       7909.7410     -0.12450000       2.1052500     0.050750000       342.86200       2.8176837     0.011057968
       3590.0000       291.08975       99517.720       7837.5878       1.0152500       1.9525000    0.0072500000       342.28200       4.3725320     0.011357654
       3595.0000       291.01887       99546.291       7782.5066      0.43900000       2.0790000      0.20200000       342.33600       3.8014104     0.010340963
       3600.0000       290.96531       99550.180       7717.6739      0.89050010       2.7337500     -0.17750000       342.30000       2.8673169    0.0075029476
       3605.0000       290.91323       99549.721       7610.1383      0.64350000       2.7107500     -0.15450000       341.68000       3.1960492     0.011993454
       3610.0000       290.86927       99544.659       7561.0686      0.39375000       2.7050000     -0.42850000       342.32700       3.4630608    0.0095942874
       3615.0000       290.84591       99518.294       7541.7535       1.4342500       2.1692500     -0.50650000       342.37900       2.4436724    0.0087931078
       3620.0000       290.84194       99514.895       7534.0896    0.0047500000       1.3695000      0.69600000       342.48300       3.1776847    0.0089420757
       3626.0000       290.84330       99523.578       7571.9547      0.98025010       1.3115000      0.42050000       343.17800       2.9588246    0.0092143415
       3631.0000       290.85207       99527.324       7565.0442       1.2275000       1.0872500      0.20650000       343.05800       2.5650267    0.0089183552
       3636.0000       290.88492       99543.844       7528.7423      0.47875000       1.8862500     -0.41175000       343.00100       3.5590020     0.011355583
       3641.0000       290.93320       99541.672       7566.2294      0.91700010       1.0525000      0.61000000       342.77800       4.0695846    0.0096150850
       3646.0000       290.99060       99524.875       7607.8712     0.063250010      0.91925010      0.42875000       342.79800       2.5080285    0.0075733382
       3651.0000       291.03115       99522.617       7683.7711      0.59450000       1.4490000      0.17575000       342.10300       2.9644780     0.010442145
       3656.0000       291.10510       99516.129       7859.7663      0.69000010       1.0710000     -0.18225000       341.81500       2.8541817    0.0096517009
       3661.0000       291.12797       99522.411       7915.7303      0.64375000       1.2145000     -0.30150000       341.87300       5.2783703    0.0097550292
       3666.0000       291.09993       99547.570       7930.9833      0.54675000       1.0067500      0.23725000       342.88200       2.1574378    0.0087238428
       3671.0000       291.09999       99550.236       7925.9776      0.37450000       1.1245000     0.062750000       342.17500       2.2927546    0.0099264797
       3676.0000       291.09977       99550.059       7853.4778      0.48575000       1.0282500     0.023750000       342.54600       2.1347442    0.0075205192
       3681.0000       291.09966       99541.901       7836.6041      0.75850000      0.90425000      0.37500000       343.26200       2.6852053    0.0094309145
       3686.0000       291.09105       99512.002       7822.8013      0.38150000      0.66875000     -0.10725000       341.77200       3.6203642    0.0098046276
       3691.0000       291.11018       99510.241       7815.3854     0.057500000      0.45175000      0.18825000       342.36200       3.4620366     0.010937916
       3696.0000       291.15449       99517.831       7829.8876      0.96375010      0.61100000      0.33650000       343.33000       5.5824457     0.010797334
       3701.0000       291.15542       99522.427       7827.6692      0.62400000       1.4785000     -0.12175000       342.01500       3.2890575     0.010373158
       3706.0000       291.13855       99544.339       7789.6513      0.77525000      0.86750010     0.099750000       342.84400       2.4561323    0.0082656897
       3711.0000       291.16724       99543.306       7840.6591      0.77150010      0.82500000     -0.24075000       342.38900       2.2669420    0.0092638885
       3717.0000       291.19370       99524.015       7964.5875      0.56675000      0.81400000     -0.17925000       342.27600       2.2026976    0.0085293502
       3722.0000       291.27009       99519.252       8051.4401      0.49225000       1.2735000      0.10075000       342.54700       5.0338338    0.0098138527
       3727.0000       291.31239       99517.731       8079.6709     0.051000000       1.2345000     -0.10625000       342.43300       2.7863603    0.0087963879
       3732.0000       291.33005       99521.140       8052.9874      0.31800000       1.0422500    -0.081000000       342.07600       2.3744788     0.010001764
       3737.0000       291.29946       99537.083       7914.4411      0.25725000       1.1610000    0.0055000000       342.23300       2.3787151     0.010544946
       3742.0000       291.29934       99538.701       7884.0637      0.80675010       1.6035000      0.14550000       342.02800       2.4261339    0.0094606604
       3747.0000       291.30645       99537.835       7848.7288      0.87475000       1.3582500     -0.23850000       342.06500       2.3636375     0.010460099
       3752.0000       291.29894       99518.200       7963.2798      0.49725000      0.82000010      0.30600000       342.87600       3.4474305     0.010293392
       3757.0000       291.26160       99512.552       8005.6710       1.0907500       1.2567500     0.069750000       342.25800       3.7494654     0.013410990
       3762.0000       291.15447       99512.329       8029.6148     -0.32475000       1.7762500    -0.072250000       342.37500       3.1114780    0.0092383948
       3767.0000       291.09371       99512.863       8055.3650      0.60875000       1.5222500      0.10975000       342.32400       2.7617504     0.010271182
       3772.0000       291.04524       99518.326       8060.9309       1.3865000      0.55025010    -0.026250000       342.42600       2.2717979     0.010805435
       3777.0000       290.97413       99538.905       7995.7392       1.5082500       1.7202500     -0.31525000       341.88600       2.0989131     0.010613928
       3782.0000       291.00006       99536.938       8031.0415      0.67025010       1.3657500      0.11525000       342.25800       2.1342609     0.013107830
       3787.0000       291.10039       99525.730       8123.1321      0.55050000       1.0955000      0.14300000       342.10400       2.0420912    0.0069600730
       3792.0000       291.14053       99510.229       8146.3122       1.5017500      0.67400000     0.053500000       342.71100       2.0885655    0.0085131768
       3797.0000       291.20059       99506.373       8184.6096       1.1377500       1.1557500    -0.058000000       343.07800       2.5333780    0.0084061866
       3802.0000       291.24583       99519.469       8211.7298       1.0472500      0.85200010     -0.27825000       341.97200       3.0975993     0.012847326
       3808.0000       291.30545       99526.634       8224.3648      0.44025000      0.97775010      0.34250000       343.24700       3.5750328     0.010617052
       3813.0000       291.38591       99541.708       8240.3489      0.51800000       1.2635000     -0.43275000       342.57800       3.0470242    0.0081397051
       3818.0000       291.46531       99544.019       8261.9727       1.0147500       1.4965000    -0.065750000       342.74100       2.1697907    0.0072523345
       3823.0000       291.55644       99527.540       8242.8777      0.97800000      0.96275000     -0.13800000       341.96100       2.0569886     0.010630954
       3828.0000       291.61496       99523.850       8263.8516      0.37075000      0.68325000      0.26500000       343.15400       2.0016592    0.0094637716
       3833.0000       291.67918       99515.948       8357.7732      0.18025000       1.3290000      0.29100000       342.61600       2.1217877    0.0069342840
       3838.0000       291.71694       99517.689       8392.3160       1.8000000       1.5555000     0.042500000       343.10400       2.0316369    0.0087391640
       3843.0000       291.72831       99542.856       8427.5250      0.60925000       1.7550000    -0.076500010       342.64500       2.9360458    0.0097116936
       3848.0000       291.70628       99549.352       8422.1489      0.79125010      0.85475000     -0.16200000       343.41300       2.8285835     0.010564208
       3853.0000       291.66062       99551.309       8355.3292       1.5377500       1.6687500     0.034250000       342.41500       5.0278153     0.010190759
       3858.0000       291.59872       99547.479       8295.0634       1.7747500       2.2110000     -0.40825000       342.29400       4.0516372    0.0092619424
       3863.0000       291.46742       99518.852       8211.3454      0.13675000       2.3535000     -0.13800000       342.38000       2.9904586     0.010628512
       3868.0000       291.37873       99510.741       8133.0557      0.87025000       1.3357500      0.34925000       343.37200       2.8686939     0.010149077
       3873.0000       291.27195       99511.983       8033.8899      0.66850000       1.8070000      0.44575000       342.74900       4.0419205    0.0094501804
       3878.0000       291.22560       99513.432       7964.9158      0.52200000       2.3437500     -0.13675000       342.57900       4.1105977     0.010446692
       3883.0000       291.25832       99532.430       7907.2709      0.57700000       1.5700000    -0.049500000       342.65200       3.8760923    0.0082508834
       3888.0000       291.24835       99539.036       7860.2807      0.72950010       2.0797500     -0.27000000       343.10100       3.1198181    0.0090033278
       3893.0000       291.28432       99538.738       7844.3530     -0.21125000       1.3847500      0.42525000       343.66800       5.1229938    0.0095160768
       3899.0000       291.25105       99535.427       7812.5394      0.94475010       1.4765000     -0.15400000       343.06900       4.0463209     0.011060714
       3904.0000       291.14218       99519.317       7790.3424      0.68950000       1.3832500     -0.31150000       343.17000       2.5186104    0.0078735179
       3909.0000       291.07253       99517.772       7761.6060       1.5815000       1.1425000      0.14900000       343.51300       4.8673536    0.0099983260
       3914.0000       290.98650       99519.594       7718.6761     0.048500000       2.4135000     -0.42525000       343.11400       2.8154656    0.0099711157
       3919.0000       290.92016       99525.081       7696.9918    -0.083750000       2.0445000      0.27025000       342.26100       2.6821830     0.010310014
       3924.0000       290.85483       99550.070       7674.0822      0.68650000       2.4535000     0.010750000       342.37900       2.7087684    0.0083843359
       3929.0000       290.83224       99554.886       7671.7207      0.52125000       2.1347500     -0.43900000       342.01200       3.3444046    0.0080365271
       3934.0000       290.84395       99550.267       7700.4407      0.59600000       1.8667500     -0.19525000       342.36700       5.3902617     0.010234395
       3939.0000       290.84780       99544.817       7715.7852       1.0250000       2.1605000     -0.14875000       342.73900       3.8948880    0.0093291188
       3944.0000       290.85598       99521.553       7719.4445      0.98450010       2.6570000     -0.13750000       342.52700       3.0788676    0.0087958382
       3949.0000       290.91297       99515.442       7754.8663   -0.0025000000       3.1622500      0.43075000       342.83800       3.6843182    0.0092139912
       3954.0000       291.01195       99514.681       7799.6354     -0.58900000       2.7800000      0.12050000       342.31800       2.1847253    0.0090556885
       3959.0000       291.07214       99519.656       7857.1543      0.85900000       2.7890000      0.11150000       341.94900       2.4070532    0.0080658854
       3964.0000       291.14604       99543.252       7942.2498      0.67750000       3.0397500     -0.12500000       342.30200       4.0966885     0.011558685
       3969.0000       291.23694       99549.809       8032.6184      0.47000000      0.95175000     0.079000000       343.20500       3.8884559    0.0092294884
       3974.0000       291.32964       99556.321       8167.3290     0.061250000       2.1310000    -0.011500000       343.21000       3.3329769     0.010005530
       3979.0000       291.37639       99551.732       8230.7514     -0.36600000       2.5185000     -0.63850000       342.93000       3.8060093     0.010920695
       3984.0000       291.47326       99521.936       8295.0200     -0.18475000       2.3447500      0.31100000       342.99300       2.7799247    0.0081817716
       3990.0000       291.46649       99514.190       8294.5294      0.22225000       1.3315000      0.78925000       343.17700       5.0828117     0.012496128
       3995.0000       291.33983       99511.979       8200.9559      0.94900010       3.0407500     -0.98025010       342.63100       2.5680129    0.0077191240
       4000.0000       291.25437       99513.980       8134.9811      0.66725000       2.0987500      0.31475000       342.82900       2.2074255    0.0094616507
       4005.0000       291.10792       99534.164       8034.4948      0.30200000       1.6537500     -0.69850000       342.63900       2.9498650     0.010299816
       4010.0000       291.05676       99540.229       7972.4144       1.9590000       1.0797500      0.28850000       342.36300       2.7315235    0.0092723412
       4015.0000       291.04455       99543.607       7911.1325      0.72050010       1.4740000     0.079750000       343.15100       2.7726358    0.0094256857
       4020.0000       291.03676       99540.155       7874.3752      0.53025000       2.2640000     -0.54975000       342.72100       4.0808943    0.0077793987
       4025.0000       291.11104       99527.580       7873.3461      0.42875000       1.3442500      0.31150000       343.31700       3.5061242    0.0095011051
       4030.0000       291.10896       99521.557       7853.9095     -0.57250010       2.1997500      0.32325000       342.65200       2.2387179    0.0097661133
       4035.0000       291.05811       99507.059       7829.0781      0.68550000       2.9880000      0.23125000       342.58700       2.8655119     0.010872043
       4040.0000       291.03844       99507.800       7826.5014     0.061500000       2.1462500      0.35675000       343.25100       2.6138028    0.0086998435
       4045.0000       291.00091       99522.506       7829.7540     -0.90225010       2.8037500      0.22900000       342.49400       3.1934083    0.0085151263
       4050.0000       290.98741       99528.473       7838.6091     -0.16725000       1.8412500      0.37175000       342.83900       3.2099469    0.0097582356
       4055.0000       290.99982       99543.478       7870.3306      0.27800000       2.5547500      0.11850000       342.18400       2.8341649    0.0090782694
       4060.0000       290.99971       99542.804       7890.0323     -0.33225000       2.5455000     -0.18050000       342.45600       3.1206573    0.0086317963
       4065.0000       291.00024       99527.515       7906.9236     -0.95950010       2.7910000     -0.30050000       342.52200       2.4946178    0.0081251877
       4070.0000       291.00041       99521.536       7918.7557     0.081750010       2.2507500     -0.64425000       342.55100       2.5763131    0.0079409861
       4076.0000       290.99978       99506.531       7935.4878      0.32250000       1.6787500    -0.076250000       342.84100       3.1512912     0.010439798
       4081.0000       290.99960       99508.749       7935.9467      0.27750000       1.3780000     -0.13025000       343.03800       3.7310887    0.0085932727
       4086.0000       290.99071       99527.693       7905.1190      0.57725000       1.5105000     -0.23975000       343.10000       3.8260621    0.0088883559
       4091.0000       291.00913       99526.231       7933.4887       1.7727500       1.3007500      0.66600000       342.70700       2.6148620     0.010455496
       4096.0000       291.03532       99519.407       7984.2291      0.65275000       1.1110000      0.36800000       342.71400       3.1744902    0.0096522102
       4101.0000       291.07430       99522.281       8026.8405      0.49375000       2.2082500      0.37075000       342.98100       2.1094096    0.0080059245
       4106.0000       291.15802       99521.245       8114.3102      0.34650000      0.85275010     -0.13150000       342.88200       2.8341910    0.0091482164
       4111.0000       291.17099       99517.216       8147.7199       2.1247500       3.5530000     -0.63750000       342.32000       3.2801011     0.010508776
       4116.0000       291.16527       99521.859       8155.5367      0.17300000       1.8007500    -0.070750010       342.92100       4.1787415     0.011254997
       4121.0000       291.13796       99520.262       8142.4464      0.32650000       1.8332500     -0.31975000       343.08400       4.8888179     0.012411968
       4126.0000       291.06012       99500.935       8109.4987      0.65275000       2.7835000     -0.77450000       342.78200       3.8285530    0.0093341818
       4131.0000       291.01058       99504.003       8066.7265      0.79800000       2.5207500    -0.053250000       342.93800       2.9497481    0.0082009631
       4136.0000       290.94228       99524.224       7981.6668       1.2397500       2.3257500      0.41775000       342.37400       3.5204124    0.0080836563
       4141.0000       290.92996       99531.390       7943.4960       1.7282500       2.1097500     -0.35000000       342.91900       2.8766922    0.0078248934
       4146.0000       290.95264       99543.785       7925.7821       1.0480000       2.6735000     -0.11400000       342.79900       3.2470769    0.0087177279
       4151.0000       290.94282       99541.584       7881.7539      0.35550000       2.4632500     -0.16625000       342.94900       2.8087256    0.0084090273
       4156.0000       290.94713       99526.948       7836.2181       1.3602500       2.9752500     -0.20050000       342.52200       3.7190895    0.0086378280
       4161.0000       290.95699       99519.026       7806.0979      0.84075000       2.0745000     0.084500010       342.19900       2.9824528    0.0099887747
       4167.0000       290.95018       99501.751       7754.1428       1.0807500       3.3797500     -0.53000000       342.14700       4.4809727     0.012573193
       4172.0000       290.95521       99509.165       7746.3137      0.93800000       2.7065000     -0.31125000       342.33700       2.9926387    0.0089271996
       4177.0000       290.95670       99513.809       7747.4010      0.57225000       2.7670000      0.54325000       342.46700       2.5620125    0.0088376166
       4182.0000       290.94589       99520.912       7755.0414       1.3755000       2.3910000    -0.096000000       342.15700       4.6445071    0.0096229101
       4187.0000       290.90073       99537.507       7764.0042      0.60575000       1.6692500     -0.41025000       342.59700       3.1458508    0.0080507817
       4192.0000       290.87072       99539.916       7772.2761      0.89550010       2.2295000     -0.32100000       342.46100       3.2575839    0.0093643515
       4197.0000       290.85016       99537.575       7795.1833       1.7980000       1.9817500     -0.19975000       342.20300       2.8160869    0.0093110820
       4202.0000       290.80007       99522.620       7792.9765      0.73225000       1.5082500     -0.12125000       343.19300       3.1190052    0.0096639599
       4207.0000       290.78706       99514.378       7798.4880       1.3002500      0.94675000     -0.26125000       342.73700       2.0972341    0.0086191224
       4212.0000       290.81530       99500.375       7813.5837       2.2815000       1.9790000     -0.25725000       342.72500       2.7226381    0.0083623617
       4217.0000       290.84389       99496.742       7826.5284       1.9935000       2.4235000     -0.93775000       343.01200       2.1777746     0.010175733
       4222.0000       290.88477       99500.498       7839.9302       1.6817500       1.1762500    -0.054250000       343.19200       2.0694232    0.0088743338
       4227.0000       290.94992       99514.646       7850.7010       1.0410000       2.1397500    -0.015250000       342.64100       2.2076075    0.0086135876
       4232.0000       291.00061       99522.971       7878.3462       2.1040000       1.3582500    -0.054500000       343.03800       2.0066216    0.0093206542
       4237.0000       291.05613       99537.097       7915.1665      0.57825010       1.1695000     0.035750000       342.98100       2.1241860    0.0088791923
       4242.0000       291.08543       99544.715       7951.4858      0.29575000       2.0100000      0.41450000       342.89000       2.0229392    0.0078370111
       4247.0000       291.10708       99543.391       7967.9201       2.4015000       1.6787500      0.20625000       342.20800       2.0701524    0.0095316632
       4252.0000       291.11522       99526.889       7961.5091       2.3645000       1.8005000     -0.20725000       342.56300       2.0642624    0.0081301383
       4258.0000       291.10335       99518.704       7941.1035       2.1072500       1.4500000      0.14025000       342.37000       2.0029174    0.0077580689
       4263.0000       291.06632       99503.285       7899.0924       2.1872500       2.8725000     -0.77875010       342.39200       2.0315797    0.0096214155
       4268.0000       291.04665       99501.110       7868.6384       1.4045000      0.82825010      0.51275000       342.97200       2.0172741    0.0093650335
       4273.0000       291.02463       99519.297       7820.3276       2.2445000      0.38850000      0.36100000       343.21400       1.9898379    0.0074749131
       4278.0000       290.99459       99527.172       7795.7533       2.4392500       1.6050000      0.17950000       342.07900       1.9684711    0.0089218242
       4283.0000       290.96640       99538.596       7792.6586       1.8597500       1.8035000     -0.41475000       341.87700       2.0008529    0.0095769491
       4288.0000       290.94641       99543.130       7787.0520       1.7647500       2.5260000     -0.11700000       341.83800       1.9984567    0.0084735767
       4293.0000       290.90962       99540.950       7795.2681       2.1777500       1.5977500     0.019250000       342.31900       1.9840923     0.011003520
       4298.0000       290.89061       99535.544       7798.1240      0.83225010       1.0270000      0.27750000       342.86400       1.9563281    0.0086518894
       4303.0000       290.87172       99521.219       7775.2731       1.2075000       1.3950000     -0.31125000       342.64100       2.0023381    0.0084167112
       4308.0000       290.89413       99513.505       7793.9183       2.2492500       2.5597500     -0.17425000       342.07300       1.9569121    0.0091684754
       4313.0000       290.96631       99498.650       7844.4027       1.9155000       2.3600000     -0.14025000       342.03200       1.9727451    0.0090797561
       4318.0000       291.00632       99496.473       7884.2129       1.9490000       1.4365000     -0.30200000       341.84100       1.9547303    0.0073313543
       4323.0000       291.06609       99509.095       7947.9260       1.0750000       1.3667500      0.21325000       342.51400       1.9822584    0.0096028645
       4328.0000       291.11525       99516.291       8006.3205       1.7267500      0.92675010     -0.24300000       342.19900       1.9672550    0.0093007301
       4333.0000       291.12067       99530.829       8044.8829       1.1077500       1.5737500     -0.10175000       342.18800       1.9975364     0.010817751
       4338.0000       291.15206       99538.486       8098.6808       2.0112500       2.0255000     -0.25150000       341.83000       1.9843131     0.010219444
       4343.0000       291.28160       99543.647       8220.9693       1.6960000       1.5472500    -0.014000000       342.12900       1.9943574    0.0086966047
       4349.0000       291.26608       99541.233       8250.8856      0.53650000       1.9092500     -0.17175000       342.84700       1.9996960     0.010092831
       4354.0000       291.14341       99530.323       8217.6399       2.1392500       1.9222500     -0.52075000       342.02300       1.9712903    0.0077575181
       4359.0000       291.08042       99523.045       8190.5427       1.7880000      0.74025010     0.028750000       342.61000       1.9420917    0.0096658437
       4364.0000       290.90730       99504.215       8067.7462       1.3110000       1.4415000      0.10050000       342.23200       1.9438231    0.0097163976
       4369.0000       290.85669       99501.579       8032.4669       1.8462500       1.8307500     0.073250000       342.50400       1.9473295    0.0092610785
       4374.0000       290.92548       99511.125       8038.1038       2.1442500      0.97050010     -0.11225000       343.08000       1.9816356    0.0090450332
       4379.0000       290.95952       99516.976       8063.3364      0.71425000      0.47850000     -0.19275000       343.07300       1.9941681    0.0093524251
       4384.0000       291.03354       99532.708       8167.4790       1.1167500       1.2560000    -0.039750000       343.17100       2.0057515     0.011217354
       4389.0000       291.07009       99539.706       8196.2115       1.6095000       1.3797500      0.29425000       342.80300       1.9918545    0.0081005700
       4394.0000       291.08233       99543.736       8206.8124       1.0372500       1.6340000      0.34275000       342.75500       2.0023007    0.0088837311
       4399.0000       291.11224       99541.272       8210.0725     0.076000010      0.81400000      0.17900000       343.17300       1.9947445     0.010702100
       4404.0000       291.13743       99530.406       8150.0245       2.2895000       1.3255000      0.32425000       342.33700       1.9732810     0.010503993
       4409.0000       291.15760       99522.925       8131.4296       2.8015000       1.3387500     0.071750000       342.63800       1.9975673    0.0084261233
       4414.0000       291.19436       99508.145       8142.4493       1.3480000       1.1202500      0.29575000       342.20600       1.9852104    0.0096720711
       4419.0000       291.21057       99501.232       8138.0682       1.5687500       2.3280000     -0.29050000       341.86600       1.9732022    0.0096720801
       4424.0000       291.20001       99496.826       8142.9099       2.8405000       1.7585000     -0.18550000       342.15900       2.0151369    0.0088773611
       4429.0000       291.20001       99499.259       8126.8927       1.1227500       1.7920000     -0.10100000       342.41200       1.9906832    0.0083752828
       4434.0000       291.20019       99510.470       8083.9756      0.94575010       1.1815000      0.24575000       342.66900       2.0027781    0.0083222046
       4440.0000       291.20013       99519.396       8063.1271       1.3427500       1.6690000     -0.31500000       342.44700       2.0029111    0.0093969750
       4445.0000       291.18889       99534.253       8028.2079       1.0920000       1.2082500     0.056250000       342.34400       1.9749627    0.0096323799
       4450.0000       291.20502       99540.357       8038.6529      0.14650000       1.0527500      0.24100000       343.00700       2.0013051    0.0093874127
       4455.0000       291.24119       99543.797       8093.8229       1.8010000       1.8060000    -0.025750000       342.50500       1.9757765    0.0099786327
       4460.0000       291.26125       99540.242       8127.0825      0.12350000       1.2757500    -0.071750000       343.58100       2.0318309     0.010721803
       4465.0000       291.28783       99531.152       8194.9893      0.40275000       2.0840000     -0.19900000       342.04900       1.9673533    0.0092660092
       4470.0000       291.31815       99520.269       8204.7387      0.46625000       1.7797500      0.18225000       342.29800       1.9903170    0.0083855280
       4475.0000       291.38722       99494.395       8199.5524      0.58550000       1.9842500    -0.063000000       341.82900       1.9934767    0.0091079852
       4480.0000       291.34289       99489.092       8146.1230      0.62425010       1.5670000     -0.21425000       342.11500       1.9996428     0.010303388
       4485.0000       291.24197       99490.901       8020.7423      0.85025010       1.2760000     -0.21075000       342.08700       1.9813311    0.0086088962
       4490.0000       291.15991       99495.973       7946.8052      0.57875000       1.4407500     -0.17450000       342.30500       1.9897765    0.0087381110
       4495.0000       290.96143       99517.278       7853.4913     0.031750000      0.92650000      0.16450000       342.59600       2.0224313     0.010635612
       4500.0000       290.88693       99527.045       7788.7624      0.74925010     0.081750010      0.34300000       343.74200       1.9690093    0.0092821205
       4505.0000       290.87907       99535.424       7738.7627       1.1992500      0.31375000     -0.12875000       342.10100       2.0034251     0.010163079
       4510.0000       290.89801       99538.583       7730.9925      0.59600000      0.63725000     -0.19275000       341.90700       2.0137644    0.0082603622
       4515.0000       290.97465       99538.025       7747.9229      0.58800000      0.44125000     0.068750000       342.21300       1.9642380     0.010271408
       4520.0000       291.03095       99534.133       7769.8687      0.80500010      0.38725000     0.061750000       343.00700       1.9811212    0.0081810541
       4525.0000       291.13015       99523.042       7844.6575       1.1657500      0.48225000    0.0092500000       342.83500       1.9963166    0.0079131195
       4531.0000       291.20428       99514.667       7897.3810      0.80825000       1.0342500   -0.0027500000       342.54500       1.9661160    0.0077349968
       4536.0000       291.24890       99504.237       7929.8313       1.2870000      0.87350000   -0.0037500000       342.98800       1.9868234     0.010418620
       4541.0000       291.28014       99501.850       7954.1638       2.8050000       1.8245000     0.010500000       342.28100       1.9719428    0.0077197646
       4546.0000       291.30302       99502.527       7965.3928       2.1280000       2.7150000     -0.26775000       342.13800       1.9434193    0.0083281221
       4551.0000       291.31415       99507.148       8007.6507       1.8305000       1.4135000     0.069000010       342.85800       2.0051999     0.010927577
       4556.0000       291.30030       99518.775       8059.3905       1.4780000       1.6697500     -0.72625010       341.80800       1.9913448    0.0068569851
       4561.0000       291.30035       99525.767       8084.9613       1.4927500       2.0070000     -0.41925000       342.20600       1.9999037    0.0093463388
       4566.0000       291.29084       99536.531       8138.5571       1.3130000      0.58150010    -0.054250000       342.47500       1.9924381     0.011743898
       4571.0000       291.30933       99538.946       8135.0858       1.0200000      0.36100000      0.34175000       342.73000       2.0107763    0.0091179241
       4576.0000       291.35473       99537.665       8069.4735      0.98975000       1.0275000      0.29950000       342.75100       1.9678087    0.0081441435
       4581.0000       291.35589       99533.029       8044.2216       1.2930000      0.96650000    -0.082750010       342.22600       1.9704350    0.0080030848
       4586.0000       291.35745       99521.721       8005.9593      0.89375010      0.91625010     -0.26975000       342.25400       2.0026974     0.012201017
       4591.0000       291.34806       99514.581       8004.1349       1.0665000      0.96825000    -0.094500010       341.98600       1.9895136    0.0084806195
       4596.0000       291.28880       99505.252       8009.3593       1.0957500      0.30100000     -0.23175000       341.86100       2.0128604    0.0090365620
       4601.0000       291.29647       99501.072       8061.0361       1.1125000      0.31400000      0.16450000       342.66900       2.0082248    0.0077223114
       4606.0000       291.34693       99497.391       8162.9038       1.1575000       1.4860000     -0.21575000       342.50400       1.9834778    0.0083581858
       4611.0000       291.36685       99501.895       8230.2705      0.61400000       1.1390000     -0.12300000       342.78900       1.9486893     0.012949920
       4616.0000       291.40282       99514.195       8350.9296       1.0035000      0.62200000    -0.026750000       342.49700       2.0233858     0.012481396
       4622.0000       291.42967       99525.720       8327.9266      0.78100000      0.81975000     -0.14250000       342.52400       1.9846036     0.012737168
       4627.0000       291.41213       99531.999       8282.6480      0.69350000      0.65975000      0.22400000       342.65100       1.9628096     0.015431220
       4632.0000       291.36995       99534.555       8198.6439      0.94300000      0.84200010     0.026250000       342.63500       1.9821485     0.013056098
       4637.0000       291.28872       99531.671       8022.4877      0.95425000      0.83550010   -0.0020000000       342.47100       1.9411237     0.011289801
       4642.0000       291.29111       99527.394       7979.8628       1.0252500      0.69025000      0.13350000       342.33900       1.9958124    0.0087720395
       4647.0000       291.29983       99520.885       7970.9341       2.5795000      0.98625000      0.17350000       343.26300       1.9698527    0.0088331251
       4652.0000       291.30915       99510.234       7979.3774       1.3535000      0.44125000     -0.14375000       341.99600       1.9209007     0.013340971
       4657.0000       291.31183       99503.897       7975.1141       1.2522500       1.0010000    -0.028750000       342.15700       1.9520930     0.012944859
       4662.0000       291.25913       99500.227       7940.1353       1.3045000      0.89750000     0.094750000       342.02400       1.9645062     0.012288270
       4667.0000       291.19938       99499.001       7897.9007      0.95750000      0.69450000     -0.16325000       341.94400       1.9279964     0.010116239
       4672.0000       291.13958       99500.246       7853.0457       1.0857500      0.69700000     -0.19075000       341.97800       1.9964293    0.0090437134
       4677.0000       291.10761       99505.662       7820.4746      0.94500010      0.54625000    -0.091250000       342.11000       1.9698870    0.0080981370
       4682.0000       291.04525       99505.474       7770.3163       1.0972500      0.42650000     0.031750000       342.69500       1.9744287    0.0084535888
       4687.0000       290.93215       99504.216       7685.7480       1.3882500      0.62125000     -0.19075000       341.95100       1.9332595     0.017178335
       4692.0000       290.93046       99511.004       7687.4580      0.72525000      0.84450010      0.31825000       343.26700       1.9622628    0.0077127520
       4697.0000       290.93778       99514.968       7690.2151       1.0970000      0.79050000      0.10325000       342.76100       1.9533056    0.0090621529
       4702.0000       291.00086       99528.924       7730.9239      0.78000000      0.73500000    -0.012000000       341.86600       1.9661093    0.0095148695
       4708.0000       291.06044       99533.643       7774.7954      0.94150010      0.13925000     -0.42325000       342.03100       1.9768506    0.0079137138
       4713.0000       291.12409       99524.836       7815.6268       1.0820000      0.30875000    0.0052500000       342.31600       1.9641156    0.0074609030
       4718.0000       291.16255       99519.739       7845.8149      0.99700000      0.43925000     -0.25500000       341.97700       1.9603400    0.0085253222
       4723.0000       291.16070       99511.900       7859.2090       1.1010000      0.23950000      0.32425000       342.30600       1.9594616    0.0085945801
       4728.0000       291.20193       99503.926       7899.7209       1.6382500      0.74150000    -0.037000000       341.94000       1.9718952    0.0092262073
       4733.0000       291.28164       99490.522       7947.6853       1.5132500       1.1692500      0.10325000       342.71200       1.9676474     0.014900825
       4738.0000       291.31048       99488.137       7996.1313       1.2125000       1.3387500    -0.039250000       342.19000       1.9369983    0.0090654882
       4743.0000       291.33229       99492.647       8074.8647       1.3415000       1.5167500     -0.39725000       341.99900       1.9772773     0.011303528
       4748.0000       291.36126       99494.923       8138.9933       1.0705000       1.2967500     -0.18875000       342.17900       1.9521210     0.011902179
       4753.0000       291.35794       99504.531       8219.7850       1.5415000       1.1982500     -0.14175000       342.87100       1.9590690     0.010499732
       4758.0000       291.34814       99512.343       8244.9412       1.3392500       1.3110000     0.060250000       342.63100       1.9560257    0.0084798622
       4763.0000       291.37170       99516.884       8257.7078       1.0702500       1.0972500     -0.24325000       342.63200       1.9456380    0.0087087683
       4768.0000       291.35879       99520.867       8228.3680       1.1065000       2.0742500     -0.40250000       342.39300       1.9621357    0.0093225983
