MIRICO/SHELL project - Processed LDS file generated on
Sat Jul 08 20:50:55 2017
Time stamp for record start
05/10/2017  15:03:54.0001
Nb of points in the record
         945
Beam position index
       3.0000000
Beam angle (degrees)
     -0.92900000
Open Path length (m)
       44.550000
****************** Temporal data record ************************
Elapsedtime_sec Temp_K Press_Pa Humidity_ppmv WindX_m/s WindY_m/s WindZ_m/s Speedofsound_m/s CH4vmr_ppmv CH4vmrerror_ppmv  
      0.00000000       290.58439       99620.412       8016.2167     -0.97600010       2.4030000     -0.11025000       342.64100       2.0241213    0.0098510295
       4.9999729       290.52909       99620.471       8012.3851     0.048250000       2.9152500     -0.30125000       341.90400       2.0184369    0.0083194225
       9.9999860       290.59147       99620.362       8067.6571     -0.22650000       1.6202500      0.68775000       342.81000       2.0488050    0.0085047976
       14.999999       290.61049       99620.409       8082.1985       1.1917500       2.4940000      0.20975000       343.07200       2.0545828    0.0073785018
       19.999972       290.63765       99622.060       8109.5064      0.47650000       2.6000000   -0.0042500000       341.76300       1.9832596    0.0081833162
       24.999985       290.67629       99618.326       8115.3160      0.58125000       3.7975000     -0.57275000       342.18600       2.0312637    0.0083340082
       29.999998       290.77599       99612.177       8103.2246      0.47100000       3.4152500     -0.18850000       341.29800       2.1165724     0.013640810
       34.999971       290.75096       99606.446       8087.0806       1.8075000       3.4110000      0.17775000       342.64400       2.0380543    0.0089374360
       39.999984       290.65568       99596.940       8054.5769     -0.81825010       3.0087500     -0.22800000       342.17300       2.0383686    0.0098552972
       44.999997       290.62564       99589.046       8049.0965      0.83600000       3.2940000     -0.51375000       341.75800       2.0530624    0.0080247683
       49.999970       290.51763       99579.143       8037.2739      0.75025000       2.2915000     -0.14450000       342.63200       2.0639637     0.011962061
       54.999983       290.54234       99577.797       8051.4043      0.33900000       1.6737500      0.34275000       343.72400       2.0595532    0.0085540714
       59.999996       290.69469       99576.302       8098.2269      0.47225000       2.7060000    -0.011000000       342.71100       2.0614311    0.0082492414
       64.999969       290.74650       99583.694       8127.7314       1.1582500       3.0250000     -0.20650000       341.82900       2.0315860    0.0076213431
       70.999977       290.80693       99606.218       8165.5794      0.28900000       2.6002500     -0.20200000       341.82900       2.0466145    0.0095978476
       75.999990       290.81530       99620.358       8189.6881      0.30100000       2.9100000      0.50175010       342.96100       2.0734388    0.0073186128
       81.000003       290.84389       99627.777       8218.8127      0.65875010       1.8267500      0.23525000       342.18700       1.9860267    0.0075619089
       85.999976       290.88477       99630.294       8249.7727      0.10350000       2.6137500      0.29475000       342.03300       2.0900150    0.0093303061
       90.999989       290.93656       99626.205       8276.5128     0.021500000       1.8762500     -0.26850000       341.85700       2.0732831    0.0092216250
       96.000002       291.03038       99625.060       8325.8085     -0.20225000       2.5565000     -0.35925000       341.36400       2.0355698    0.0078812539
       100.99998       291.16182       99620.866       8394.9478      0.42875000       2.6185000      0.17975000       342.08700       2.0916722    0.0078185060
       105.99999       291.21013       99615.671       8429.5585      0.51325010       1.7962500     -0.39600000       342.23800       2.0919525    0.0095292860
       111.00000       291.26295       99610.794       8452.4986      0.99175010       2.3155000     -0.32750000       341.54000       2.0551170    0.0098599671
       115.99997       291.26004       99600.397       8446.8641      0.96775010       1.7057500    -0.088750000       342.38200       2.1062203     0.013862536
       120.99999       291.25022       99594.330       8428.3292      0.89275000       2.2937500      0.25475000       342.00400       2.0966045     0.013350026
       126.00000       291.31489       99587.163       8404.0728     -0.23725000       2.5822500     -0.55450000       341.57400       2.0433385    0.0097083817
       130.99997       291.28164       99587.598       8367.5684     -0.10900000       2.3227500     0.022750000       342.32500       2.0166869    0.0079407023
       135.99999       291.18683       99592.963       8316.4981     -0.13575000       1.8897500      0.18525000       342.21400       2.0348107    0.0075956919
       141.00000       291.01087       99604.344       8244.1242     -0.19350000       1.4682500      0.73950000       343.40700       2.0550453    0.0086391061
       145.99997       290.87829       99612.550       8167.9285     -0.53000000       1.2842500    -0.073250000       342.84200       2.0536149     0.012063937
       150.99999       290.67686       99627.305       8075.4116     -0.60825000       1.6057500      0.36150000       343.57000       2.0440087    0.0078701129
       156.00000       290.63015       99628.708       8006.1305      -1.2410000       1.3497500      0.46100000       343.44600       1.9688743    0.0078985777
       162.00001       290.58135       99631.141       7949.0474     -0.96775010       1.1895000     0.093250010       342.27400       2.0810132    0.0082171949
       166.99998       290.61450       99631.693       7954.2480      -2.0780000       1.2555000     -0.31025000       342.20900       1.9977941    0.0085977179
       171.99999       290.60336       99630.557       7934.8375      -1.4112500       4.0240000      0.29075000       343.35000       2.0540874    0.0091601818
       177.00001       290.56709       99631.551       7908.3138     -0.54100000       3.3877500     -0.49525000       341.47600       2.0228814    0.0074744103
       181.99998       290.54725       99626.203       7888.6231     -0.50325000       1.4905000      0.56300000       342.93200       2.0367761    0.0065487748
       186.99999       290.53813       99613.931       7869.0334      -1.2190000       1.0160000      0.10450000       343.18700       2.0466740     0.013217961
       192.00000       290.49650       99603.805       7843.4460     -0.82775000       4.6405000     -0.72875010       341.38400       2.0658868    0.0093531148
       196.99998       290.38812       99582.020       7778.9638     -0.85725000       3.0602500    -0.015000000       341.74000       2.0289603    0.0079592942
       201.99999       290.38103       99575.683       7787.3805     -0.94000010       3.6142500     -0.39350000       341.80000       2.0042577    0.0073276092
       207.00000       290.42141       99579.648       7850.7799     -0.68450000       3.4180000    -0.054500000       341.55500       2.0316362    0.0077251187
       211.99998       290.44393       99584.169       7887.6718      -2.2442500       3.4722500      0.39200000       341.51600       2.0619524     0.012659222
       216.99999       290.54227       99602.814       7931.7250     -0.68100010       1.9217500      0.40725000       342.12700       2.0602618     0.010275479
       222.00000       290.62046       99613.539       8029.6483      -1.1940000       2.6702500    -0.036500000       342.07100       2.0934103    0.0081020877
       226.99998       290.66669       99621.734       8163.5539     -0.44000000       2.6157500     -0.53550000       341.47800       2.0029517    0.0076975400
       231.99999       290.70677       99627.503       8257.9388      0.68850000       2.8000000      0.28150000       341.85600       2.0526937     0.010605023
       237.00000       290.77953       99630.717       8432.8571    -0.096250010       3.0617500     -0.83375010       342.06100       2.1150846     0.013776404
       241.99997       290.81750       99631.526       8521.6502    -0.025500000       2.8247500     -0.60150000       341.70800       2.0730832    0.0089635244
       246.99999       290.80030       99630.921       8491.1894     0.025250000       1.9827500    -0.012500000       342.01100       2.0531021    0.0066855273
       253.00000       290.80044       99624.032       8495.6659      0.61100000       2.0305000     0.063000000       341.88900       2.0837030     0.010052656
       258.00001       290.78762       99611.986       8488.1766     -0.15050000       2.5227500      0.18675000       342.89300       2.0723433    0.0086395495
       262.99998       290.80166       99601.716       8482.0657      0.76150010       2.3625000     -0.28800000       341.30800       2.1045199     0.011005503
       267.99999       290.83710       99581.639       8486.1107       1.1042500       2.1107500     -0.30850000       342.23700       2.0373831    0.0088758688
       273.00001       290.85720       99575.620       8469.3059      0.99725000       2.2735000      0.89125000       342.58800       2.0589418    0.0083410146
       277.99998       290.88210       99577.984       8409.9326      0.98150000       2.6985000    -0.099750000       342.05600       2.0873837     0.010093417
       282.99999       290.91238       99580.237       8407.2883      0.68600000       1.5340000     -0.48400000       341.31300       2.0631723    0.0087363996
       288.00001       290.93862       99589.321       8432.6711      0.78000000       1.4792500    -0.041750000       341.68900       2.0020689    0.0076130447
       292.99998       290.95866       99598.703       8442.8744     -0.23475000       1.1860000     0.096750010       342.76500       2.0172423    0.0083226656
       297.99999       291.02107       99612.649       8521.0840     -0.16400000       2.2627500    -0.019250000       341.39400       2.0278506    0.0098177455
       303.00001       291.00956       99618.852       8509.2005    -0.084750000       1.4207500      0.38575000       342.31200       2.0759595     0.010179338
       307.99998       290.91135       99627.734       8399.9848     -0.82450000       2.1310000     -0.19975000       342.06200       2.0941753    0.0095981678
       312.99999       290.88527       99627.968       8362.1383      -1.1867500       1.1740000      0.35450000       342.03700       2.0000491    0.0071527803
       318.00001       290.86086       99617.632       8325.0590     -0.72975000       1.4810000    -0.067000000       341.44500       2.0473705    0.0076773597
       322.99998       290.83474       99607.922       8283.9171     -0.63425000       1.7372500     -0.25075000       341.30900       2.0549055    0.0090437135
       327.99999       290.86892       99587.485       8284.1051     -0.42800000       1.8352500     -0.40300000       341.36100       2.0121679    0.0074054063
       333.00000       290.85132       99580.992       8258.7998     -0.37825000       2.4072500     -0.10150000       341.73000       2.0335250    0.0071010696
       337.99998       290.75348       99578.133       8182.5398     -0.23450000       2.1020000     -0.43600000       341.71400       2.0376254    0.0084595620
       343.99998       290.72885       99579.261       8147.3424     -0.63550000      0.99750010      0.76925000       342.49800       2.0710315    0.0087931589
       349.00000       290.72057       99592.193       8130.8375     -0.64275000       1.9690000     0.011500000       341.89600       2.1501974     0.013763906
       353.99997       290.75908       99600.177       8151.9044     -0.24725000       2.2085000     0.097500000       341.72600       2.0063995    0.0085144225
       358.99998       290.87053       99608.393       8209.0315     -0.71175000       1.2360000     -0.42275000       342.76800       2.1022280     0.010400924
       364.00000       290.94097       99613.749       8262.6268      0.13725000       2.3350000     -0.17900000       341.66700       2.0290070    0.0092487037
       368.99997       291.05074       99622.182       8392.6405     -0.37625000       2.7322500     -0.12375000       341.78100       2.0321164    0.0086867219
       373.99998       291.08198       99621.626       8399.6319     -0.14975000       2.3055000     -0.21500000       341.66300       2.0313408    0.0075499005
       379.00000       291.05683       99614.884       8331.9791     -0.52600000       2.1575000     -0.19750000       341.88800       2.0525636     0.010619849
       383.99997       291.05063       99605.966       8300.3550     -0.15975000       2.0482500     0.098750000       342.01000       2.0259262    0.0067005464
       388.99998       291.01179       99587.899       8201.9250      0.33725000       1.9582500    -0.079750000       342.18200       2.0244924    0.0084310170
       394.00000       290.98199       99579.302       8165.0791      0.20850000       2.1005000     -0.59050010       341.76700       2.0055219    0.0087598443
       399.00001       290.95854       99565.116       8165.0285      0.59875010       1.5012500      0.11875000       342.34900       2.1027771     0.010655318
       403.99998       290.93892       99569.073       8188.6282    -0.069250000      0.78950010      0.32350000       343.68400       2.0460685    0.0069511587
       408.99999       290.90097       99590.884       8254.8495      0.44000000       1.5562500      0.26600000       342.85100       2.0713713    0.0084548608
       414.00001       290.88737       99600.963       8270.2533       1.1670000       1.6662500     -0.40225000       341.96400       2.0846774     0.012783354
       418.99998       290.88877       99619.649       8314.2634       1.1100000      0.85875000     0.026000000       343.24300       2.0880617    0.0095096017
       423.99999       290.90501       99626.624       8303.7492     0.083750000      0.92675010      0.39325000       343.07300       2.0227370    0.0081435555
       429.00001       290.94284       99623.529       8220.8298       1.9017500       1.3407500      0.46650000       343.03600       2.0652861     0.012422933
       434.99997       290.96707       99617.253       8157.1426      0.57175000       1.2367500      0.45375000       343.34700       2.0253508    0.0069539036
       439.99999       291.02101       99608.353       8108.0868      0.18175000       2.0765000     -0.15725000       342.13500       2.1044340     0.016411805
       445.00000       290.99495       99598.701       8042.6930      0.15975000       1.5115000    0.0087500000       342.29700       2.0682292    0.0099470414
       449.99997       290.90936       99578.473       7943.1974      0.89200000       1.4010000     -0.31150000       341.72000       2.0699822    0.0096006196
       454.99999       290.86887       99574.926       7916.5236       1.1250000       1.6497500      0.19825000       343.05400       2.0616246     0.012201697
       460.00000       290.80277       99576.384       7902.6356       1.1377500       1.3187500     -0.12375000       341.65000       2.0559885     0.010575815
       464.99997       290.76090       99583.840       7921.8928      0.15950000      0.94525000       1.4052500       342.90800       1.9987607     0.011110820
       469.99999       290.75321       99605.039       8012.1720      0.47400000       1.1880000     -0.13500000       341.61700       2.0456779    0.0088511851
       475.00000       290.73315       99613.323       8049.2714      0.30400000      0.85725000     0.021750000       341.69400       2.0519976     0.011344211
       479.99997       290.70563       99623.020       8091.6879      0.54850000       1.7055000     -0.52075000       341.63800       2.0465454    0.0095615942
       484.99998       290.67563       99622.575       8088.8230      0.22175000       1.4080000     -0.28400000       341.94200       1.9960458    0.0086465186
       490.00000       290.65423       99611.270       8053.1761      0.31350000       1.2745000     -0.23625000       342.70700       2.0122515    0.0083990955
       494.99997       290.63444       99607.393       8032.0608      0.24600000       1.1187500     -0.11975000       341.71000       2.0261066    0.0072141342
       499.99998       290.59693       99599.875       7979.6894      0.16075000      0.99625000     -0.22175000       341.67700       2.0607175     0.013811550
       505.00000       290.58573       99597.696       7959.4247      0.34900000      0.75750010     -0.12300000       342.30900       2.0557507     0.013942837
       509.99997       290.59058       99598.413       7955.4288      0.27425000      0.35550000    -0.043000000       342.31000       2.0296496     0.013804134
       514.99998       290.60921       99602.134       7958.1643      0.40725000      0.32550000     0.040500000       342.58700       1.9269644    0.0081168473
       520.99999       290.63804       99611.653       7958.9137      0.92600010      0.40725000      0.23850000       342.80100       2.0309891    0.0098585127
       526.00000       290.74574       99612.752       8056.7023     0.022000000       1.1462500      0.66800000       343.24600       2.0033853     0.013925860
       530.99998       290.80647       99612.080       8114.2663      0.63775000       2.5060000      0.28575000       342.38000       2.0529056     0.014173448
       535.99999       290.85487       99607.713       8168.5809     -0.54275000       2.6170000     -0.23275000       342.38600       2.0390039     0.013519858
       541.00000       290.89345       99596.245       8239.3548    -0.038500000       2.3830000    -0.096250010       342.53900       2.0689788     0.022546475
       545.99998       290.97545       99586.063       8307.1291      0.45300000       2.8252500    -0.029750000       342.92900       2.0548093     0.011311602
       550.99999       291.05617       99572.947       8363.2337      0.96900000       1.9165000      0.62275000       343.80900       1.9984486    0.0085761331
       556.00000       291.13993       99569.504       8380.2532      0.99450000       1.9155000    0.0062500000       342.85600       1.9733405    0.0082175220
       560.99997       291.17549       99571.734       8370.8350       1.5892500       2.4800000     -0.23150000       342.98800       2.0124470     0.011738899
       565.99999       291.12908       99597.905       8272.2339       1.5987500       1.6630000     0.079500000       342.76300       2.0106490    0.0094541718
       571.00000       291.06186       99608.342       8181.4331       1.4667500       2.2335000      0.10100000       342.82100       2.0031591    0.0087314666
       575.99997       290.90970       99614.359       8061.9680       1.8160000       2.4707500    -0.026000000       342.86400       2.0151053     0.011684080
       580.99999       290.83752       99614.140       7985.9037       1.8450000       1.1797500     0.095750000       342.62300       2.0555527    0.0083211277
       586.00000       290.78992       99606.532       7925.8513       1.3485000       1.7645000     -0.33475000       342.17900       2.0465267    0.0082372780
       590.99997       290.73085       99584.228       7863.1657      0.24325000       2.1527500      0.26575000       343.00900       2.2429664    0.0092684387
       595.99999       290.72528       99576.388       7828.2594      0.94850000       2.4285000    -0.053000000       342.95700       3.0836056     0.011343018
       601.00000       290.81223       99566.872       7840.3284      0.65275000       2.2520000      0.39975000       342.65000       2.7999462    0.0087369449
       605.99997       290.76983       99576.508       7809.5910      0.94250010       2.3955000    -0.086000000       342.63400       2.9225222     0.014018901
       611.99998       290.74568       99586.157       7774.6058       1.3802500       2.2470000      0.46550000       341.67600       5.1306439     0.016417338
       616.99999       290.69552       99608.392       7722.2828     -0.95225010       1.6315000     -0.37125000       343.71500       2.7523278    0.0088302743
       622.00001       290.68815       99614.555       7712.8761      -1.4660000       2.9657500     -0.35050000       341.95300       3.0548015     0.014475341
       626.99998       290.70414       99612.780       7708.7652     -0.49050000       2.4552500    -0.088000010       341.59100       3.4519177     0.012547203
       631.99999       290.74709       99607.070       7740.5435     -0.54275000       1.6077500      0.22300000       343.07500       3.2388303    0.0080199182
       637.00000       290.85784       99578.949       7839.2250      0.61425000       1.8282500      0.31375000       343.03700       3.1308380    0.0076216895
       641.99998       290.91679       99570.751       7911.8936     -0.22675000      0.56075000      0.64325000       343.47200       2.2647365     0.010130765
       646.99999       290.92491       99569.257       7978.5921       1.1755000       2.1955000     -0.11950000       342.53600       2.3373906     0.010358958
       652.00000       291.00754       99572.974       8068.3552       1.0425000       3.7420000     -0.25200000       342.62100       3.4600731    0.0085805396
       656.99998       291.15148       99600.614       8203.7465       1.1417500       2.3680000      0.27050000       341.99900       4.2321336     0.012951414
       661.99999       291.21963       99609.859       8272.1618    -0.051000000       3.0225000      0.19075000       342.11300       3.5106730     0.012308537
       667.00000       291.37008       99616.040       8351.4335      0.45875000       1.8100000     -0.21875000       342.32200       2.1311929    0.0083247964
       671.99998       291.39193       99613.157       8373.3490     -0.59400000       1.5995000     -0.28150000       342.33800       2.3820251    0.0091686494
       676.99999       291.21031       99587.379       8295.8281     -0.11650000       1.2052500      0.24325000       343.28600       3.3883469     0.012173940
       682.00000       291.13168       99576.714       8239.0501     -0.97550000       2.8615000     0.089500000       342.03400       3.1430161    0.0084551849
       686.99998       291.07287       99560.835       8161.5821     -0.79175000       2.8597500     -0.36900000       341.54000       3.5448730     0.013653569
       691.99999       290.98205       99560.983       8091.6938     -0.79275010       1.5290000      0.27625000       343.15300       3.5689706     0.011832753
       697.00000       290.88236       99589.635       8003.1839     -0.30800000       1.8905000     -0.30125000       342.03600       6.2438386     0.012397398
       702.99997       290.82451       99601.011       7934.9137     -0.65700000      0.90850000      0.31250000       342.72400       3.1421046    0.0090150926
       707.99998       290.73949       99614.057       7905.7914      -1.0757500      0.76600000     -0.40425000       342.49500       4.4206059     0.011850891
       713.00000       290.72445       99614.047       7862.8939      -1.1432500      0.96225010      0.54075000       342.95600       3.0952688    0.0079764039
       718.00001       290.81868       99591.305       7821.4401     -0.52700000       1.3340000     0.038500000       342.64000       2.5187009    0.0082499054
       722.99998       290.86873       99580.628       7797.8118      -1.4522500       1.3565000     -0.36625000       342.33500       3.6541401    0.0096568842
       727.99999       290.93238       99562.972       7759.6943    -0.025750000       1.4550000     0.021000000       343.56100       8.6688362     0.013251176
       733.00001       290.96865       99561.677       7757.9132     -0.25325000      0.86050000      0.18550000       343.43900       4.1492853    0.0095216244
       737.99998       290.99578       99573.511       7809.6129     -0.76975010       1.0107500     -0.30625000       342.03700       4.2159171     0.011149637
       742.99999       291.01250       99582.574       7833.4178     -0.35750000       2.8515000     -0.57825010       342.70000       3.3325667    0.0085108233
       748.00001       291.01293       99609.943       7855.9178      -2.0225000       1.7350000     0.084000010       342.72500       2.7144545    0.0085254726
       752.99998       290.99907       99616.205       7883.2038      -1.7537500       2.5792500      0.47825000       342.78600       4.1422148     0.011962375
       757.99999       290.98760       99610.515       7938.8188     -0.10700000       3.1130000     0.024000000       342.29200       4.1029608     0.010948962
       763.00001       290.94041       99605.128       7926.7022     -0.98500010       2.2995000      0.58350000       343.07900       3.3689111    0.0083105527
       767.99998       290.83122       99581.680       7880.5956     -0.23000000       3.0430000      0.19925000       343.02400       3.7073236    0.0091975115
       772.99999       290.77501       99575.589       7839.6248     -0.19475000       2.1127500      0.79775010       343.34400       3.8431196    0.0088086680
       778.00000       290.72389       99575.107       7734.1664     -0.38825000       2.1432500      0.11300000       343.65100       3.3795459     0.010402150
       782.99998       290.67725       99579.982       7675.6160      0.66150000       2.3007500    -0.086000000       342.76600       2.6309736     0.011079656
       787.99999       290.67425       99604.707       7647.2308     0.016500000       1.4530000     -0.24125000       343.30600       3.1300288     0.014900982
       794.00000       290.63239       99610.246       7621.2475     -0.31875000       1.0282500      0.36925000       343.47800       4.0017510    0.0097860183
       798.99997       290.58102       99610.833       7621.9971     -0.79925010       2.4872500     -0.35350000       342.19000       2.4877542    0.0093874183
       803.99998       290.51531       99604.122       7596.6984     -0.47400000       2.4165000    -0.028750000       341.78400       2.7486684    0.0077148655
       809.00000       290.41829       99574.882       7567.6808     -0.97525010      0.92725000     -0.53100000       342.70800       2.8534069     0.010893109
       813.99997       290.36450       99569.810       7549.5837     -0.43675000       1.6182500       1.0185000       343.02100       4.7605523    0.0093456976
       818.99998       290.30244       99572.082       7509.5826     0.078250010       2.1502500      0.35525000       342.34800       7.1542158     0.012270254
       824.00000       290.27494       99575.601       7500.6649      0.32500000       2.7830000     -0.93150000       342.57200       3.7104860     0.011042825
       828.99997       290.27753       99598.919       7508.7060     0.035250000       2.6325000      0.33050000       343.14500       2.9238922    0.0089625466
       833.99998       290.30986       99598.618       7543.9173      -1.0075000       2.2777500     -0.24875000       342.30800       2.4823130    0.0083765188
       839.00000       290.37349       99583.431       7610.1847     -0.39750000       2.0122500      0.52125000       343.13600       2.9832598    0.0092151424
       844.00001       290.42952       99576.878       7656.6190      -1.1245000       1.1617500     -0.25100000       341.49900       3.7124262     0.011366631
       848.99998       290.54027       99556.255       7723.8328      -1.7732500       1.1030000     -0.24750000       341.61800       3.8634413    0.0096628661
       853.99999       290.58764       99557.204       7781.0459      -1.1157500       2.3432500     -0.16250000       341.77000       3.3141397     0.010309846
       859.00001       290.59970       99576.752       7829.1354      -1.0632500       1.7927500      0.36800000       341.78500       2.6144081     0.010616454
       863.99998       290.61358       99584.832       7860.7606     -0.50425000       2.0227500      0.87725000       342.54500       6.1390379     0.010429330
       868.99999       290.59999       99603.180       7893.9396     -0.89250000       1.3075000      0.37850000       342.88500       4.2683779    0.0089665967
       874.00001       290.60009       99603.909       7916.3307      -1.2305000       2.1177500     0.079250000       342.99800       5.6264342     0.010080585
       878.99998       290.57801       99588.603       7895.9069    -0.027000000       2.5832500     0.048250000       343.04600       2.4732803    0.0098606059
       884.99999       290.61987       99579.318       7924.4123     -0.64450000       2.1077500      0.44575000       343.45200       4.0285382    0.0091493753
       890.00000       290.69197       99561.257       7980.1965     -0.83100000       3.8005000     -0.18225000       342.53100       2.8245878    0.0079253111
       894.99997       290.73149       99563.378       8004.7128     0.029750000       3.4215000     -0.22125000       341.89000       5.1461649     0.012920050
       899.99999       290.79783       99578.071       8019.9410      -1.2862500       2.8350000     -0.18375000       342.18900       2.8183601    0.0074218441
       905.00000       290.83933       99585.042       8064.1628      0.14450000       3.7880000      0.32700000       341.69200       7.2822981     0.017345993
       909.99997       290.84582       99604.051       8105.6646     0.010750000       2.6705000    -0.029500000       342.06700       4.6839510     0.021825790
       914.99999       290.86579       99602.963       8152.7019      0.31225000       3.3412500      0.10025000       342.44900       2.9226918    0.0095547449
       920.00000       290.89496       99586.264       8256.7856      0.31325000       2.2982500     -0.22325000       341.77000       2.4091973    0.0074742088
       924.99997       290.92522       99580.291       8260.9207     -0.27850000       2.6537500     -0.11825000       341.94400       6.4181326     0.011056434
       929.99998       290.93770       99566.835       8202.7374      0.61775000       1.2412500      0.61975000       343.33400       4.3329038     0.011535587
       935.00000       290.97641       99569.172       8176.6455      0.55600010       1.8160000      0.25200000       343.10000       5.0999617     0.011671330
       939.99997       291.03069       99585.133       8077.8034      0.89275000       3.8687500   -0.0025000000       342.27300       4.1726392    0.0089627167
       944.99998       291.09883       99589.271       8111.1723       1.1330000       3.4617500     -0.45000000       341.52100       4.3467134     0.012417400
       950.00000       291.19385       99599.634       8219.5725       1.1600000       2.6032500     -0.17425000       341.57200       2.8255787    0.0087199004
       954.99997       291.24564       99595.356       8306.5001      0.52725010       2.7090000     -0.28025000       341.74300       2.5823148    0.0084830772
       959.99998       291.31404       99572.655       8488.5946     0.024500000       2.4052500      0.25950000       341.98000       3.0297455    0.0091377387
       965.00000       291.31811       99573.008       8522.4981     -0.29450000       1.9692500     -0.43025000       341.64100       4.6914975     0.021166232
       969.99997       291.25320       99578.074       8499.8014     -0.35975000       1.6295000     -0.10675000       341.61400       5.6907831     0.010922215
       975.99998       291.25966       99600.406       8365.5138      0.25050000       1.8467500     -0.15825000       342.05400       2.4943747     0.011738902
       980.99999       291.21241       99605.361       8261.9350      -1.7242500       2.8402500     -0.31725000       342.03000       6.2601205     0.010758081
       986.00000       291.14052       99600.468       8152.1708     -0.99650010       1.3430000     -0.16025000       342.29900       2.5819777    0.0081495211
       990.99998       291.04623       99579.998       8011.8634     -0.36400000       1.7762500      0.20500000       342.38000       4.8398617     0.013129979
       995.99999       291.00721       99574.044       7944.9597    -0.049750000       1.8767500    -0.072250000       342.62000       3.0962256     0.016130761
       1001.0000       290.92570       99561.059       7902.1836     -0.63375000       2.3290000    -0.036750000       342.65400       4.7490123    0.0093448713
       1006.0000       291.03038       99579.338       7901.5384     0.084750000       4.1337500     -0.34300000       342.51800       6.4838336     0.011700380
       1011.0000       291.06334       99586.652       7888.8515     -0.90775010       1.9665000    -0.039250000       342.47500       3.3648741    0.0077524681
       1016.0000       291.05503       99597.416       7866.7524     -0.99675010       2.5267500      0.45250000       342.64600       3.6635871    0.0098319213
       1021.0000       291.05595       99599.058       7853.7038      -1.4395000       3.7477500     -0.11900000       341.37100       2.7660164    0.0094760244
       1026.0000       290.99983       99576.811       7837.0053      -1.0142500       3.2500000    -0.054750000       341.42500       3.0834250    0.0086515080
       1031.0000       290.98726       99572.202       7837.3202      -1.5927500       1.8625000     -0.50925000       342.28800       3.8850068    0.0088734344
       1036.0000       290.99927       99573.745       7849.3807      -1.5935000       2.5492500     -0.59925000       342.26000       4.7193431     0.010829356
       1041.0000       291.03517       99578.149       7873.8157      -1.7347500       2.4427500       1.1040000       342.42800       3.2877177    0.0086687325
       1046.0000       291.09834       99583.698       7900.2318      -1.0277500       2.1860000      0.62550000       342.91900       4.1904557    0.0095183300
       1051.0000       291.21820       99605.246       7950.3659      -1.0772500       1.2317500      0.33075000       342.72000       3.5389229     0.010500212
       1056.0000       291.19414       99583.465       7919.1470      -1.3122500       2.2212500      0.25025000       342.13900       4.4275461     0.010671730
       1062.0000       291.20622       99577.195       7930.4712      -1.8430000       1.2457500     -0.36225000       342.40700       4.2844062     0.010655101
       1067.0000       291.15363       99573.067       7932.2301      -1.5080000       1.2012500      0.64575000       342.86500       2.4819430    0.0083276075
       1072.0000       291.13648       99572.759       7956.0167      -1.7070000       2.1165000     -0.69075010       342.59900       3.9132170     0.010686798
       1077.0000       291.20495       99590.725       8068.8252      -2.1420000       1.9455000     -0.34050000       341.55100       2.1013018    0.0077984046
       1082.0000       291.21200       99598.288       8099.0233      -2.7065000      0.25325000     0.036750000       341.56200       3.3816002    0.0098017497
       1087.0000       291.13816       99600.605       8069.4229      -2.6392500       1.0570000     -0.32500000       341.63200       4.2454341    0.0096058644
       1092.0000       291.14108       99601.325       8066.5882      -2.6377500       1.4112500     -0.49175000       342.04600       7.2172848     0.013057890
       1097.0000       291.17892       99595.356       8034.7554      -2.3540000     -0.12500000    -0.081750010       342.53300       5.0451041     0.011594134
       1102.0000       291.20034       99594.429       8007.5260      -1.6245000       1.5320000     -0.50025000       341.55800       3.4899411    0.0089894681
       1107.0000       291.29548       99596.090       8003.4377      -1.5960000       1.1530000     -0.24750000       342.00300       6.2619902     0.012365360
       1112.0000       291.32106       99595.065       7992.6116      -1.1495000      0.52900000      0.35175000       342.03900       5.1100902    0.0099971484
       1117.0000       291.25182       99600.267       7923.8673      -1.9342500      0.99050000     -0.15400000       342.23600       4.5138059     0.012260565
       1122.0000       291.24307       99596.870       7931.1316      -1.2572500       1.5935000     -0.56000000       342.17100       4.9140562     0.010066791
       1127.0000       291.25813       99579.923       8012.0626      -2.3847500       2.2675000     -0.49975000       341.64300       8.2833423     0.012090962
       1132.0000       291.24828       99573.210       8059.0256     -0.90050010       1.2410000    -0.023250000       342.76200       3.9509092     0.010132338
       1137.0000       291.29760       99563.889       8175.2105      -1.4480000       1.4075000     -0.21075000       342.38800       6.5014090     0.012286450
       1142.0000       291.26245       99562.473       8206.3192      -2.1055000       1.5695000     -0.34950000       342.28300       4.0844427     0.010456326
       1147.0000       291.10599       99578.989       8145.9306     -0.59975000       1.4247500      0.16550000       342.83200       3.0432839    0.0092069694
       1153.0000       291.01207       99582.987       8108.8388      -1.2140000      0.91000000     -0.26500000       342.47300       6.7678393     0.015845894
       1158.0000       290.92795       99581.773       8043.2146      -1.6742500       1.2995000      0.35650000       342.16300       2.9417714     0.013384220
       1163.0000       290.86603       99581.022       8000.6621     -0.70925000       2.0175000      0.56175010       342.76100       4.2928509     0.010308678
       1168.0000       290.83639       99567.426       7969.3250      -1.0927500       1.8415000     0.055500000       343.19000       4.1672519     0.011603162
       1173.0000       290.84438       99568.462       7956.7340      -1.8072500       1.2800000      0.41225000       342.17300       3.8003943     0.011868069
       1178.0000       290.85599       99583.147       7948.0786      -1.2942500       1.5970000     0.099500010       342.42400       5.0177796     0.011427103
       1183.0000       290.90762       99587.869       7956.3381      -1.0957500       2.6770000     -0.15700000       342.04900       5.0381424     0.010512905
       1188.0000       291.05566       99599.029       7998.8754      -1.4885000       1.4680000      0.10650000       341.78400       8.1161908     0.013527883
       1193.0000       291.14257       99597.876       8030.6955      -2.1845000       1.6215000     -0.30100000       341.60200       3.1782569    0.0093840520
       1198.0000       291.28028       99573.939       8086.8345      -1.5057500       1.6092500    0.0062500000       342.27200       4.6720238     0.010429467
       1203.0000       291.27710       99571.830       8097.3895      -1.2747500       1.2305000     -0.52575000       341.53100       4.5958949     0.010367498
       1208.0000       291.14331       99578.300       8058.1074     -0.87850000      0.92875000     -0.32950000       341.59500       2.8494504     0.010115244
       1213.0000       291.08011       99579.976       8072.6701     -0.87525000      0.53250000     -0.77775000       341.44900       2.7506579    0.0086410248
       1218.0000       290.90674       99598.581       8090.8598     -0.60875000      0.57600000     -0.61225000       341.48600       4.1411680     0.014454963
       1223.0000       290.85581       99598.829       8103.1379     -0.63300000      0.15875000    -0.065500010       342.57700       2.4430063    0.0083283174
       1228.0000       290.93793       99575.587       8174.7611     -0.51925000      0.61975000    -0.034750000       341.61000       3.5539925     0.011883572
       1233.0000       290.95791       99572.053       8187.4682      0.21975000      0.86975000      0.33000000       342.13800       3.6678341     0.011181025
       1238.0000       290.96921       99573.339       8131.3215      -1.1055000      0.80575000    -0.050750000       342.24400       8.0134695     0.013876299
       1244.0000       291.02295       99575.148       8113.7048      -1.5280000      0.89850000    -0.041250000       342.03300       4.3672230     0.012406254
       1249.0000       291.09563       99593.462       8101.9994     -0.44925000      0.94125000      0.32325000       342.57200       3.3987406    0.0098730480
       1254.0000       291.11927       99592.721       8095.6958     -0.18075000      0.33575000      0.42850000       343.52100       3.3078944    0.0095201020
       1259.0000       291.15795       99573.316       8104.2081     0.031000000      0.28550000     -0.10775000       342.23200       4.7095397     0.011883300
       1264.0000       291.16505       99573.853       8111.8205    -0.028000000       1.4627500      0.17375000       342.89300       7.7063682     0.013055818
       1269.0000       291.12307       99578.563       8132.1944     0.038750000       1.1225000     -0.41475000       342.68200       4.7591124     0.010679113
       1274.0000       291.07640       99580.826       8122.1784      0.75150000       2.1442500    -0.055000000       342.98300       2.7309989    0.0088815424
       1279.0000       291.01474       99599.327       8101.5965      0.36900000       1.4257500      0.29175000       343.73400       8.0789066     0.014406170
       1284.0000       290.97470       99598.046       8083.5355       1.9157500       2.1667500      0.59350000       342.19300       3.7042046     0.010176448
       1289.0000       290.90125       99574.202       8029.9295      0.82350000       2.2577500      -1.1092500       342.55000       2.3994814     0.011869076
       1294.0000       290.87419       99571.704       8018.9418      0.31850000       1.7955000      0.57900010       343.40300       4.3634695     0.010813373
       1299.0000       290.88888       99573.132       8026.8709     -0.99750010       1.3757500     0.016750000       342.60300       6.4278519     0.012069959
       1304.0000       290.90490       99574.940       8050.2402     -0.36675000      0.91850010      0.86675010       343.44500       2.9087360     0.011013572
       1309.0000       290.94102       99593.693       8110.5561      0.18275000       1.4062500   -0.0012500000       342.70100       5.5739984     0.013403079
       1314.0000       290.96108       99592.891       8135.8054     -0.30775000       1.7462500     0.018000000       342.97600       6.1415473     0.012561781
       1319.0000       290.98815       99574.485       8161.7285     -0.28350000       2.1012500      0.69550000       343.83000       5.5452438     0.012095264
       1324.0000       291.01864       99573.440       8182.1820     -0.15800000       1.9122500       1.0125000       343.67300       2.1703498    0.0086527826
       1329.0000       291.03194       99572.261       8182.7249       2.1967500       1.0662500     -0.28150000       342.34300       5.5540116     0.011892125
       1335.0000       291.07686       99576.978       8185.0455       1.8440000      0.84350000     -0.37850000       342.25100       2.2633525    0.0084328407
       1340.0000       291.15775       99599.519       8193.8659       1.3047500      0.72100000      0.14425000       343.70900       4.4793669     0.010713541
       1345.0000       291.17007       99597.504       8191.5291       1.0085000       1.9630000      0.11300000       342.65400       2.8788790    0.0089949937
       1350.0000       291.17634       99579.805       8179.9186     0.051500000      0.60675000     -0.30325000       343.48900       3.7149325     0.011035030
       1355.0000       291.12911       99578.599       8154.7585      0.23850000       1.0057500     0.058000000       343.73400       3.0503041     0.010992947
       1360.0000       291.01354       99573.056       8130.2191     0.096000000       1.6902500     -0.65650000       342.68700       4.7571811     0.011613832
       1365.0000       290.94312       99574.572       8082.7805      0.71550010       2.6162500    -0.046000000       342.56500       2.8645233     0.011200521
       1370.0000       290.83719       99593.936       7992.7884      0.67450000       1.7830000     -0.54425000       342.28700       7.0171495     0.013310310
       1375.0000       290.81312       99591.711       7960.4059       1.0157500       2.7790000      0.64575000       342.66600       4.1667657     0.011622537
       1380.0000       290.85206       99572.987       7945.9565      0.21150000       3.1095000     0.056000000       341.53500       3.0242700     0.013405415
       1385.0000       290.84211       99574.541       7923.6882     0.059750000       1.7767500      0.32050000       342.23100       3.9382697     0.010773208
       1390.0000       290.84749       99580.457       7930.1504     -0.63400000       1.9647500     -0.11250000       342.15800       2.8366357    0.0098270201
       1395.0000       290.85715       99579.462       7913.3902    -0.090250010       1.4217500     -0.11675000       342.47400       2.1733663    0.0083454126
       1400.0000       290.84226       99588.760       7876.7816   -0.0087500000       1.3625000     0.029000000       343.14600       2.0888062    0.0095176859
       1405.0000       290.85137       99585.223       7850.8902      0.22775000       1.1167500      0.35300000       343.04200       2.0400945    0.0074809642
       1410.0000       290.90295       99561.417       7824.2696     -0.69875000       1.5685000     -0.18225000       342.06400       2.1087422     0.011194142
       1415.0000       290.91459       99563.568       7815.7459      0.20375000       1.0560000     -0.29875000       341.60400       2.0169989    0.0094377925
       1420.0000       290.90917       99581.334       7811.5110     -0.13050000      0.88925000     0.091250000       342.50200       2.0700498    0.0094481783
       1426.0000       290.87010       99585.494       7788.7729      0.11300000      0.43250000     0.081750010       342.21400       2.1287362     0.011902645
       1431.0000       290.85033       99588.018       7817.3184     0.057750000      0.18775000      0.39050000       342.72100       2.0172204    0.0091306931
       1436.0000       290.83062       99585.627       7871.5803  -0.00050000000      0.95375010     -0.27025000       342.02000       2.0365254    0.0095071899
       1441.0000       290.79419       99566.604       7951.5935      0.24075000       1.7170000    -0.016500000       342.47000       2.0672819    0.0087968256
       1446.0000       290.78580       99570.566       7991.6963      0.87950000       1.3967500     -0.24775000       342.42800       2.0320101    0.0080367081
       1451.0000       290.81129       99587.647       8077.7879      0.85975000       1.3617500      0.28025000       342.65700       2.7483609     0.011816158
       1456.0000       290.72378       99582.001       7977.3866       1.0202500       1.1210000      0.13075000       342.49200       3.2912069     0.011468466
       1461.0000       290.69182       99581.139       7934.1172      0.89375010       1.8467500     -0.57050000       342.05600       2.1197195     0.013548901
       1466.0000       290.62972       99566.298       7883.3603       1.1705000       2.1355000     -0.28200000       342.35800       2.1013156     0.010388499
       1471.0000       290.62542       99561.741       7853.2762      0.84125010       1.1820000     -0.18175000       342.79800       2.3080324    0.0091959881
       1476.0000       290.73014       99579.243       7857.4334       1.6857500       1.0850000     -0.14950000       342.57100       4.8011334     0.024108576
       1481.0000       290.79970       99582.720       7880.1768       1.6525000       1.1867500     -0.18275000       342.49500       7.5309529     0.013038774
       1486.0000       290.86926       99581.266       7918.6137      0.46925000       1.1332500     0.068000000       343.22600       3.6772542     0.012537935
       1491.0000       290.94764       99574.100       7952.1104     0.042250000       2.5897500     0.044000000       342.57300       4.1213882    0.0089656905
       1496.0000       291.02800       99578.357       8055.7806      0.50125000       1.5517500      0.20100000       343.49400       5.0636452    0.0094943372
       1501.0000       291.11162       99579.150       8231.8389   -0.0085000000       1.3125000      0.51050000       342.43000       2.7640114     0.011360107
       1506.0000       291.13952       99595.787       8306.1217      0.90025000       3.3190000     -0.11150000       342.52200       2.8576548     0.010728002
       1511.0000       291.16247       99599.888       8367.2670      0.23000000       2.4822500      0.18475000       342.85400       3.4926344     0.013785003
       1517.0000       291.12391       99575.411       8342.3988     -0.49100000       3.2507500     -0.46150000       341.80100       3.2834764     0.011687196
       1522.0000       291.09420       99572.120       8331.4020       1.5005000       2.9712500     -0.31375000       341.88900       6.6790544     0.011767546
       1527.0000       291.05218       99580.925       8334.8256     0.082750010       3.5007500     -0.82100000       342.00400       3.0646238     0.011149048
       1532.0000       291.04352       99579.946       8330.9344     -0.60625000       1.6730000    -0.048000000       342.55600       7.2803023     0.013002962
       1537.0000       291.05875       99586.259       8331.7764     -0.53525000       1.0552500      0.32425000       342.96100       4.9688510    0.0095590052
       1542.0000       291.04883       99587.887       8297.0522     -0.99950000       2.3402500      0.14300000       342.46200       4.3018466     0.012428357
       1547.0000       291.05591       99570.256       8236.4629     -0.33450000       1.5260000     -0.23800000       342.44800       2.9591862    0.0095945502
       1552.0000       291.05485       99566.764       8185.3553     -0.24425000       1.9322500      0.29675000       342.34900       2.4868772    0.0082275655
       1557.0000       291.05223       99581.449       8111.1929      0.78350000       1.0895000      0.73025010       342.41300       2.4280365    0.0092480789
       1562.0000       291.00001       99582.061       8036.0471      0.71800010       2.7840000     0.049750000       341.95000       2.6940825    0.0096176888
       1567.0000       290.86970       99574.015       7929.6273     -0.23975000       2.4857500     -0.41675000       342.50800       5.1866823     0.011157795
       1572.0000       290.83244       99575.163       7894.0422     -0.29275000       2.0467500      0.38975000       343.13000       5.0911255     0.011944587
       1577.0000       290.81110       99573.183       7901.2954    -0.093500000       2.0950000      0.25375000       342.42000       4.8127625     0.011597088
       1582.0000       290.78405       99573.576       7890.0173      0.92425010       2.6262500      0.11825000       342.20800       3.7812667    0.0094472600
       1587.0000       290.84559       99591.273       7929.4601       1.1720000       3.0065000     -0.18925000       341.74700       3.0637399     0.011491114
       1592.0000       290.86339       99593.498       7952.8803      0.71375000       2.4030000     0.023250000       342.67300       4.1036581     0.013589212
       1597.0000       290.80990       99574.240       7946.3943      0.55175000       1.6977500      0.14075000       342.49300       5.3735229     0.011743530
       1602.0000       290.79097       99572.608       7938.7015     -0.53500000       1.7897500     -0.59450000       341.71400       3.2360372     0.012356147
       1608.0000       290.77442       99582.265       7928.3261     -0.53025000      0.68675010      0.27175000       343.58600       3.5782148     0.017680062
       1613.0000       290.80190       99579.936       7942.8891     -0.81125000      0.45250000      0.48375000       342.81000       2.7289320     0.010162244
       1618.0000       290.92815       99579.346       7973.1850     -0.97600010       1.7462500   -0.0040000000       342.19900       2.7546581     0.011810195
       1623.0000       290.91248       99581.965       7970.7776     -0.81275000       1.7942500     -0.16375000       341.47700       3.3009372    0.0092006901
       1628.0000       290.85022       99573.995       7980.3882     -0.75075010       1.4680000     -0.20775000       341.53200       2.4384340    0.0085342677
       1633.0000       290.78898       99573.542       7975.0333     -0.75200000      0.77300010      0.10075000       341.67600       3.7540430     0.010165916
       1638.0000       290.59251       99592.675       7920.3164     -0.33000000      0.58650000   0.00025000000       342.29900       6.0336475     0.017753114
       1643.0000       290.49308       99593.478       7888.8592      0.33925000      0.93425010     -0.41075000       342.05200       2.6944006    0.0099078428
       1648.0000       290.45372       99575.107       7868.2355      0.13300000      0.82750000      0.20475000       342.63800       3.1159170     0.011544647
       1653.0000       290.43174       99573.334       7859.8168   -0.0042500000       1.9965000     0.097250010       342.47500       2.7289609    0.0084576590
       1658.0000       290.44268       99575.888       7855.7369      0.42050000       1.3880000     -0.37100000       341.51300       2.8620927     0.014360440
       1663.0000       290.44607       99574.319       7851.5647      0.28825000       1.0592500      0.12100000       342.05900       4.2897887     0.012610783
       1668.0000       290.49529       99577.507       7865.4303      0.50525000       1.2597500     -0.55350000       341.92400       4.3457992     0.010729955
       1673.0000       290.51156       99582.604       7874.7391      0.13000000      0.51950000      0.56775000       342.66500       3.6636336     0.012158554
       1678.0000       290.48718       99583.984       7872.5554       1.0802500       1.3210000     -0.54250000       341.60700       2.3009108     0.017481685
       1683.0000       290.50097       99585.319       7881.3609       1.1297500       1.1387500     -0.13850000       341.51100       3.7441140    0.0087760131
       1688.0000       290.53852       99594.995       7909.1192       1.0940000      0.83375010    -0.048250000       342.11800       4.4165454     0.011459380
       1694.0000       290.56269       99598.056       7923.5764       1.2075000      0.86200000      0.48600000       343.04000       9.0771189     0.013824870
       1699.0000       290.58862       99590.411       7915.3100       1.0670000       2.2475000     -0.39850000       341.61500       3.9372416     0.010356512
       1704.0000       290.61865       99589.058       7940.9166      0.20225000       1.3505000     0.092750010       342.20700       4.2373605     0.011357063
       1709.0000       290.61825       99593.988       7967.8091    -0.018500000       2.3607500     -0.33100000       342.60400       4.2793857     0.010273371
       1714.0000       290.67150       99589.106       8018.4510      0.12325000       1.1595000     -0.19025000       341.95600       2.8104480     0.011314751
       1719.0000       290.80492       99576.560       8127.3801      0.65775000       1.7920000     -0.21575000       341.79500       5.8667094     0.010929375
       1724.0000       290.82597       99572.161       8168.5002      0.77175000       1.3717500     0.026250000       341.71600       2.8731617     0.011224333
       1729.0000       290.82464       99562.299       8199.0116      0.93000010       1.1817500     -0.11025000       341.63800       6.8228237     0.023210051
       1734.0000       290.79604       99563.344       8198.8129    -0.035750000       1.1685000    -0.081000000       342.56300       2.3807556    0.0086448957
       1739.0000       290.65897       99581.999       8142.2058     -0.20425000       1.3997500     -0.44375000       341.83900       10.766955     0.014754464
       1744.0000       290.61200       99582.439       8112.1905    -0.031500000      0.64525000     -0.35525000       341.89900       3.7626518     0.011687372
       1749.0000       290.61213       99574.222       8086.4257     -0.28625000       1.0997500    0.0092500000       341.94900       3.5712488    0.0089679613
       1754.0000       290.58244       99575.837       8039.8555      0.20600000       1.0080000     0.041750000       342.38400       6.0044643     0.014537343
       1759.0000       290.53520       99576.394       7963.4287     -0.47175000       1.4485000     -0.28350000       342.29800       3.8517284    0.0097990740
       1764.0000       290.54761       99573.427       7934.6041     -0.44850000       1.1510000     -0.25000000       342.02300       5.8140492     0.011000397
       1769.0000       290.56245       99574.004       7896.6299      0.15950000       1.4135000     0.079250000       342.65900       3.2471629    0.0095092229
       1774.0000       290.62096       99577.043       7903.5103     -0.33575000       1.5940000      0.12875000       342.67600       5.7932828     0.011964217
       1779.0000       290.77328       99575.345       7980.5809     -0.44750000       1.0615000     -0.24025000       342.89200       3.5735315     0.011147207
       1785.0000       290.87287       99573.768       8020.7891      -1.2065000       1.2532500     0.070000000       342.70600       2.1825592     0.011451469
       1790.0000       290.92550       99582.919       8028.6533     -0.27150000       1.2705000      0.20950000       343.20800       6.5620972     0.014278503
       1795.0000       291.02353       99580.409       8109.7759     -0.77225010       2.3802500      0.51350000       343.02100       4.9327366     0.012915065
       1800.0000       291.12008       99562.322       8203.0417     0.063750010       2.7830000     -0.24825000       342.11500       4.3820010     0.011298801
       1805.0000       291.22969       99563.808       8332.5944     -0.36100000       2.5037500     -0.31675000       342.53000       7.5706441     0.012030881
       1810.0000       291.40909       99578.009       8582.8267      0.80575000       2.7782500     -0.43500000       342.45100       4.1758423     0.010405346
       1815.0000       291.46419       99573.353       8649.5211     0.096000000       1.3617500     -0.39975000       342.81300       5.8869425     0.013317559
       1820.0000       291.48693       99563.180       8668.2988      0.16975000       2.2360000      0.35800000       343.51100       6.4359865     0.017607375
       1825.0000       291.43361       99565.846       8618.9065       1.4052500       1.2192500     -0.24150000       342.82100       4.1515768     0.011036840
       1830.0000       291.26757       99564.593       8432.9905       1.8407500       2.1170000    -0.065250000       342.57900       3.1728699     0.010201153
       1835.0000       291.17845       99563.374       8335.0510      0.46825000       1.2915000      0.61850010       343.41500       4.6846487     0.010233397
       1840.0000       291.05493       99577.211       8221.8944     -0.10850000       1.6290000     -0.26200000       344.11100       4.2553804     0.014064469
       1845.0000       290.98292       99578.804       8146.4675       1.4627500       3.8365000     -0.34600000       341.91600       2.1920257    0.0086726522
       1850.0000       290.94234       99563.910       8079.0594       1.1895000       2.7965000    0.0092500000       342.15800       2.7444498     0.010134803
       1855.0000       290.92976       99562.559       8064.5406      0.42550000       2.1890000     -0.15225000       342.30000       3.9413475    0.0095135235
       1860.0000       290.95153       99571.288       8104.1324      0.59200000       2.7172500     -0.26075000       342.62500       3.2874679     0.010636826
       1865.0000       290.94111       99570.498       8090.9299       1.4635000       2.3972500     -0.85950010       342.62100       2.7963756    0.0085746466
       1870.0000       290.94725       99562.840       8095.1852     -0.20150000       2.6492500     -0.42600000       342.23200       3.6926793     0.010072070
       1876.0000       290.91469       99578.346       8025.7671       1.2250000       1.3702500     -0.13625000       343.22500       3.3441820     0.015994122
       1881.0000       290.93067       99577.848       8017.8026       1.1240000       3.1520000      0.18650000       342.42400       4.3683074     0.010547644
       1886.0000       290.98352       99572.434       8046.9388    -0.021250000       2.0160000     0.011000000       342.72400       7.1506525     0.012873169
       1891.0000       291.09869       99564.301       8137.4157      0.62425010       2.9112500     -0.97500000       342.14800       3.4335293    0.0091650583
       1896.0000       291.16944       99567.512       8171.1088      0.57725000       2.7920000     -0.16425000       342.76400       3.3286750    0.0093297402
       1901.0000       291.26235       99564.298       8221.2013      0.35200000       3.6522500      -1.2602500       341.79500       3.2874936     0.015141526
       1906.0000       291.28551       99569.257       8203.3211    -0.014500000       2.4132500      0.64250000       342.94200       2.9601958     0.015029807
       1911.0000       291.30711       99576.518       8219.8861     0.078750010       3.0690000     -0.58800000       342.52100       3.5996305     0.010030911
       1916.0000       291.28480       99576.792       8264.1545      0.67700000       1.5137500     0.041500000       342.62100       4.6874229     0.011307665
       1921.0000       291.29347       99574.731       8308.7175      0.80600010       2.7442500     -0.29800000       342.38300       3.3564352     0.014036640
       1926.0000       291.34482       99581.335       8419.4546     -0.27625000       2.5700000     -0.14500000       341.94200       3.1296139    0.0098747659
       1931.0000       291.35591       99582.820       8453.9706    -0.065000010       2.3672500      0.15300000       342.02500       4.3644892     0.010018145
       1936.0000       291.35471       99579.362       8450.8256      0.32525000       1.0247500      0.61725000       342.86200       3.5307540    0.0085135307
       1941.0000       291.35066       99562.118       8412.9776      0.82250010       2.1905000     -0.27525000       341.51100       4.1034710     0.011738057
       1946.0000       291.36054       99564.814       8388.4092       1.1947500       1.6327500     -0.52400000       341.71700       3.4744023     0.010244155
       1951.0000       291.35591       99577.775       8312.3190      0.54975000      0.64925000     0.019250000       341.86800       4.8202260    0.0098337310
       1956.0000       291.30919       99563.071       8292.4488    -0.024500000      0.54000000      0.21100000       342.16700       3.7684316     0.010716200
       1961.0000       291.29870       99563.653       8280.1995      0.12450000      0.29150000      0.34525000       342.95600       4.2400259     0.011023150
       1967.0000       291.25303       99566.369       8270.7346      0.26125000     0.098000000      0.33850000       343.67600       9.5831646     0.013105432
       1972.0000       291.23564       99563.643       8252.1039      0.22500000     0.051750000      0.18750000       342.61800       3.9888960    0.0094738083
       1977.0000       291.30454       99571.076       8243.9016     -0.28950000     -0.16950000     -0.17700000       342.90200       6.9858202     0.015338021
       1982.0000       291.31135       99577.766       8228.3477     -0.50675000       2.2450000     -0.26475000       342.28200       3.0322990     0.012108838
       1987.0000       291.27994       99577.712       8190.6995     -0.28575000       1.2090000      0.18750000       343.63500       5.1041438     0.010245508
       1992.0000       291.24849       99574.668       8162.9271      -1.3400000      0.79000000      0.49600000       343.27500       5.4302792     0.010455596
       1997.0000       291.17492       99575.601       8139.9126      -1.3052500       1.1067500      0.22800000       341.82700       7.1748780     0.016746737
       2002.0000       291.13590       99576.349       8123.7222    -0.042500000       1.4710000     0.079750000       342.53500       5.2020625     0.015039323
       2007.0000       291.08147       99566.620       8100.4961     -0.79825000       1.0912500    -0.021250000       342.57100       6.1975888     0.011246387
       2012.0000       291.08572       99563.083       8098.2316     -0.14250000       1.9982500      0.30350000       343.09600       3.9376350     0.010582255
       2017.0000       291.16799       99570.559       8124.4295     -0.39925000       1.2922500      0.39025000       342.22500       4.6386451     0.010353511
       2022.0000       291.20766       99571.269       8136.4399     -0.31250000       1.4712500     -0.22050000       341.56500       4.0246380     0.013087008
       2027.0000       291.26577       99562.560       8139.2415     -0.18275000       1.0647500    -0.050500000       341.57500       6.2052519     0.010902493
       2032.0000       291.31443       99563.971       8165.9380    -0.096500000       1.1092500     -0.26550000       341.72800       7.5207518     0.013272817
       2037.0000       291.36197       99578.554       8227.9736     -0.34850000       1.0077500   -0.0022500000       342.05300       3.4288110    0.0098114657
       2042.0000       291.35954       99577.081       8241.5452    -0.085250010       1.8092500      0.15125000       342.68100       3.3685511     0.010023624
       2047.0000       291.32152       99562.979       8251.9652     -0.50700000      0.43800000      0.21450000       343.72300       4.1649292    0.0095098483
       2052.0000       291.30031       99564.083       8248.0011     -0.52625000       1.1810000     0.034250000       343.33900       4.9127336     0.011310652
       2058.0000       291.22255       99568.250       8186.9494     -0.65025000       1.4665000     -0.19975000       341.92000       7.7850856     0.012732444
       2063.0000       291.17654       99563.290       8137.3390    -0.038000000       2.1022500    -0.062500000       342.32400       5.7720605     0.011916979
       2068.0000       291.12205       99562.505       8068.8805     -0.34300000       1.8467500     -0.17000000       342.14600       6.4592861     0.010979520
       2073.0000       291.14368       99567.516       8039.8905     -0.40600000       1.4847500     0.076500010       342.73600       2.5364435     0.011051409
       2078.0000       291.19420       99568.519       8015.3048     -0.48075000       1.9472500     -0.22725000       341.58100       2.3249484    0.0083307079
       2083.0000       291.26598       99563.545       8000.1705    -0.048750000       2.0557500     -0.10200000       341.80100       3.0503968    0.0085293215
       2088.0000       291.46330       99562.083       8037.7673      0.15375000       1.7090000    0.0022500000       342.06000       5.3527162     0.012663262
       2093.0000       291.55270       99567.048       8036.7651      0.80575000       1.8512500     0.090250010       342.74700       6.5606637     0.012185876
       2098.0000       291.62937       99565.591       8002.8674      0.37125000       1.2160000    -0.027000000       342.78400       4.3826680     0.010113260
       2103.0000       291.62025       99563.358       7989.8663     -0.19400000       1.5315000    -0.071000000       342.32400       3.4672008    0.0087670113
       2108.0000       291.51218       99574.950       7980.7986     0.054000000       1.5375000     0.016250000       342.83000       4.4781984     0.014302062
       2113.0000       291.42552       99578.410       7968.4265      0.65275000       1.7520000     -0.40050000       342.60300       2.9233521    0.0094207674
       2118.0000       291.24109       99566.776       7959.8967      0.96400000       2.2092500    0.0077500000       341.74300       3.2800178    0.0091719898
       2123.0000       291.15243       99562.494       7952.1602      0.11775000       1.9090000    0.0030000000       342.44700       3.5308636     0.010288931
       2128.0000       291.11112       99564.655       7938.3675      0.25475000       1.2622500      0.25175000       342.19200       4.2222906     0.014744974
       2133.0000       291.07835       99565.703       7932.1379      0.68700000       1.8697500     -0.28800000       342.21400       4.3459397     0.010434075
       2138.0000       291.07429       99564.603       7923.3135      0.50400000       1.3312500      0.13625000       342.20300       3.7840500     0.010709203
       2143.0000       291.10145       99564.969       7936.9577    -0.038750000       1.9415000    -0.043500000       343.10000       4.8688531     0.010058422
       2149.0000       291.18388       99571.389       7982.7497      0.22125000      0.85800000      0.21425000       342.57100       3.2300254     0.010645455
       2154.0000       291.22329       99571.133       7995.9168      0.60600000       1.7700000     -0.29025000       341.64400       3.5185377    0.0097759293
       2159.0000       291.33411       99565.086       8044.7009     0.058500000       1.6212500     0.055750000       342.46800       4.8603152     0.011419026
       2164.0000       291.31195       99564.764       8014.3547     0.053000000       1.6692500     -0.28575000       342.04200       5.6610953     0.011257811
       2169.0000       291.19601       99565.762       7909.2432      0.44950000       1.4612500     -0.14450000       341.63800       9.0736907     0.013184808
       2174.0000       291.10319       99564.782       7854.8295      0.29425000       1.5227500     -0.24725000       341.85300       3.5390672     0.011347072
       2179.0000       290.92636       99564.816       7765.4279      0.65275000       1.0180000     0.049000000       342.11100       5.8484310     0.012075559
       2184.0000       290.82844       99565.791       7731.0529      0.47325000       1.5245000     -0.22850000       341.91000       4.4745683     0.010740014
       2189.0000       290.75882       99568.151       7752.7527      0.51775000       2.1055000     0.091250000       342.54800       2.2328430    0.0082793547
       2194.0000       290.71186       99564.008       7747.1556      0.24975000       1.3595000      0.30350000       342.24500       2.4692515    0.0082863599
       2199.0000       290.70091       99554.417       7745.1156       1.1072500       2.1682500     -0.51225000       343.48200       4.3527278     0.010789855
       2204.0000       290.68713       99554.684       7749.2310       1.3395000      0.62750010      0.11200000       342.78900       4.5437826     0.012493547
       2209.0000       290.70080       99554.186       7774.4935       1.0627500      0.18925000    -0.086500000       342.26500       3.2861728     0.012142949
       2214.0000       290.70103       99554.538       7753.1713       1.2727500       1.8220000     0.048750000       341.67400       4.9019917     0.010750921
       2219.0000       290.71157       99562.408       7719.3168       1.1790000      0.30000000      0.23725000       343.54300       4.2420113     0.011118442
       2224.0000       290.69550       99569.487       7677.0709       1.9545000       1.2850000    -0.019500000       341.65300       3.4159118    0.0087228820
       2229.0000       290.65703       99578.550       7575.9676       1.6000000       1.1175000     -0.18475000       341.67300       3.1251041     0.010042382
       2234.0000       290.63691       99575.098       7535.6104       1.2577500      0.87250010      0.20450000       342.53900       5.0526465     0.011956388
       2240.0000       290.59707       99563.801       7522.8198       1.1057500       1.1657500     -0.13400000       341.63400       3.9769728    0.0097453715
       2245.0000       290.58591       99566.566       7512.7193      0.90625010      0.68600000     0.020500000       342.23500       5.6967559     0.011547686
       2250.0000       290.57277       99566.240       7510.3654      0.63325010      0.93400000      0.27475000       342.98200       5.2980423     0.012668584
       2255.0000       290.63017       99561.350       7542.1146       1.6600000      0.86725000    -0.058500000       342.26200       2.2663506     0.012597172
       2260.0000       290.72921       99566.185       7598.6037       1.0895000       1.3420000     -0.18600000       341.97200       2.2268137    0.0085050562
       2265.0000       290.80825       99567.587       7637.0104       1.6110000       1.4060000     -0.21600000       341.61500       4.3085831     0.011390926
       2270.0000       290.94810       99555.366       7700.6955       1.4817500       1.2670000     -0.20000000       341.77800       6.0328524     0.017561886
       2275.0000       291.02079       99550.118       7746.6210      0.64825000      0.98500010    -0.079250000       342.12500       4.9907832     0.012947613
       2280.0000       291.07614       99558.374       7787.2775       1.0090000      0.65925000    -0.071750000       342.17600       2.3610916    0.0079478456
       2285.0000       291.05096       99553.916       7781.4298      0.84200010       1.3435000     -0.28050000       342.71300       2.1463477     0.011696093
       2290.0000       290.94695       99532.048       7748.4986       1.0577500       1.0395000     0.089500000       342.45900       2.1407224    0.0091214212
       2295.0000       290.93544       99532.193       7749.5692      0.16525000      0.17675000      0.25475000       342.96700       2.2023018     0.017208110
       2300.0000       290.89176       99543.767       7718.0920      0.90825000      0.56675000     -0.12150000       342.41500       2.1183165     0.016747879
       2305.0000       290.88015       99548.797       7713.8882       1.6430000      0.93400000     -0.25100000       343.02700       2.0710538     0.010321904
       2310.0000       290.94163       99563.876       7749.9108       1.1850000      0.12750000   -0.0052500000       343.04800       2.1239863     0.012313257
       2315.0000       290.98209       99561.716       7780.2412       1.8725000      0.48125000    -0.028750000       342.14600       2.0860209    0.0098532204
       2320.0000       290.99045       99542.808       7803.8513      0.64125000     0.095250000      0.28575000       342.91800       2.0669503    0.0095087103
       2326.0000       291.05566       99551.388       7839.6098       2.6132500      0.55675000      0.12050000       342.41500       2.1017089    0.0084071884
       2331.0000       291.10660       99550.440       7854.0627       1.9787500      0.25650000     -0.50100000       342.58600       2.0857965    0.0095321051
       2336.0000       291.14531       99549.492       7846.8722       1.7327500     -0.49025000      0.28425000       342.83700       2.1206576     0.011346042
       2341.0000       291.16227       99556.084       7796.3826       1.3240000     -0.20775000      0.15275000       342.36300       2.0586912    0.0081450426
       2346.0000       291.13928       99559.917       7762.2908       1.3255000      0.93275000      0.36575000       343.05900       2.0826594     0.015253915
       2351.0000       291.11689       99555.265       7733.9955       1.1267500    0.0060000000     -0.24775000       342.77900       2.1089514     0.017380565
       2356.0000       290.96832       99552.104       7640.7757      0.52975000    -0.073750000     0.055000000       342.63100       2.1102228    0.0099629148
       2361.0000       290.88495       99555.064       7589.4121       1.9222500       1.4627500     -0.14650000       343.16200       2.0980737     0.014338911
       2366.0000       290.82884       99558.166       7551.4237       2.5585000       1.5017500      0.25675000       342.18300       3.3536834     0.012212000
       2371.0000       290.78680       99555.132       7520.8445       2.0695000       1.0650000     -0.37575000       342.05400       2.0494092    0.0082895298
       2376.0000       290.77029       99552.250       7498.3625       2.3110000       1.2562500     -0.13325000       342.14900       2.0863003     0.018320598
       2381.0000       290.78772       99555.213       7517.3665       2.0050000     -0.15400000     -0.44525000       342.60700       2.0210164    0.0080113692
       2386.0000       290.82978       99558.176       7560.8984       2.1472500       1.0177500      0.23525000       342.93300       2.0845109     0.012361223
       2391.0000       290.89794       99555.086       7624.8243       2.6597500      0.11675000      0.41825000       342.65100       2.0747223     0.014416623
       2396.0000       290.93844       99552.132       7672.6124       3.0107500      0.73225000      0.13200000       342.10600       2.0619958     0.010980016
       2401.0000       291.00596       99556.052       7761.3784       4.7697500       2.7677500     -0.26600000       343.05700       2.0978416     0.011561640
       2406.0000       291.03044       99553.813       7770.5044       4.6892500       2.1600000      0.56875000       342.84500       2.0633354     0.011289845
       2411.0000       291.05069       99549.669       7787.1260       4.0762500       4.1325000     -0.95700000       342.42300       2.1131849     0.017793799
       2417.0000       291.07636       99547.306       7807.1023       2.2282500       4.4762500       1.3660000       342.53900       4.0678599    0.0077156032
       2422.0000       291.10626       99550.436       7825.8407       3.1347500       2.3922500      -1.0495000       342.63400       3.3252286    0.0076691506
       2427.0000       291.10390       99553.662       7844.3935       2.8015000       3.7990000      0.17100000       342.69100       3.3061555     0.012764957
       2432.0000       291.14674       99554.808       7859.9356       1.9725000       2.7420000      0.45275000       342.94400       4.4859584     0.011202641
       2437.0000       291.24397       99563.645       7862.4467      0.91800000       2.3080000     -0.17200000       342.83700       2.7251901     0.016317782
       2442.0000       291.31428       99567.183       7889.9080      0.18450000       2.5425000     -0.23575000       342.24100       3.1737557     0.010533309
       2447.0000       291.38751       99559.694       7924.9172       1.0235000       1.8647500     -0.25900000       342.78400       5.8860803     0.016547774
       2452.0000       291.46787       99558.875       7968.8439      0.30600000       1.2927500     0.036250000       342.65800       4.0414375     0.015181966
       2457.0000       291.61587       99567.982       8121.0003      0.26175000       2.1337500     -0.41300000       342.71200       3.8619225     0.015443866
       2462.0000       291.62881       99566.562       8123.5979     0.066000000       2.7520000     0.086500000       342.78900       5.3297941     0.010766553
       2467.0000       291.57308       99554.897       8025.4632     -0.98300000       3.3095000     -0.45400000       342.23100       5.6475683     0.016655115
       2472.0000       291.50882       99554.166       7947.0852     0.057000000       3.2435000     0.075250010       342.80300       2.9811367    0.0092398759
       2477.0000       291.31726       99559.155       7760.9802      -1.0385000       2.9862500       1.0250000       343.51800       3.6119913    0.0099100217
       2482.0000       291.16859       99555.085       7626.9756      -1.5100000       3.0810000     -0.15925000       342.71700       2.4569673     0.013466969
       2487.0000       291.01877       99548.047       7534.5752     -0.63675000       3.1530000     -0.65200000       342.54100       3.3710135     0.010240220
       2492.0000       290.92065       99550.238       7447.4619      -1.1387500       3.5845000      -1.5477500       342.26900       5.5129899     0.017592728
       2497.0000       290.82915       99553.609       7343.8598       1.1002500       3.8140000      0.16800000       343.16400       2.2197066     0.014283510
       2502.0000       290.77210       99549.651       7278.9193      0.61500000       1.7387500      0.31275000       343.02900       3.2602099    0.0081169661
       2508.0000       290.76105       99547.930       7231.7645       1.9645000       3.2337500     -0.10550000       342.82900       6.4320911     0.011294628
       2513.0000       290.80196       99551.878       7229.6412      0.42350000       3.9602500     -0.22225000       342.16600       3.4589192    0.0084691084
       2518.0000       290.91169       99552.401       7278.5201       1.3485000       3.1340000      0.27475000       342.68800       6.6436548     0.011099407
       2523.0000       290.97177       99548.357       7309.0922      0.49050000       2.6157500    -0.012500000       342.63700       3.9765414     0.010057733
       2528.0000       291.05901       99547.799       7359.7432       1.8682500       1.4300000      0.30650000       342.85700       4.5864661     0.017571566
       2533.0000       291.13607       99551.869       7412.6985       2.0370000       2.0040000     -0.31225000       342.40400       2.7832606     0.010050984
       2538.0000       291.17765       99551.675       7455.4740       2.3157500       3.3255000     -0.59475000       342.65100       3.0929648    0.0081907724
       2543.0000       291.21788       99549.102       7511.7178       3.2832500       3.1852500     -0.63200000       342.40200       3.0771430     0.011077106
       2548.0000       291.29046       99553.051       7587.2464       2.0970000       2.1782500     -0.43450000       342.49600       2.8233534    0.0092667128
       2553.0000       291.32244       99557.645       7664.1529      0.77850000       2.3465000     0.028750000       341.84600       2.6756082    0.0075044983
       2558.0000       291.31298       99554.515       7778.9524       2.1960000       3.2950000     -0.22475000       343.07000       5.3161363     0.010505716
       2563.0000       291.29927       99554.257       7822.2190      0.95800010       1.5045000      0.19575000       342.95100       3.2586349     0.013518712
       2568.0000       291.30350       99565.061       7859.9152      0.77050010       2.3202500       1.0647500       343.06000       3.2839480    0.0090441791
       2573.0000       291.24180       99567.866       7844.1839      0.54650000       2.1557500     -0.15300000       342.95600       3.9777235     0.015621727
       2578.0000       291.09154       99559.510       7723.4505      0.70300000       2.8780000      0.11075000       342.42100       2.6232703    0.0078921379
       2583.0000       291.01477       99559.213       7665.6980       1.8417500       3.1565000     -0.55575000       342.04800       3.6717870    0.0090631329
       2588.0000       290.95338       99567.989       7615.9807       2.3632500       1.9452500     -0.63050000       342.35200       10.907203     0.016398967
       2593.0000       290.86332       99565.942       7563.7726       1.0465000       1.6732500     -0.27425000       342.36200       4.1999630    0.0091451337
       2599.0000       290.78506       99554.257       7516.7704       1.3162500       1.6615000      0.18875000       342.55200       4.1188896     0.010333850
       2604.0000       290.70934       99554.514       7485.7167       2.3885000       2.7440000     -0.39050000       342.13200       2.3556478     0.010957251
       2609.0000       290.58387       99557.642       7446.5029       2.3305000       3.6960000     -0.60625000       342.04300       2.5883938    0.0099015493
       2614.0000       290.48985       99553.074       7423.2554       2.2032500       1.9382500     -0.57775000       342.60500       2.2806844    0.0078209893
       2619.0000       290.40633       99548.873       7412.4845       1.6567500       1.3875000      0.24375000       343.07500       2.2052824     0.010982796
       2624.0000       290.36893       99551.640       7422.0957       2.8635000       1.7075000     -0.12400000       341.67100       2.3806259    0.0072432474
       2629.0000       290.34443       99551.067       7450.3442       1.1725000       1.7102500      0.14925000       342.02600       2.7354912    0.0090775072
       2634.0000       290.33701       99548.727       7467.3433       2.6382500       2.0895000      0.18450000       342.04800       2.9777563     0.014605544
       2639.0000       290.37664       99554.067       7493.0143       1.2562500       3.4210000      0.18125000       342.89200       5.0429553    0.0094745767
       2644.0000       290.42243       99558.418       7532.5322       2.1927500       1.5637500     -0.18225000       341.98600       4.4137864     0.010539861
       2649.0000       290.47260       99554.265       7557.7080       2.3330000       1.8725000      0.19400000       342.45400       2.8279971    0.0097193186
       2654.0000       290.52820       99554.502       7616.0018       1.5282500       2.5167500     0.090000000       343.00900       4.8505579    0.0089891776
       2659.0000       290.63962       99568.432       7722.1727       2.6687500       2.1350000      0.27925000       342.93000       2.8386738    0.0082224951
       2664.0000       290.68711       99567.254       7798.8237      0.43200000       2.7585000     -0.15350000       343.14200       2.4618133     0.015201449
       2669.0000       290.70965       99548.843       7911.3132       1.6552500       2.8880000     -0.21100000       341.89300       2.6763554    0.0085831355
       2674.0000       290.70725       99548.410       7928.4948       1.2822500       2.7182500     -0.37875000       341.85600       2.4438854    0.0097764467
       2679.0000       290.65791       99557.741       7886.7005       1.0217500       2.4520000     -0.29650000       342.34300       3.4297876     0.011648916
       2684.0000       290.63803       99554.552       7855.5873       1.4515000       2.6622500     -0.13000000       342.44200       2.2141992     0.013221421
       2690.0000       290.57906       99548.985       7742.4851       1.3220000       2.3705000      0.40800000       342.62000       2.1167793     0.015645560
       2695.0000       290.60498       99551.756       7696.7793      0.80900000       1.9897500    -0.027250000       343.08700       2.4387849    0.0085881104
       2700.0000       290.68050       99550.968       7677.0115       2.2570000       1.9007500     -0.62900000       342.56200       2.0936480    0.0074567492
       2705.0000       290.73958       99547.052       7658.4644       1.5917500       1.9860000     -0.52325000       342.49200       2.5789024     0.016980972
       2710.0000       290.82581       99549.426       7629.0220      0.86450000       1.3152500   0.00075000000       342.72800       2.1975171    0.0079200571
       2715.0000       290.92557       99553.501       7657.9475       1.4112500       2.4177500     -0.65700000       342.12200       2.1381823    0.0083251483
       2720.0000       291.04441       99548.502       7728.3347       1.7730000       1.5307500      0.11750000       342.72700       2.4824926    0.0093876560
       2725.0000       291.11586       99550.102       7790.5265      0.67400000       2.5032500     -0.13225000       342.35300       2.0984077    0.0092227404
       2730.0000       291.20952       99566.991       7905.1677       1.4105000       2.6582500     -0.24400000       342.08900       2.1387303     0.012467931
       2735.0000       291.24273       99569.455       7947.5844       1.3452500       1.5567500     0.066500000       342.30900       2.0691614    0.0076262303
       2740.0000       291.20873       99559.021       7960.5804      0.94775000       2.1257500      0.13500000       342.20400       2.3471917     0.011550541
       2745.0000       291.19020       99559.752       7969.0943      0.41250000       1.2685000     0.098500010       342.96800       2.4134349     0.011484739
       2750.0000       291.14517       99568.434       7930.9710      0.55225000      0.59150000    -0.093500000       342.89900       2.3522665     0.010343485
       2755.0000       291.14384       99562.815       7944.8896      0.93375000       2.0047500     -0.36925000       341.99400       2.1385693     0.010620143
       2760.0000       291.14319       99548.660       7987.0693      0.72575000       2.0452500     -0.32250000       342.82800       5.8156715     0.011592510
       2765.0000       291.15182       99549.335       7988.7733       1.2250000       1.9977500     -0.46350000       342.05100       3.4474675    0.0093815286
       2770.0000       291.21194       99551.251       7996.0882      0.57825010       1.7152500     -0.23400000       343.04900       4.5008434     0.016237665
       2775.0000       291.20462       99547.274       7984.5490      0.48425000       1.7282500      0.61800000       343.12600       4.0040015     0.016533569
       2781.0000       291.16258       99551.067       7934.6335       1.6482500      0.98075000      0.11175000       343.35600       2.9473050     0.015772467
       2786.0000       291.10072       99552.983       7891.4211      0.24700000      0.52275000      0.45675000       343.54000       2.7383995     0.014998592
       2791.0000       291.00225       99542.210       7850.2314       1.8400000       1.1065000      0.50750010       342.74500       2.5539684     0.016513586
       2796.0000       290.93181       99547.139       7803.6886      0.16325000       1.3805000     -0.16000000       343.24900       3.5027720    0.0088289603
       2801.0000       290.83201       99568.887       7734.5472       1.4845000       2.1460000     0.030750000       342.56200       2.5040030    0.0082488169
       2806.0000       290.86020       99555.197       7696.3267       1.0917500       2.9400000     -0.30200000       342.42700       3.1419505    0.0095773581
       2811.0000       290.85030       99553.869       7663.8224      0.47300000       1.7997500      0.34725000       343.13300       3.9664256     0.017795735
       2816.0000       290.85543       99559.750       7628.9109      0.47000000       2.2605000      0.53525000       343.33000       2.8852256     0.015484298
       2821.0000       290.85662       99555.886       7609.7563      0.22825000       2.4480000      0.14625000       342.84000       4.5983357     0.015830969
       2826.0000       290.83010       99547.629       7613.9092       2.6742500       2.6030000    -0.078000000       341.90900       3.7182699     0.010266717
       2831.0000       290.80047       99549.423       7611.4349       1.6372500       2.4617500   -0.0090000010       342.83100       5.0237906    0.0095432912
       2836.0000       290.77084       99552.426       7611.3740       1.1610000       1.8867500     -0.35700000       342.47500       2.8865887    0.0091757895
       2841.0000       290.75092       99549.414       7619.2027       2.5005000       1.8822500     0.078000000       342.53500       3.1550507    0.0095950477
       2846.0000       290.73067       99547.615       7624.0136      0.93475000       2.9992500     -0.25850000       341.68700       2.5362626    0.0087199317
       2851.0000       290.68840       99558.373       7624.2561       1.3437500       2.6470000    -0.023000000       342.20500       3.4571386    0.0091758258
       2856.0000       290.71556       99535.725       7622.9561      0.75025000       1.6560000     -0.50600000       342.51400       2.5249677    0.0097003333
       2861.0000       290.74425       99530.613       7636.8923       2.0665000       2.5922500     -0.30650000       342.43100       6.3489273     0.011577057
       2866.0000       290.83076       99549.809       7673.8885       2.4087500       2.0935000    -0.080000010       341.85700       3.0236876     0.010119349
       2872.0000       290.86655       99552.159       7693.6730      0.85800000       2.3417500    -0.030500000       342.20300       2.7481348     0.011373109
       2877.0000       290.87220       99553.156       7722.6642       1.1602500       1.2727500    0.0025000000       342.70800       2.0927067     0.011461088
       2882.0000       290.85944       99552.588       7728.2763       1.2272500      0.39275000    -0.048750000       343.00600       2.1485774     0.011871149
       2887.0000       290.76179       99528.805       7683.2452      0.65650000      0.60850000      0.31725000       343.40100       2.3849831     0.014974507
       2892.0000       290.73419       99525.894       7676.2033      0.86775000      0.16725000      0.30250000       343.64700       3.1661700    0.0098853841
       2897.0000       290.74415       99548.450       7685.1694       1.4730000       2.8095000     0.067500000       342.53600       2.8458336    0.0090181223
       2902.0000       290.74539       99553.209       7689.5461      0.86400000       2.7310000     0.062000000       342.15000       2.6056949    0.0092812975
       2907.0000       290.79065       99553.561       7721.9519       1.4122500       1.6712500      0.17275000       342.95600       2.4271738     0.010127991
       2912.0000       290.80912       99557.296       7732.2099       1.9910000       2.2352500     -0.43500000       342.55600       2.5529380    0.0095196290
       2917.0000       290.81443       99554.343       7719.7133       2.9252500       2.0505000     -0.74725000       342.51300       3.1135235    0.0097625447
       2922.0000       290.80338       99549.403       7715.1703       1.7107500      0.22875000      0.73600010       342.63000       2.3832683     0.011804221
       2927.0000       290.72329       99542.515       7680.9088       1.2207500      0.77175000      0.47200000       343.84500       2.4022284    0.0086108706
       2932.0000       290.73740       99544.784       7694.3278       1.3677500      0.14375000    -0.076750000       343.51800       2.1497936     0.016348697
       2937.0000       290.82596       99551.297       7761.8628       1.6470000       1.0405000      0.38600000       342.94200       2.2753421     0.010971651
       2942.0000       290.85588       99550.327       7788.6894       1.5807500       1.7635000      0.42100000       342.87900       2.9018356    0.0095551403
       2947.0000       290.96462       99553.036       7819.9844       1.1757500       1.6207500      0.17975000       343.36200       4.1509806     0.011174836
       2952.0000       290.97946       99556.692       7851.7527       2.4535000       2.6372500     -0.46150000       342.73100       3.1958027    0.0095844500
       2958.0000       290.84172       99549.403       7861.2001       1.1670000       1.1097500     -0.84875010       343.20900       2.7660589     0.014407655
       2963.0000       290.77243       99548.549       7860.6399       1.0030000       2.1472500      0.81000010       343.13900       3.7347881     0.010512411
       2968.0000       290.67214       99563.341       7870.4018       1.2362500       2.3455000     -0.56125000       342.87900       4.3614328     0.014379856
       2973.0000       290.61993       99562.381       7869.7420      0.79975000       2.9442500     -0.89000000       342.99800       2.8829814    0.0096799472
       2978.0000       290.60566       99543.949       7846.2955      0.29050000       1.0975000   -0.0042500000       343.27300       4.2840593    0.0098040430
       2983.0000       290.58953       99543.555       7823.6254       1.8530000       2.0557500     -0.97000000       342.74100       2.7253414    0.0095227681
       2988.0000       290.58737       99552.349       7801.3595       2.8315000       1.0192500     -0.20625000       342.84800       3.5804238     0.010091435
       2993.0000       290.60122       99550.012       7783.7053      0.76375000       1.1867500     -0.11850000       343.12300       3.3173553     0.013969187
       2998.0000       290.62541       99552.008       7743.0418       2.3827500       2.6480000     -0.31650000       342.41600       2.9569964     0.012973596
       3003.0000       290.65901       99551.920       7734.4015       2.0552500       2.1172500      0.34750000       342.18800       3.4439085     0.013650497
       3008.0000       290.72012       99532.304       7750.0127       1.7882500       2.0102500     -0.39950000       342.59500       3.3091626     0.015826093
       3013.0000       290.76982       99531.912       7767.3655       2.0122500       1.1892500      0.41450000       342.83800       4.5530938     0.013890784
       3018.0000       290.80559       99559.004       7789.0151       1.2487500       1.9120000     -0.19100000       343.65000       5.7747058     0.013655348
       3023.0000       290.86971       99558.315       7833.6292       2.1582500       1.4355000     -0.61300000       343.34100       4.0194713     0.010584305
       3028.0000       291.02135       99539.575       7915.5467       2.4105000       1.7545000     -0.30300000       343.01300       3.2400786     0.013997214
       3033.0000       291.02250       99539.419       7961.0573       1.7960000       1.5005000    -0.094000000       342.94500       2.8444810    0.0089454496
       3038.0000       290.93526       99535.029       8011.0917       1.8807500      0.91425000     -0.29425000       342.89800       3.4995517     0.013813849
       3043.0000       290.88758       99532.479       8044.6817       1.3427500      0.27950000    -0.072750000       343.36300       2.3570524    0.0081794553
       3049.0000       290.69168       99552.562       8043.1492       2.5565000      0.32800000      0.12025000       342.50200       5.1019340     0.011180064
       3054.0000       290.65328       99553.777       8049.5287       1.9982500       1.8922500     -0.53025000       342.23400       3.9100835     0.015049628
       3059.0000       290.72988       99532.624       8061.7488       2.0682500       1.0095000      0.14225000       343.12200       3.4534975     0.015428954
       3064.0000       290.76659       99532.760       8066.9528       2.6137500       1.6900000     -0.38675000       342.66400       7.4926363     0.018491681
       3069.0000       290.85165       99546.384       8074.5853       1.4455000       2.3522500     -0.35400000       342.13100       3.7034826     0.010445984
       3074.0000       290.86908       99546.092       8053.0584       2.0742500       1.1167500      0.52100000       342.55400       3.7797806     0.015069014
       3079.0000       290.85640       99546.237       8012.6720       2.0590000       1.8215000     -0.52225000       342.21900       2.6641309    0.0088309809
       3084.0000       290.85014       99546.024       7980.4913       1.7942500       1.6572500     -0.27175000       341.90300       4.0728144     0.015901348
       3089.0000       290.77832       99531.349       7910.0660       1.5332500       1.2312500     0.013500000       342.29400       4.1195668     0.011502146
       3094.0000       290.79716       99534.091       7893.3049       1.4865000      0.75200000      0.32275000       342.65200       4.6801058     0.014853569
       3099.0000       290.86084       99559.679       7889.4355       1.2765000       1.2207500      0.39175000       342.83900       3.0937740     0.012582750
       3104.0000       290.93239       99557.441       7931.5674       2.2855000       1.4865000    -0.044750000       343.01000       3.2952029     0.010795612
       3109.0000       291.08041       99539.425       8043.3655       1.4990000       1.9920000     -0.22250000       342.38400       3.4087752     0.010436029
       3114.0000       291.14789       99539.598       8097.5469      0.90275000       1.6145000     0.088500000       342.12700       5.8503668     0.012448259
       3119.0000       291.19724       99531.784       8158.0514       1.4915000       1.7607500     -0.67775010       342.60200       2.4141624    0.0087509287
       3124.0000       291.22500       99533.389       8217.6650      0.84950010       1.4640000      0.21200000       343.06300       2.6222707    0.0082640992
       3129.0000       291.20001       99563.379       8256.3515      0.56800000       3.4247500     -0.16375000       342.74500       4.9278996     0.013972926
       3134.0000       291.20001       99565.552       8279.9172      0.62300000       3.0612500     0.086500000       342.83500       5.3887366     0.015528519
       3140.0000       291.20952       99543.639       8334.4776      0.35850000       2.2100000     -0.10775000       342.52700       3.4984078     0.012442610
       3145.0000       291.19105       99543.190       8319.3261     -0.29100000       2.5415000      0.13900000       342.61500       4.5404785     0.014818995
       3150.0000       291.14554       99544.853       8235.0288    -0.093000000       2.3837500     -0.12525000       343.05800       4.3619900     0.012295918
       3155.0000       291.14437       99543.816       8194.6894      0.38975000       1.4525000       1.0592500       343.66900       2.8770554    0.0094933522
       3160.0000       291.14352       99552.684       8153.3080      0.63175000       2.0900000      0.39325000       343.06700       3.5385404     0.015451210
       3165.0000       291.15230       99550.161       8101.8175      0.18400000       2.4552500      0.35850000       343.00800       3.8822505     0.015188815
       3170.0000       291.20351       99532.033       8046.8719      0.19725000       1.6627500      0.26975000       343.23200       2.9750286    0.0092121417
       3175.0000       291.21482       99533.290       8006.9900     0.034000000       2.2440000      0.39925000       343.54100       5.3071902     0.014885483
       3180.0000       291.20018       99546.428       7954.5817       1.2470000       3.3360000     -0.53475000       342.64800       3.1325091    0.0096629328
       3185.0000       291.20011       99545.645       7930.0643       1.9960000       2.8042500      0.13075000       342.39100       4.0241268     0.014776699
       3190.0000       291.20028       99546.636       7935.7474      0.93100010       4.5892500     -0.61650000       342.43600       2.6363499     0.014022310
       3195.0000       291.20039       99545.964       7929.2840       1.6760000       2.6072500   -0.0097500000       342.39500       2.5049326    0.0097821289
       3200.0000       291.19975       99532.021       7929.2019     -0.16225000       1.2722500      0.80950000       343.32400       2.9409947    0.0095914721
       3205.0000       291.19963       99534.484       7918.5835    -0.063500000       2.2310000     -0.35175000       342.00600       5.2298029     0.017370788
       3210.0000       291.19107       99552.418       7894.8912       1.3025000       2.4982500     -0.24550000       342.08000       2.1417469    0.0080001100
       3215.0000       291.20981       99551.950       7907.7813       1.0742500       2.4287500     -0.41350000       342.27800       4.3682184     0.016933411
       3220.0000       291.23800       99544.054       7924.3169       1.0227500       2.1050000     -0.30825000       342.61000       2.6043955    0.0099738756
       3225.0000       291.27678       99545.867       7963.3968       1.3292500       1.4457500      0.48200000       343.54900       3.4208916     0.012833278
       3231.0000       291.36226       99543.477       8060.2908       1.1517500       1.6202500     -0.57450000       341.96100       2.8490576    0.0087597411
       3236.0000       291.36965       99546.797       8095.5866      0.55800000       2.6252500    -0.066750000       343.22300       3.7937577     0.014725228
       3241.0000       291.35661       99565.571       8118.9678       1.1302500       1.6027500     -0.58775000       343.09400       3.3194943     0.012612892
       3246.0000       291.34463       99557.411       8145.7194       2.3542500       3.1087500      0.23575000       342.35800       3.0370733     0.011988017
       3251.0000       291.29971       99533.564       8161.9813       2.7635000       3.2820000      -1.0010000       342.35300       2.7853805     0.012652322
       3256.0000       291.25507       99524.074       8159.9363      0.85475000       2.5990000      0.20675000       342.95600       3.3574203     0.011082845
       3261.0000       291.24371       99521.174       8158.1822       1.8990000       3.0180000     -0.66225000       341.92100       3.4112148     0.010630529
       3266.0000       291.24467       99549.294       8131.0990       1.7967500       2.5110000     -0.40925000       342.33300       6.1816158     0.017103252
       3271.0000       291.24352       99555.022       8107.3694       1.6477500       2.5785000     -0.70875000       342.51000       2.1858422     0.010871898
       3276.0000       291.26993       99534.902       8081.9189       1.3180000       3.3367500     -0.29800000       341.97300       3.5598081     0.013601777
       3281.0000       291.29967       99533.554       8069.2823       1.9822500       1.7165000      0.65675000       342.28500       4.0033060     0.012091000
       3286.0000       291.32942       99535.886       8061.5088      0.75250010       2.0410000     -0.25000000       342.40000       2.1859834    0.0090420716
       3291.0000       291.34247       99533.217       8044.4320      0.39300000       3.1175000     -0.38000000       342.87900       2.7256605     0.013170521
       3296.0000       291.38417       99534.786       8064.8876     -0.10000000       3.4162500     -0.40700000       341.78800       3.1216266    0.0098704961
       3301.0000       291.45600       99555.094       8114.1759      0.56450000       2.6437500    -0.038250000       342.08600       2.3576966     0.010172056
       3306.0000       291.54411       99526.774       8174.8216      0.50375000       2.4247500     -0.41550000       342.05600       2.4267476     0.013244195
       3311.0000       291.53145       99520.664       8197.9083      0.87350000       1.4122500      0.22625000       343.06100       4.4074384     0.012624291
       3316.0000       291.37974       99534.313       8177.1652     -0.74350010       2.0410000     0.088250000       343.21200       3.6062821     0.013365981
       3322.0000       291.28474       99535.548       8168.4800      0.44225000       2.5542500     -0.35050000       342.13500       2.5805184     0.012068219
       3327.0000       291.16765       99548.387       8164.8477      0.86550000       2.5002500     -0.20525000       342.11700       3.0993523     0.011417245
       3332.0000       291.07038       99549.358       8125.9535      0.83600000       2.3935000      0.29675000       342.10800       4.4585498     0.013323182
       3337.0000       291.01788       99519.567       8065.7392      0.23550000       3.0535000      0.13550000       342.24000       3.2396115     0.014586497
       3342.0000       290.98921       99515.671       8018.5529       1.2130000       2.3295000     -0.34125000       342.12900       3.0113992     0.012134360
       3347.0000       290.95355       99533.774       7936.8884       1.9292500       2.3522500      0.29675000       342.47300       3.9183931     0.012188938
       3352.0000       290.93585       99536.749       7875.4855      0.35550000       1.3020000     0.023750000       342.73100       4.2743040     0.013625255
       3357.0000       290.99039       99548.052       7835.7444      0.60850000       1.7385000     -0.33550000       342.80100       4.2448111     0.013787607
       3362.0000       291.00860       99549.040       7804.7375      0.99325010       1.3470000      0.46775000       343.22500       4.1597940     0.013800728
       3367.0000       290.98556       99519.167       7764.5704      0.96275000       1.5395000     -0.38575000       342.99900       3.4925414     0.013283490
       3372.0000       290.99660       99515.079       7753.1751       2.1010000       1.5330000    -0.077500000       341.71800       4.0086389     0.011453480
       3377.0000       291.00369       99531.889       7766.0361       1.4885000       1.6905000     0.041250000       341.69700       4.6548298     0.012509797
       3382.0000       291.04632       99535.981       7795.6699       1.5552500      0.90725000    -0.052500000       342.16700       3.3165756     0.011323707
       3387.0000       291.15756       99552.616       7867.0581      0.53000000       1.3120000    -0.080250000       342.39600       3.9942707     0.014205112
       3392.0000       291.21669       99554.712       7913.7137    -0.020750000       1.4855000     -0.30175000       342.57300       3.5510134     0.013858332
       3397.0000       291.28079       99524.840       7977.7832      0.39475000      0.75100000      0.15425000       342.66900       5.7641659     0.015280841
       3402.0000       291.31889       99520.511       8014.1168     0.083500010       1.0055000    -0.081250000       342.54800       3.8148956     0.010810513
       3407.0000       291.31446       99534.520       8024.9463       1.5935000       1.4145000     -0.24850000       342.56100       4.1815259     0.013542205
       3413.0000       291.29976       99535.752       8023.0532      0.92750010       1.0952500      0.25100000       342.81500       3.3020055     0.012553207
       3418.0000       291.27603       99549.294       8000.2266      0.53050010       1.1775000     -0.13400000       343.02200       2.7385281     0.011288218
       3423.0000       291.24191       99548.482       7975.8076       1.0032500       1.0070000     -0.22775000       343.40600       3.1734016     0.011690926
       3428.0000       291.15487       99517.985       7915.9333      0.63500010       1.7892500     -0.32950000       342.06600       3.6546274     0.012964223
       3433.0000       291.13269       99516.097       7900.2319      0.67125000       1.9260000     -0.31200000       342.29600       3.3799973     0.012071958
       3438.0000       291.14370       99534.480       7914.8006      0.47850000       1.6035000     -0.25375000       342.33300       3.8223253     0.012819935
       3443.0000       291.14754       99537.177       7908.6651       1.3660000       1.2902500    -0.064750000       342.41600       3.9067055     0.014506805
       3448.0000       291.19560       99548.937       7923.7282     0.051500000       2.5850000    -0.099250000       343.05500       4.2326039     0.012144152
       3453.0000       291.21160       99548.206       7916.8133       1.7980000       2.7002500     -0.10625000       342.96200       2.9088900     0.013677418
       3458.0000       291.20001       99517.564       7869.2628       2.0412500       2.2270000     -0.19850000       342.61400       3.8407988     0.014087760
       3463.0000       291.19997       99515.440       7853.6098       1.6060000       3.0417500     -0.20150000       341.72800       6.6732843     0.014430620
       3468.0000       291.21332       99533.887       7855.0052       2.2885000       2.5642500     -0.60625000       342.34100       4.8114026     0.013424519
       3473.0000       291.19948       99536.554       7848.2288       1.2672500       1.5337500     -0.35500000       342.39800       3.8578614     0.014243378
       3478.0000       291.18827       99542.304       7865.4261      0.42850000       2.6692500      0.10250000       342.29400       3.0033100     0.013260477
       3483.0000       291.14092       99548.664       7846.1234      0.30325000       3.0157500     -0.43500000       342.08000       5.1723259     0.010944052
       3488.0000       291.00174       99545.837       7772.3001      0.16450000       3.4455000     0.027250000       342.50100       2.7018095     0.012705010
       3493.0000       290.97205       99544.165       7759.8639      0.91825000       3.2755000      0.54425000       342.43300       3.9724307     0.013202137
       3499.0000       290.98572       99549.523       7761.6118     -0.11475000       2.2310000      0.42475000       343.01200       3.3609278     0.012105522
       3504.0000       290.99822       99552.891       7772.1571      0.23300000       3.7422500      0.17400000       342.53700       4.8596514     0.011522032
       3509.0000       291.08767       99554.696       7832.0099      0.67225000       2.8260000     -0.30250000       342.33700       3.0219255     0.016241452
       3514.0000       291.13159       99547.840       7864.9606       1.2972500       3.2852500    -0.012250000       342.55100       3.9352038     0.013448518
       3519.0000       291.13155       99535.880       7876.6099      0.94800010       1.9092500      0.25400000       342.73500       3.3381533     0.011317215
       3524.0000       291.16825       99533.610       7905.7610      0.78075000       3.1400000      0.21475000       342.15100       3.7628501     0.014323739
       3529.0000       291.24235       99521.226       7947.6872      0.69175000       2.8460000     -0.44900000       341.82500       3.4798467     0.014114430
       3534.0000       291.27636       99523.595       7985.5884      0.76775000       2.1445000     -0.29000000       341.69500       3.5070895     0.010401404
       3539.0000       291.27765       99554.199       8013.1250      0.25925000       2.2127500     -0.23150000       341.95400       3.6697943     0.013348345
       3544.0000       291.32384       99554.158       8066.7468      0.95700000       1.8622500     -0.16875000       342.43300       2.3919687    0.0079775738
       3549.0000       291.39514       99535.946       8154.9680      0.39800000       1.4990000     0.043000000       343.03500       2.4218338    0.0098536545
       3554.0000       291.41876       99533.635       8195.3420     -0.15675000       1.8907500      0.29325000       343.04800       4.9762602     0.010747918
       3559.0000       291.44629       99520.740       8249.1652      0.77000000       2.3752500     -0.45475000       342.37200       4.0122702     0.015559725
       3564.0000       291.47013       99523.250       8249.8625      0.53675000       2.8817500     -0.11650000       342.21000       3.1645032     0.015133359
       3569.0000       291.47606       99553.822       8201.2757      0.60150000       3.2505000     -0.35775000       341.90600       6.2889744     0.017907485
       3574.0000       291.43316       99553.852       8141.4071    -0.013500000       2.5870000      0.29450000       342.51600       3.9120954     0.014309019
       3579.0000       291.38292       99536.639       8034.1355      0.45350000       3.3275000     -0.46425000       341.67400       3.5064293     0.011501436
       3584.0000       291.32068       99532.625       7969.2261     -0.19300000       2.2372500      0.46150000       342.24900       3.6795948     0.014456835
       3590.0000       291.16314       99515.327       7895.2523     -0.20950000       1.8422500      0.10750000       342.75500       3.3955005     0.011772383
       3595.0000       291.07263       99519.304       7823.2425      0.20425000       2.6842500    -0.099500010       342.62700       3.0049561     0.014047066
       3600.0000       291.00720       99547.566       7770.0885      0.66825000       2.4585000     -0.41075000       342.23300       3.7783139     0.013543717
       3605.0000       290.95603       99550.211       7703.8842      0.73400000       2.9750000     -0.13700000       342.46000       2.6009082     0.013174619
       3610.0000       290.90343       99549.208       7598.3282      0.79475000       2.7760000     -0.22250000       341.88100       3.0988850     0.012001742
       3615.0000       290.86199       99542.899       7554.2385    -0.096750010       2.4017500     -0.65525000       342.34700       2.2488303     0.012770109
       3620.0000       290.84408       99517.003       7538.7340      0.66425000       1.5642500     -0.39725000       342.45600       5.0465680     0.015973983
       3625.0000       290.84269       99515.133       7534.7862      0.52000000       2.3090000      0.11950000       342.48200       3.5637796     0.015004886
       3630.0000       290.84330       99523.578       7571.9547      0.43725000       1.4355000      0.10500000       342.92600       3.7545427     0.012095169
       3635.0000       290.85207       99527.324       7565.0442       1.3877500       1.1545000      0.28750000       343.40200       4.0243011     0.013047076
       3640.0000       290.88492       99543.844       7528.7423       1.2152500       1.1095000      0.40525000       343.00100       4.1290143     0.011562435
       3645.0000       290.93320       99541.672       7566.2294      0.81400000      0.68825000      0.44875000       342.78600       4.7287780     0.014206160
       3650.0000       290.99060       99524.875       7607.8712      0.60025000       1.2232500    -0.093750010       341.95600       3.2966774     0.012317382
       3655.0000       291.03115       99522.617       7683.7711       1.0347500       1.2560000    -0.086500000       341.91200       3.5233196     0.012020157
       3660.0000       291.10510       99516.129       7859.7663      0.72025000       1.1527500     -0.17150000       341.71600       2.9425155     0.013191876
       3665.0000       291.12797       99522.411       7915.7303      0.67075000       1.2835000     -0.40450000       341.89800       6.1024618     0.015625620
       3670.0000       291.09993       99547.570       7930.9833      0.59750000       1.3865000     -0.12250000       342.09000       2.1879879     0.011928287
       3675.0000       291.09999       99550.236       7925.9776      0.48000000      0.87350000     -0.17275000       342.17800       2.4549379     0.012714653
       3681.0000       291.09975       99549.017       7849.4365      0.17275000       1.0905000      0.20925000       342.54200       2.5692364     0.013835989
       3686.0000       291.09963       99539.385       7834.2292      0.59975000      0.96775010      0.19250000       343.07900       4.7828425     0.016869819
       3691.0000       291.09386       99510.948       7820.6634      0.44950000      0.48325000     -0.13425000       341.75900       7.7058314     0.014850267
       3696.0000       291.11552       99510.941       7814.8840    -0.070750010      0.78050010     0.023750000       342.46300       4.5314476     0.012291446
       3701.0000       291.15569       99518.451       7829.7577       1.2090000      0.30050000      0.56850000       343.54500       2.9257000     0.011192268
       3706.0000       291.12480       99538.804       7776.7888      0.77125000       1.4917500     -0.15050000       342.41400       6.4549941     0.016264351
       3711.0000       291.14326       99544.839       7796.7416      0.87550000      0.68750010     -0.10200000       343.01200       2.7402685     0.013527214
       3716.0000       291.17508       99528.221       7917.6519      0.89925000      0.60350000    -0.062750000       342.15600       2.7151198     0.010577164
       3721.0000       291.19370       99524.015       7964.5875      0.56525000      0.76075010     -0.17200000       342.28700       2.6312947     0.013197330
       3726.0000       291.27009       99519.252       8051.4401      0.50400000       1.1435000      0.23275000       343.11800       5.2896619     0.011878692
       3731.0000       291.31239       99517.731       8079.6709      0.24575000       1.5047500     -0.20950000       342.30800       3.5649746     0.012158557
       3736.0000       291.33005       99521.140       8052.9874      0.48800000       1.4787500     -0.26425000       342.28000       2.4215133     0.011133414
       3741.0000       291.29946       99537.083       7914.4411      0.26000000       1.0412500    -0.010000000       342.39900       3.0305066     0.012927128
       3746.0000       291.29934       99538.701       7884.0637      0.83275000       1.4067500     -0.10575000       341.91800       2.6725942     0.010644247
       3751.0000       291.30645       99537.835       7848.7288      0.83300010       1.3472500     -0.27425000       342.00500       2.4507066     0.013135501
       3756.0000       291.29894       99518.200       7963.2798      0.49025000      0.87750010    -0.043250000       342.10800       7.1275887     0.014724104
       3761.0000       291.26160       99512.552       8005.6710      0.59200000       1.3935000     -0.18750000       342.26300       3.4940269     0.013155622
       3766.0000       291.15447       99512.329       8029.6148      0.41025000       1.7110000     0.088250000       342.34300       4.3854952     0.014536478
       3772.0000       291.08303       99513.561       8058.0831      0.50475000       1.5217500     -0.18025000       342.40000       3.2922687     0.013851005
       3777.0000       290.98974       99535.027       7992.2352       1.4930000      0.79400000      0.34400000       342.59300       2.2678481     0.012870760
       3782.0000       290.97528       99539.117       8000.0453       1.5535000       1.7302500    -0.040750000       341.92100       2.0677826     0.013036153
       3787.0000       291.06826       99528.957       8092.9073       1.2097500       1.2035000      0.24275000       342.30600       2.2078028     0.014476214
       3792.0000       291.10842       99524.800       8129.6586      0.85500000      0.88925000      0.33275000       342.57500       2.1367335    0.0094823807
       3797.0000       291.15257       99508.851       8154.4428      0.97700010      0.33375000      0.22425000       342.75100       2.3247336     0.012121022
       3802.0000       291.21257       99506.512       8191.5599      0.94700000       1.2380000    -0.032500000       342.37400       3.1249080     0.013613196
       3807.0000       291.25455       99520.666       8213.9841       1.0732500      0.56675000    -0.031000000       341.96700       3.0909126     0.015370319
       3812.0000       291.30545       99526.634       8224.3648     0.074250010      0.86700000      0.71450000       342.95900       5.9891235     0.015444665
       3817.0000       291.38591       99541.708       8240.3489      0.58100000      0.93650010     -0.37700000       342.50200       3.5799435     0.013174145
       3822.0000       291.46531       99544.019       8261.9727       1.2420000       1.3540000    -0.040750000       342.21800       2.2551710     0.013881186
       3827.0000       291.55644       99527.540       8242.8777       1.0790000      0.97650000    -0.029500000       341.87300       2.1861817     0.013474111
       3832.0000       291.61496       99523.850       8263.8516    -0.025500000      0.59550010      0.11775000       342.87900       2.0701481    0.0088579204
       3837.0000       291.67918       99515.948       8357.7732      0.45550000       1.1665000     0.085750010       342.67200       2.2039589     0.012674826
       3842.0000       291.71694       99517.689       8392.3160      0.94450000       2.1640000     -0.19200000       342.72900       2.0631040     0.011282475
       3847.0000       291.72831       99542.856       8427.5250      0.95100000       1.7875000      0.17500000       342.84000       3.8430528     0.012380041
       3852.0000       291.70628       99549.352       8422.1489       1.4340000       1.0015000      0.47675000       342.43200       3.1308261     0.014368010
       3857.0000       291.66062       99551.309       8355.3292       1.3232500       2.2470000     -0.16075000       342.14500       6.8451595     0.016085093
       3863.0000       291.58338       99545.827       8281.5756       1.5782500       2.7025000     -0.71625010       342.03700       4.7494815     0.014005736
       3868.0000       291.44875       99516.631       8195.8790       1.4145000       2.4897500      0.30200000       342.50200       3.0214225     0.012565502
       3873.0000       291.36241       99510.017       8117.1103     -0.11175000       1.3785000      0.34125000       343.24900       2.8025474     0.012446762
       3878.0000       291.25967       99511.871       8018.9957    -0.037500000       1.4612500      0.12650000       343.32900       4.0856595     0.014989119
       3883.0000       291.22084       99514.325       7952.7528     -0.43425000       1.7472500     -0.75500010       342.53200       4.4255421     0.012614730
       3888.0000       291.25634       99534.161       7896.7389      0.22075000       2.0865000    -0.040250000       342.68100       4.2255546     0.013657071
       3893.0000       291.24634       99539.742       7852.5818      0.57300000       1.9997500    -0.016750000       342.91100       5.3667380     0.014350700
       3898.0000       291.28247       99538.555       7839.0194      0.31575000       3.1260000   -0.0012500000       342.55000       4.3815207     0.012872185
       3903.0000       291.25105       99535.427       7812.5394      0.86250000       1.8345000     0.056500000       343.02300       6.0942398     0.010404791
       3908.0000       291.14218       99519.317       7790.3424      0.59725000       1.5410000    -0.011750000       343.25800       2.4220736     0.010354331
       3913.0000       291.07253       99517.772       7761.6060      0.92250000       1.2605000      0.39625000       343.57100       5.3868216     0.014693312
       3918.0000       290.98650       99519.594       7718.6761      0.62425010       1.9472500      0.32325000       343.30900       4.2102197     0.012793666
       3923.0000       290.92016       99525.081       7696.9918     0.060750000       1.8742500     -0.46175000       341.78000       2.8211201     0.012601496
       3928.0000       290.85483       99550.070       7674.0822      0.77200000       2.0060000     -0.15625000       342.20900       2.7606310     0.012681144
       3933.0000       290.83224       99554.886       7671.7207      0.52375000       1.9787500      0.15125000       342.67600       3.0092034     0.010959828
       3938.0000       290.84395       99550.267       7700.4407     0.088750000       1.4765000    -0.031750000       342.54100       2.7600565     0.013338083
       3943.0000       290.84780       99544.817       7715.7852       1.0605000       1.4010000      0.25050000       342.82100       9.1102970     0.013462586
       3948.0000       290.85598       99521.553       7719.4445       1.0945000       3.4827500     -0.34425000       342.57400       5.0369954     0.012443914
       3954.0000       290.92732       99514.957       7763.6739    -0.044000000       3.8875000    -0.085000000       342.56400       4.3853989     0.012968202
       3959.0000       291.02391       99515.166       7809.8375      0.14950000       2.7362500      0.60675000       342.46200       2.3709406     0.012812684
       3964.0000       291.08428       99521.416       7870.6177      0.81450000       2.5937500     -0.46025000       342.33800       3.4142278     0.013151281
       3969.0000       291.16422       99544.962       7959.5954       1.2750000       2.8670000     -0.41025000       342.32100       3.6225514     0.010810447
       3974.0000       291.25513       99550.522       8051.7906      0.27975000       1.9690000     -0.16550000       342.65700       3.2208470     0.013225751
       3979.0000       291.34008       99556.108       8182.2484     0.046750000       1.8495000      0.49750000       343.24100       4.8731509     0.012317681
       3984.0000       291.38410       99549.758       8240.0700     -0.85700010       2.3680000     -0.63650000       342.85900       4.1702286     0.012348093
       3989.0000       291.47829       99520.031       8299.8103    -0.097000000       2.1072500     0.070000000       342.98200       2.9916127     0.010727028
       3994.0000       291.46649       99514.190       8294.5294      0.34625000       1.8155000      0.94300000       342.80300       4.1383599     0.013329644
       3999.0000       291.33983       99511.979       8200.9559      0.87875000       2.2447500     -0.19925000       342.64900       2.8760556     0.013147669
       4004.0000       291.25437       99513.980       8134.9811      0.29950000       3.4487500     0.063500000       342.75100       2.5521858     0.010410702
       4009.0000       291.10792       99534.164       8034.4948      0.81725000       1.1097500    -0.096250010       342.58700       2.5277946    0.0085855370
       4014.0000       291.05676       99540.229       7972.4144       1.2005000       1.2052500      0.17475000       342.43200       3.4272711     0.011816418
       4019.0000       291.04455       99543.607       7911.1325      0.61125000       1.3752500      0.61250000       342.76100       2.5038229    0.0094037244
       4024.0000       291.03676       99540.155       7874.3752      0.38175000       1.5767500     0.027000000       342.73400       3.0950369     0.013392998
       4029.0000       291.11104       99527.580       7873.3461     -0.15100000       1.5702500      0.24650000       343.37600       4.2221165     0.011661974
       4034.0000       291.10896       99521.557       7853.9095      0.16525000       2.4087500      0.26000000       342.98600       4.7247777     0.013762976
       4039.0000       291.05811       99507.059       7829.0781     -0.24225000       2.8762500      0.37375000       342.86500       4.0388096     0.013973586
       4045.0000       291.03450       99508.835       7827.1497     0.032750000       2.8700000      0.53150000       343.15200       3.3384934     0.012645557
       4050.0000       290.99720       99523.694       7830.7995     -0.96250000       3.0320000      0.29150000       342.27500       3.2424329     0.012985757
       4055.0000       290.98622       99529.674       7841.4692     -0.13275000       3.2427500      0.11375000       341.97000       3.3874130     0.011978540
       4060.0000       290.99980       99543.943       7874.4319      0.37200000       2.1007500      0.14250000       342.43400       3.3176978     0.011838277
       4065.0000       290.99968       99541.769       7893.7312     -0.11600000       2.4422500    -0.085750010       342.54400       3.7036216     0.011460917
       4070.0000       291.00027       99526.311       7909.5110     -0.38600000       2.0975000      0.75425000       342.37600       2.8610884     0.011660900
       4075.0000       291.00045       99520.352       7920.7906      0.29450000       2.3040000     -0.49025000       342.81600       3.7634657     0.012215628
       4080.0000       290.99978       99506.531       7935.4878      0.25700000       1.7000000     -0.13275000       342.88600       3.8053758     0.012660390
       4085.0000       290.99960       99508.749       7935.9467      0.70825000       1.5617500     0.071000000       343.21100       4.0658533     0.012905468
       4090.0000       290.99071       99527.693       7905.1190      0.74125000       2.3032500     -0.35075000       342.03300       4.9223169     0.013559505
       4095.0000       291.00913       99526.231       7933.4887       2.3075000       1.2460000      0.58100000       342.18000       3.3907884     0.014959768
       4100.0000       291.03532       99519.407       7984.2291      0.32850000       1.3217500      0.23875000       343.18300       3.9382574     0.011335878
       4105.0000       291.07430       99522.281       8026.8405     -0.46575000       2.5307500     -0.13250000       343.22700       2.3017096     0.011836976
       4110.0000       291.15802       99521.245       8114.3102     0.098000000      0.70075010      0.25750000       343.07200       2.5934583     0.016519000
       4115.0000       291.17099       99517.216       8147.7199     -0.54550000       2.6545000     -0.76475010       342.52000       5.2800304     0.014076399
       4120.0000       291.16527       99521.859       8155.5367      0.63150000       2.7397500      0.32700000       342.59200       2.6575110     0.012700253
       4125.0000       291.13796       99520.262       8142.4464     -0.53000000       3.1007500      0.33225000       342.20100       2.2459471     0.012518426
       4131.0000       291.05021       99500.859       8102.2234      0.24575000       1.8650000     -0.25500000       342.91500       6.5150999     0.011714923
       4136.0000       291.00068       99505.652       8056.2598      0.89575000       1.7087500    -0.085750010       342.95800       2.0720044     0.010782753
       4141.0000       290.93782       99525.750       7973.0314      0.22700000       1.2710000      0.81325010       342.70200       3.8538420     0.014666734
       4146.0000       290.93049       99532.683       7937.3569      0.15500000       2.2025000     -0.11625000       342.87200       3.7059286     0.013442977
       4151.0000       290.95067       99543.942       7917.3367      0.15850000       2.4095000     -0.17875000       342.53400       4.2476639     0.014957954
       4156.0000       290.93939       99532.456       7862.6087       1.7942500       2.5372500     -0.22150000       342.27900       3.0957461     0.012616370
       4161.0000       290.94908       99525.456       7829.9391       1.1327500       3.0172500      0.23900000       342.33000       4.0975456     0.012372029
       4166.0000       290.95999       99507.280       7786.7504       1.1472500       2.4515000    -0.075500000       342.04100       2.4934629     0.013645480
       4171.0000       290.95018       99501.751       7754.1428      0.42950000       2.9095000     -0.35500000       342.43800       7.8841796     0.013719568
       4176.0000       290.95521       99509.165       7746.3137      0.82825010       3.3270000     -0.26650000       341.94200       3.2677759     0.010582324
       4181.0000       290.95670       99513.809       7747.4010      0.16850000       3.2570000     -0.20650000       341.93600       3.5967703     0.011073874
       4186.0000       290.94589       99520.912       7755.0414      0.68825000       2.5245000     -0.34475000       342.22800       3.6309292     0.011916405
       4191.0000       290.90073       99537.507       7764.0042      0.78600000       2.0172500    -0.050000000       342.76900       3.4640420     0.012028139
       4196.0000       290.87072       99539.916       7772.2761       1.0122500       2.4840000     -0.13400000       342.41400       2.7205749     0.010309703
       4201.0000       290.85016       99537.575       7795.1833       1.4580000       1.1600000     -0.49025000       342.32400       4.8963121     0.012533704
       4206.0000       290.80007       99522.620       7792.9765      0.84750000       2.1257500     -0.64700000       342.99200       2.9317267     0.012028864
       4211.0000       290.78706       99514.378       7798.4880       1.6170000       2.2390000      0.21700000       342.50700       2.1429017     0.012088521
       4216.0000       290.81530       99500.375       7813.5837       2.4950000       2.4805000     -0.56250000       342.65100       3.1108222     0.013277047
       4222.0000       290.85108       99496.902       7829.1725       1.5380000       2.2027500     -0.27150000       342.99000       2.3588883     0.012068616
       4227.0000       290.90972       99508.977       7834.3739      0.35325000       1.5600000      0.58000000       343.32200       2.3824279     0.011257309
       4232.0000       290.96001       99516.201       7855.5848       1.1105000       2.2052500     -0.21750000       343.13700       2.2304628     0.011421832
       4237.0000       291.02398       99530.670       7896.1996       1.5862500       1.7690000      0.23425000       342.75500       2.0588222     0.011558110
       4242.0000       291.06293       99538.330       7919.5841      0.68900000       1.0767500      0.26300000       343.07100       2.3081690     0.013043533
       4247.0000       291.09077       99544.952       7956.0881      0.82575010       1.9642500      0.22275000       342.74400       2.0462607     0.012019653
       4252.0000       291.10990       99542.372       7969.2309       3.6222500       2.1557500     -0.12500000       342.56800       2.0537215     0.011121210
       4257.0000       291.11447       99525.401       7959.2540       2.6062500       1.7705000     -0.25075000       341.97100       2.1208475     0.011776225
       4262.0000       291.10335       99518.704       7941.1035       2.3027500       1.9990000     -0.40025000       342.30000       2.0450218     0.010619047
       4267.0000       291.06632       99503.285       7899.0924       2.6652500       2.7095000      -1.1425000       342.25900       2.1079586     0.012745543
       4272.0000       291.04665       99501.110       7868.6384       1.6795000      0.52375000      0.79975000       343.38000       2.0401554     0.012515098
       4277.0000       291.02463       99519.297       7820.3276       1.8810000      0.51225000     -0.13075000       342.48100       2.0275652     0.013634928
       4282.0000       290.99459       99527.172       7795.7533       2.2330000       1.8032500    -0.088000010       342.11700       1.9829168     0.012991022
       4287.0000       290.96640       99538.596       7792.6586       2.0050000       1.9395000     -0.30700000       341.83000       1.9726228     0.010143192
       4292.0000       290.94641       99543.130       7787.0520       2.0542500       2.3985000     -0.25700000       341.90200       1.9814075    0.0086451180
       4297.0000       290.90962       99540.950       7795.2681       1.9680000       1.1772500     0.022750000       342.30200       1.9691677     0.011470676
       4302.0000       290.89061       99535.544       7798.1240      0.82075010       1.0942500      0.27475000       342.98900       1.9633225    0.0088055071
       4307.0000       290.87172       99521.219       7775.2731       1.4285000       1.5875000   -0.0015000000       342.83300       1.9752200     0.012320785
       4313.0000       290.90155       99512.110       7800.0200       2.4617500       2.4260000     -0.13325000       342.12000       2.0102199     0.013494128
       4318.0000       290.97425       99497.606       7851.7213       2.4110000       1.8532500      0.10050000       342.06100       1.9733685     0.011349687
       4323.0000       291.01441       99496.949       7893.1430       1.5252500       1.7117500     -0.21900000       342.01500       1.9428921    0.0091373840
       4328.0000       291.07692       99510.433       7959.8883       1.2227500       1.6272500   -0.0080000000       342.40600       1.9979057     0.011692368
       4333.0000       291.12357       99517.882       8017.5697       2.2637500       1.4395000     -0.11100000       342.34300       2.0260580    0.0098594581
       4338.0000       291.12597       99532.668       8054.9178       2.2897500       1.7485000     0.062750000       341.97600       2.0309627    0.0093804446
       4343.0000       291.15981       99539.555       8110.5336       1.8422500       1.8757500     -0.25075000       341.79700       1.9913371    0.0095086101
       4348.0000       291.28516       99543.736       8230.1685       1.7477500       1.5790000     -0.40125000       342.14100       1.9888020    0.0098584442
       4353.0000       291.26608       99541.233       8250.8856       1.3557500       1.3215000      0.43225000       342.91000       1.9765117     0.011605134
       4358.0000       291.14341       99530.323       8217.6399       1.7930000       1.8982500     -0.10450000       342.02400       1.9846765     0.011477348
       4363.0000       291.08042       99523.045       8190.5427       1.9937500      0.48375000      0.22050000       342.52900       1.9965038     0.012405269
       4368.0000       290.90730       99504.215       8067.7462       1.2390000       1.6495000     -0.15100000       342.33300       2.0023561     0.013216129
       4373.0000       290.85669       99501.579       8032.4669       2.7127500       1.6465000      0.31500000       342.20500       1.9721168     0.011578554
       4378.0000       290.92548       99511.125       8038.1038       2.1597500      0.61325000   -0.0082500000       342.44600       1.9962321    0.0096957673
       4383.0000       290.95952       99516.976       8063.3364      0.92750010      0.31325000      0.12200000       342.86900       2.0099909     0.014161113
       4388.0000       291.03354       99532.708       8167.4790       1.4262500       1.4622500      0.32700000       343.17400       2.0146615     0.012926225
       4393.0000       291.07009       99539.706       8196.2115       1.5060000       1.1132500      0.44375000       342.86500       2.0091519     0.010876480
       4398.0000       291.08233       99543.736       8206.8124       1.4380000       1.5980000      0.34800000       342.95500       2.0619652     0.014218465
       4404.0000       291.11823       99540.189       8208.2902      0.69000010      0.69700000      0.19775000       342.95400       2.0284923     0.014827342
       4409.0000       291.14144       99529.021       8145.2449       1.8310000       1.4670000      0.16100000       342.41600       2.0491892     0.013099529
       4414.0000       291.16167       99521.262       8129.3035       2.3717500       1.3537500    -0.084750000       342.19100       1.9737929     0.011555959
       4419.0000       291.19860       99506.464       8141.6945       1.9597500       1.1492500    -0.056000000       342.26700       1.9784319     0.013292970
       4424.0000       291.21230       99500.298       8137.0111       1.3142500       2.1972500      0.34250000       342.64700       1.9637902     0.011024166
       4429.0000       291.20001       99496.910       8140.5851       2.7842500       1.8550000      0.29500000       342.53300       1.9948396     0.014139271
       4434.0000       291.20001       99500.349       8122.3715       1.2915000       1.4905000     -0.33125000       342.53100       1.9815908     0.012140798
       4439.0000       291.20019       99511.835       8079.9932       1.0310000       1.4092500      0.18900000       343.03700       1.9445954     0.011104079
       4444.0000       291.20013       99519.396       8063.1271       1.1880000       1.6970000     -0.21800000       342.34900       2.0110540     0.012887686
       4449.0000       291.18889       99534.253       8028.2079      0.81700000       1.8860000     -0.19350000       342.94000       2.0519889     0.014300532
       4454.0000       291.20502       99540.357       8038.6529      0.99225000       1.5790000      0.19000000       343.20200       1.9730267     0.012820678
       4459.0000       291.24119       99543.797       8093.8229       1.5750000       1.4200000     -0.24800000       342.44200       1.9539778     0.011174445
       4464.0000       291.26125       99540.242       8127.0825    -0.062250000       1.3065000    -0.049750000       343.63500       2.0090874     0.012133782
       4469.0000       291.28783       99531.152       8194.9893      0.69000010       2.0822500     -0.33200000       341.94800       1.9837956     0.012077318
       4474.0000       291.31815       99520.269       8204.7387      0.78075000       1.5007500      0.46300000       342.70000       1.9605747     0.012882284
       4479.0000       291.38722       99494.395       8199.5524      0.62325000       2.1737500     -0.18425000       341.88800       2.0201992     0.011693275
       4484.0000       291.34289       99489.092       8146.1230      0.62400000       1.6135000     -0.30950000       342.12200       1.9892250     0.012728945
       4489.0000       291.24197       99490.901       8020.7423      0.64500000       1.1157500     -0.15150000       342.26000       2.0351185     0.014417807
       4495.0000       291.14055       99497.724       7932.4018      0.79875000       1.4970000     0.025000000       342.68300       1.9714360     0.011367985
       4500.0000       290.94254       99519.427       7839.1534     -0.13475000      0.93975000      0.37625000       342.88400       1.9942870     0.012298014
       4505.0000       290.87802       99528.705       7777.8866      0.44450000      0.47475000      0.37975000       344.11500       1.9607198     0.011260687
       4510.0000       290.87986       99536.356       7735.0896      0.72975000      0.31375000     -0.11900000       342.47400       2.0514924     0.014588169
       4515.0000       290.90630       99538.765       7732.6165      0.51025000      0.47800000      0.12200000       342.26900       1.9911913     0.012178452
       4520.0000       290.98496       99537.546       7750.7677      0.50625000      0.58175000     0.030500000       341.95900       1.9772884     0.011323938
       4525.0000       291.04364       99532.904       7776.5821      0.74375000      0.30375000      0.18650000       342.55800       1.9541867     0.016001093
       4530.0000       291.14375       99521.647       7854.0408      0.50625000      0.48150000      0.68700000       342.59300       1.9678014     0.012844092
       4535.0000       291.20428       99514.667       7897.3810      0.37975000       1.2840000     0.063250010       342.49000       1.9519372     0.012750005
       4540.0000       291.24890       99504.237       7929.8313       1.3627500      0.93275000      0.15400000       343.03600       1.9722122     0.010789531
       4545.0000       291.28014       99501.850       7954.1638       2.3997500       1.8977500     -0.51425000       341.91200       1.9523030     0.012568833
       4550.0000       291.30302       99502.527       7965.3928       2.0057500       2.2837500      0.67200010       341.98800       1.9930831     0.011220779
       4555.0000       291.31415       99507.148       8007.6507       2.0330000       1.2712500      0.78950010       342.90400       1.9657015     0.013976326
       4560.0000       291.30030       99518.775       8059.3905       1.7217500       1.8272500      0.13450000       341.80400       2.0103241     0.012988957
       4565.0000       291.30035       99525.767       8084.9613       1.4282500       2.0202500     -0.10200000       341.92000       1.9802671     0.018993787
       4570.0000       291.29084       99536.531       8138.5571       1.3345000       1.0285000      0.16050000       343.04400       1.9819113     0.011647836
       4575.0000       291.30933       99538.946       8135.0858      0.74775000      0.53650000      0.56250000       342.71500       2.0045140     0.013001235
       4580.0000       291.35473       99537.665       8069.4735       1.2525000       1.3265000    -0.073500000       341.86900       1.9638991     0.018523213
       4586.0000       291.35465       99531.659       8039.4015       1.5540000      0.80700000    -0.032750000       342.19800       1.9871230     0.011557116
       4591.0000       291.35661       99520.301       8004.1742      0.92450000       1.1172500     0.028250000       342.81100       1.9565189     0.015876003
       4596.0000       291.34463       99513.141       8005.8985      0.94875000      0.60425000      0.18200000       342.13300       1.9834133     0.019994477
       4601.0000       291.28833       99504.213       8017.1959      0.98425010      0.39275000     -0.24725000       342.36900       2.0164396     0.012111179
       4606.0000       291.33071       99497.409       8110.1581       1.0402500     0.093750010      0.26700000       342.90100       2.0119401     0.017501062
       4611.0000       291.35094       99497.890       8176.2497      0.90950010       1.3577500     -0.24900000       342.19000       2.0024679     0.021468977
       4616.0000       291.38516       99509.407       8311.0642      0.53150000       1.2390000    -0.057250000       342.69300       1.9858876     0.011259741
       4621.0000       291.40600       99515.392       8355.5113      0.74075000      0.71425000      0.19375000       342.39800       2.0306507     0.016833676
       4626.0000       291.42967       99525.720       8327.9266       1.2387500      0.54525000      0.16500000       342.24300       2.0047656     0.013289301
       4631.0000       291.41213       99531.999       8282.6480       1.0500000      0.29050000      0.44450000       343.11400       1.9905591     0.015610168
       4636.0000       291.36995       99534.555       8198.6439      0.93975000       1.0125000     -0.19600000       342.15300       2.0447769     0.016164049
       4641.0000       291.28872       99531.671       8022.4877       1.0350000      0.49200000    -0.046250000       342.51800       1.9945130     0.013590533
       4646.0000       291.29111       99527.394       7979.8628       1.0507500      0.89750000   -0.0022500000       342.26400       2.0145216     0.015684681
       4651.0000       291.29983       99520.885       7970.9341       1.8360000      0.64500000    0.0075000000       343.63200       1.9983536     0.019577094
       4656.0000       291.30915       99510.234       7979.3774       1.4480000      0.48225000     -0.13850000       341.91700       1.9646026     0.022061364
       4661.0000       291.31183       99503.897       7975.1141       1.0702500      0.68750010    -0.043000000       342.88800       1.9902812     0.020789374
       4666.0000       291.25913       99500.227       7940.1353       1.2400000      0.96225010    -0.091000010       341.95100       1.9445963     0.025363703
       4671.0000       291.19938       99499.001       7897.9007      0.99075010      0.71575000     -0.28375000       341.96000       1.9897865     0.019492984
       4677.0000       291.14785       99504.922       7854.0138       1.1995000      0.76250000     -0.41800000       342.03100       2.0247185     0.013337883
       4682.0000       291.09620       99505.723       7811.1712       1.0400000      0.50100000    0.0040000000       342.25700       2.0102158     0.017256508
       4687.0000       290.97216       99501.723       7715.4772      0.89825000      0.53375000   -0.0077500000       342.85200       2.0284709     0.014251919
       4692.0000       290.92592       99505.092       7681.1874       1.0420000      0.57975000    -0.064750000       342.00200       1.9795732     0.019149733
       4697.0000       290.92992       99511.701       7686.6280       1.3412500      0.66350000      0.49025000       343.35500       1.9987094     0.012409446
       4702.0000       290.94225       99515.904       7692.8399       1.3557500      0.83025000     -0.29675000       342.36000       2.0563478     0.013383343
       4707.0000       291.01079       99530.324       7738.1733      0.85150000      0.81725000     0.056750000       341.92700       2.0227257     0.015431029
       4712.0000       291.06044       99533.643       7774.7954      0.98575000      0.16900000     -0.41800000       342.00400       2.0125836     0.013782606
       4717.0000       291.12409       99524.836       7815.6268       1.0627500      0.25750000     -0.12100000       342.14500       1.9927189     0.014279228
       4722.0000       291.16255       99519.739       7845.8149       1.0592500      0.50100000     -0.37225000       341.96600       2.0155613     0.020750355
       4727.0000       291.16070       99511.900       7859.2090      0.72800000      0.31600000      0.27175000       342.61800       1.9964335     0.012656183
       4732.0000       291.20193       99503.926       7899.7209       1.6092500      0.66625010    -0.085250010       341.93900       1.9512162     0.026247338
       4737.0000       291.28164       99490.522       7947.6853       1.2315000       1.0955000    -0.055750000       342.97100       2.0243463     0.021139044
       4742.0000       291.31048       99488.137       7996.1313       1.1512500       1.5770000     -0.22750000       342.08100       2.0186457     0.015357268
       4747.0000       291.33229       99492.647       8074.8647       1.2115000       1.3782500    -0.047750000       342.27200       1.9882377     0.021278764
       4752.0000       291.36126       99494.923       8138.9933       1.1572500       1.4552500     -0.23775000       342.30700       2.0239294     0.010859386
       4757.0000       291.35794       99504.531       8219.7850       1.5697500       1.8080000     -0.18600000       342.38900       2.0398265     0.014085733
       4763.0000       291.34618       99513.759       8246.5170       1.4920000      0.91625010      0.33400000       342.71200       2.0080597     0.011935953
       4768.0000       291.37117       99517.675       8255.0959       1.2690000       1.7845000     -0.57175000       342.57800       2.0027325     0.012184482
       4773.0000       291.35313       99521.672       8217.6256       1.1802500       2.3585000     0.040000000       342.55100       1.9904128     0.016703045
