MIRICO/SHELL project - Processed LDS file generated on
Sat Jul 08 22:47:52 2017
Time stamp for record start
05/10/2017  15:03:54.0001
Nb of points in the record
         945
Beam position index
       4.0000000
Beam angle (degrees)
    -0.021000000
Open Path length (m)
       98.010000
****************** Temporal data record ************************
Elapsedtime_sec Temp_K Press_Pa Humidity_ppmv WindX_m/s WindY_m/s WindZ_m/s Speedofsound_m/s CH4vmr_ppmv CH4vmrerror_ppmv  
      0.00000000       290.58439       99620.412       8016.2167      0.55200000       1.8135000      0.32300000       343.12000       1.9053086    0.0071840431
       4.9999729       290.52909       99620.471       8012.3851     -0.27500000       3.3825000      0.10050000       342.15800       1.9079491    0.0066460731
       9.9999860       290.59147       99620.362       8067.6571     -0.25050000       1.7575000      0.40475000       343.02800       1.9310856    0.0071482188
       14.999999       290.61049       99620.409       8082.1985      0.80325000       2.5315000      0.36050000       343.74300       1.9002278    0.0056031780
       19.999972       290.63765       99622.060       8109.5064      -1.0732500       3.8115000      0.22050000       342.28400       1.9050361    0.0079273061
       24.999985       290.67629       99618.326       8115.3160   -0.0065000000       3.0272500      0.59150000       342.85300       1.9329784    0.0072719229
       30.999993       290.77492       99611.128       8100.5951      0.54825000       3.5127500     -0.49950000       341.39800       1.8777235    0.0088372537
       36.000006       290.67968       99603.265       8064.3651      0.76575010       2.2312500      0.55450000       342.63800       1.9241632    0.0071854204
       40.999979       290.64968       99595.360       8052.8815     -0.45525000       3.0452500     0.061750000       342.37700       1.9193101    0.0063501456
       45.999992       290.61963       99587.468       8048.8977      0.65025000       3.1522500     0.053750000       341.76200       1.9263804    0.0062410222
       51.000005       290.51750       99578.576       8038.7487     -0.36525000       2.3130000      0.19275000       343.06100       1.9021047    0.0074823118
       55.999978       290.55490       99577.974       8056.2604      0.27000000       1.4732500     -0.12175000       343.70700       1.9524111    0.0068210296
       60.999991       290.70605       99577.277       8104.0594      0.51050000       2.9045000     -0.11900000       343.15600       1.9335798    0.0064734106
       66.000004       290.75515       99594.944       8136.0387      0.79675000       2.4440000     -0.18325000       342.07700       1.9365246    0.0075460340
       70.999977       290.80693       99606.218       8165.5794      0.84125010       2.3402500      0.45500000       341.95400       1.9235403    0.0062650033
       75.999990       290.81530       99620.358       8189.6881    -0.081000000       2.4025000      0.56650000       342.86200       1.8974788    0.0077790591
       81.000003       290.84389       99627.777       8218.8127      0.24975000       1.5825000      0.20275000       342.32800       1.8407875    0.0080146728
       85.999976       290.88477       99630.294       8249.7727    -0.040500000       2.8607500      0.24675000       342.20400       1.9398380    0.0084671202
       90.999989       290.93656       99626.205       8276.5128      0.24600000       1.9017500     0.063750010       341.95400       1.8772497    0.0065643106
       96.000002       291.03038       99625.060       8325.8085     -0.77275000       2.3730000     -0.14500000       342.04000       1.9418830    0.0071941942
       100.99998       291.16182       99620.866       8394.9478    -0.052250000       2.5932500     -0.15700000       342.19400       1.9572690    0.0063847175
       105.99999       291.21013       99615.671       8429.5585      0.46875000       1.8095000     -0.20975000       342.15100       1.9333299    0.0069490605
       111.00000       291.26295       99610.794       8452.4986      0.79200010       1.8462500      0.10725000       342.23700       1.9319212    0.0065883143
       115.99997       291.26004       99600.397       8446.8641      0.74800000       1.6852500     -0.41800000       342.13700       1.9565929    0.0073561322
       121.99998       291.24827       99593.414       8423.3505      0.41350000       1.9400000      0.19125000       341.97700       1.9757707    0.0079956260
       127.00000       291.31317       99586.856       8397.9499      0.64850000       2.9012500     -0.29800000       341.78700       1.9382103    0.0058848684
       132.00001       291.26760       99588.276       8358.5115      0.74375000       2.5435000     0.011500000       341.96300       1.8936860    0.0080482920
       136.99998       291.10677       99598.760       8298.3215     -0.36500000       2.1342500     -0.36225000       343.12300       1.9478146    0.0070605639
       141.99999       290.98548       99605.876       8229.6299     -0.12275000      0.75700000      0.78175000       343.37100       1.9062824    0.0072186363
       147.00001       290.77347       99620.788       8128.9612     -0.36025000       1.2482500      0.20575000       343.24900       1.8955502    0.0077110884
       151.99998       290.65773       99628.559       8063.1449     -0.83450000       1.0922500      0.27750000       343.49300       1.8918450    0.0075840752
       156.99999       290.61947       99629.240       7994.5022      -1.8872500       1.2965000     -0.42325000       341.55700       1.8757439    0.0060953217
       162.00001       290.58135       99631.141       7949.0474      -1.1412500       1.0425000   0.00025000000       342.27400       1.9119349    0.0080930847
       166.99998       290.61450       99631.693       7954.2480      -1.5300000       1.7540000     -0.33100000       342.14000       1.9102344    0.0060664433
       171.99999       290.60336       99630.557       7934.8375     -0.93875000       3.9832500     -0.40875000       342.00400       1.9074951    0.0061968759
       177.00001       290.56709       99631.551       7908.3138      -1.0087500       3.1885000     0.077500000       341.66300       1.8711846    0.0067363462
       181.99998       290.54725       99626.203       7888.6231     -0.89325000      0.86900000     -0.41275000       342.18300       1.9137327    0.0056563695
       186.99999       290.53813       99613.931       7869.0334      -1.0442500       2.3570000     0.013750000       343.12000       1.9218791    0.0065342959
       192.00000       290.49650       99603.805       7843.4460     -0.45425000       3.2097500      0.67200010       342.05100       1.9143245    0.0066242893
       196.99998       290.38812       99582.020       7778.9638      -1.1330000       3.5535000     -0.26600000       341.50200       1.9299565    0.0077575458
       201.99999       290.38103       99575.683       7787.3805     -0.76000010       3.8747500     -0.36800000       341.39900       1.8940688    0.0061437660
       207.00000       290.42141       99579.648       7850.7799      -1.5560000       3.0802500     0.069000010       341.65400       1.8835122    0.0058955674
       212.99997       290.45139       99585.665       7896.5017      -2.8265000       2.6910000     -0.17425000       341.88000       1.9056318    0.0055312760
       217.99998       290.55889       99605.155       7949.5355      -1.3075000       2.6047500     -0.75175010       341.66100       1.9062334    0.0065041832
       223.00000       290.63462       99615.391       8051.9015    -0.058500000       2.7117500     -0.34150000       341.78100       1.9114092    0.0080240511
       227.99997       290.67465       99623.086       8182.0588     -0.38325000       2.4937500     -0.48775000       341.48900       1.9238627    0.0076009580
       232.99998       290.71487       99628.361       8277.3755      0.18625000       2.6152500      0.32975000       341.52600       1.9217003    0.0071731065
       238.00000       290.78912       99631.075       8455.1503     -0.10625000       2.2632500      0.25400000       342.26400       1.9078453    0.0064736529
       242.99997       290.82210       99631.393       8532.5791      0.13525000       2.3822500     -0.19925000       341.58700       1.9222251    0.0080434448
       247.99998       290.80032       99630.145       8492.4203     -0.27775000       1.9260000     -0.21975000       342.09800       1.9130349    0.0082331972
       253.00000       290.80044       99624.032       8495.6659      0.78825000       1.7777500      0.27000000       342.02400       1.9395492    0.0084060969
       258.00001       290.78762       99611.986       8488.1766      0.69250010       2.4950000      -1.2400000       341.71900       1.9176921    0.0078392729
       262.99998       290.80166       99601.716       8482.0657      0.69400000       2.4832500    -0.090750000       341.58900       1.9375023    0.0068663074
       267.99999       290.83710       99581.639       8486.1107      0.79900000       2.0757500     0.061500000       342.11900       1.9419144    0.0078998244
       273.00001       290.85720       99575.620       8469.3059       1.2825000       2.8560000     -0.19075000       341.31900       1.9543778    0.0068712279
       277.99998       290.88210       99577.984       8409.9326      0.85350010       2.6560000     -0.31625000       341.34900       1.9435255    0.0077599932
       282.99999       290.91238       99580.237       8407.2883      0.61125000       1.4975000     -0.19700000       341.33200       1.9199468    0.0065175356
       288.00001       290.93862       99589.321       8432.6711      0.80350010       1.5525000      0.14200000       341.35200       1.9265065    0.0087618100
       292.99998       290.95866       99598.703       8442.8744      0.14225000       1.0125000      0.35525000       342.90700       1.8996194    0.0077730291
       297.99999       291.02107       99612.649       8521.0840    -0.052250000       1.9850000     -0.25975000       341.30700       1.9170511    0.0067873724
       304.00000       291.00283       99619.796       8501.6830     -0.10625000       1.2747500      0.29925000       342.41600       1.8790313    0.0091718346
       308.99997       290.90516       99628.272       8391.6371     -0.55400000       2.6130000     -0.22625000       341.76800       1.9217939    0.0077616217
       313.99999       290.88153       99627.278       8355.7327  -0.00075000000       1.3445000     -0.35675000       342.39500       1.9502241    0.0070310009
       319.00000       290.85461       99615.899       8316.0643     -0.86500010       1.6835000      0.18300000       341.50700       1.9217141    0.0073587447
       323.99997       290.83105       99605.666       8276.8338     -0.51575010       1.6212500     -0.17100000       341.32900       1.9794223    0.0091035515
       328.99999       290.86740       99585.783       8280.1254     -0.64850000       1.9135000     -0.15725000       342.11000       1.8992938    0.0067909335
       334.00000       290.84480       99580.298       8252.1219     -0.12400000       2.3035000    0.0025000000       341.76200       1.9486235    0.0085257498
       338.99997       290.74682       99577.819       8174.8515      0.17750000       2.3865000     -0.26100000       341.54300       1.8825530    0.0071847681
       343.99998       290.72885       99579.261       8147.3424     -0.38300000       1.6907500      0.12700000       342.30300       1.8899141    0.0078078769
       349.00000       290.72057       99592.193       8130.8375     -0.62250000       2.0050000      0.16775000       341.59300       1.8952874    0.0083030258
       353.99997       290.75908       99600.177       8151.9044     -0.49800000       2.1722500    -0.089500000       342.04500       1.9469712    0.0087192632
       358.99998       290.87053       99608.393       8209.0315     -0.56550000      0.72800000     -0.14350000       342.81300       1.9052310    0.0070045200
       364.00000       290.94097       99613.749       8262.6268      0.21200000       2.5280000     -0.25775000       341.74300       1.9034051    0.0096303048
       368.99997       291.05074       99622.182       8392.6405     -0.49025000       2.6782500     -0.21150000       342.04400       1.9065334    0.0081648293
       373.99998       291.08198       99621.626       8399.6319     -0.18775000       2.1937500     -0.29925000       341.73800       1.9646384    0.0087703659
       379.00000       291.05683       99614.884       8331.9791     -0.40250000       1.7005000    -0.029750000       341.81300       1.9009454    0.0055476520
       383.99997       291.05063       99605.966       8300.3550     -0.27425000       2.0657500     -0.10850000       341.49200       1.8981255    0.0068654012
       388.99998       291.01179       99587.899       8201.9250    -0.029750000       1.7117500     -0.10050000       342.08000       1.8910857    0.0070089871
       394.99999       290.97602       99577.877       8160.7709      0.19150000       1.9057500     -0.70725010       342.06800       1.9531238    0.0078865326
       400.00000       290.95462       99565.120       8167.9737      0.22000000       1.1862500      0.33225000       342.74300       1.9120258    0.0066073277
       404.99998       290.93501       99571.046       8196.0066     -0.20825000       1.1412500      0.29425000       343.36200       1.9305244    0.0071450447
       409.99999       290.89724       99592.887       8258.6214      0.72200010       1.7295000    -0.032750000       342.55400       1.8867565    0.0062702725
       415.00000       290.88616       99602.997       8272.3004       1.1470000       1.7150000     0.042250000       342.78600       1.8845286    0.0076709926
       419.99997       290.89102       99621.544       8314.9150      0.91125010       1.1572500      0.10100000       342.96500       1.9140301    0.0071329219
       424.99999       290.90976       99627.269       8297.5082      0.73075000       1.2200000      0.43450000       343.69100       1.9018606    0.0087382269
       430.00000       290.94690       99622.859       8210.4143      0.52625000       1.6287500     0.042750000       342.73000       1.8967623    0.0073373468
       434.99997       290.96707       99617.253       8157.1426     -0.13000000       1.4725000    -0.075250010       343.38900       1.9613728    0.0081704262
       439.99999       291.02101       99608.353       8108.0868    -0.025750000       1.9682500    -0.021000000       342.22200       1.9093739    0.0078999914
       445.00000       290.99495       99598.701       8042.6930      0.63300000       1.2985000    -0.092500000       342.31600       1.8924887    0.0079371337
       449.99997       290.90936       99578.473       7943.1974      0.64975010       1.6065000     0.098250000       341.85000       1.9287706    0.0064164685
       454.99999       290.86887       99574.926       7916.5236       1.4532500       1.5340000     0.072750000       342.57300       1.9243525    0.0090939766
       460.00000       290.80277       99576.384       7902.6356       1.1092500       1.3837500    0.0050000000       341.60300       1.9564004    0.0078982683
       464.99997       290.76090       99583.840       7921.8928     -0.57225000      0.79400000      0.87200000       343.77700       1.8894783    0.0085645298
       469.99999       290.75321       99605.039       8012.1720      0.53475000       1.0477500     -0.20450000       341.61800       1.9010280     0.011257827
       475.00000       290.73315       99613.323       8049.2714      0.37550000      0.84175000      0.14650000       341.76300       1.9229980    0.0071942264
       479.99997       290.70563       99623.020       8091.6879      0.54850000       1.6520000     -0.40900000       341.92600       1.9111963    0.0089482728
       485.99998       290.67006       99614.392       8064.6671      0.38175000       1.4465000     -0.20225000       341.88000       1.9047627    0.0073566945
       490.99999       290.65027       99610.492       8049.5525      0.10700000       1.2700000     -0.29200000       342.64400       1.9411301    0.0093360521
       496.00001       290.63048       99606.620       8026.9396      0.30200000       1.0985000      0.14050000       342.11400       1.9347797    0.0085270916
       500.99998       290.59369       99599.239       7974.7388      0.19225000       1.0405000     0.072500010       342.44500       1.9419283    0.0090497923
       505.99999       290.58500       99597.560       7956.7162      0.36975000      0.77975000     -0.13475000       341.95000       1.9589723    0.0076607412
       511.00000       290.59331       99598.958       7955.2817      0.18900000      0.50250000     0.026750000       342.35600       1.9384988    0.0093285192
       515.99998       290.60079       99609.286       7934.2246      0.40975000      0.37025000     0.065250000       342.65100       1.9256520    0.0089875824
       520.99999       290.63804       99611.653       7958.9137      0.56425010      0.45575000      0.70100000       343.63500       1.9322164    0.0072461833
       526.00000       290.74574       99612.752       8056.7023    -0.088250000       1.6082500      0.37925000       343.14800       1.9435554    0.0077839798
       530.99998       290.80647       99612.080       8114.2663      0.50900000       2.4892500     0.098250000       342.61100       1.9143889    0.0085358787
       535.99999       290.85487       99607.713       8168.5809      0.78450010       2.8445000     -0.16575000       342.90800       1.9060914    0.0090684844
       541.00000       290.89345       99596.245       8239.3548      0.47200000       2.3645000   -0.0017500000       342.32400       1.8769783    0.0077448772
       545.99998       290.97545       99586.063       8307.1291      0.33175000       2.5110000     -0.90150000       343.02100       1.9600566    0.0098318909
       550.99999       291.05617       99572.947       8363.2337       1.8140000       2.7480000    -0.016000000       343.37000       1.8887242    0.0068618721
       556.00000       291.13993       99569.504       8380.2532      0.51225000       2.5405000      0.15175000       342.37500       1.8975131     0.010072018
       560.99997       291.17549       99571.734       8370.8350       1.6147500       1.0280000    -0.082000000       343.31500       1.9122293    0.0075591338
       565.99999       291.12908       99597.905       8272.2339       2.1067500       1.8227500     -0.17550000       342.34100       1.9327790     0.011525969
       571.00000       291.06186       99608.342       8181.4331       1.1707500       2.4875000      0.56375000       342.77400       1.9272241    0.0083998913
       577.00001       290.89329       99614.906       8045.4560       1.9465000       2.5580000     -0.89850000       341.47200       1.9159307    0.0075540337
       581.99998       290.82603       99613.210       7972.6234       1.1732500       1.5577500      0.78325000       343.04400       1.9911519    0.0077812694
       586.99999       290.76268       99592.240       7906.3770      0.89775000       1.7375000      0.18700000       343.10300       2.1282429    0.0073245464
       592.00001       290.72669       99582.467       7854.4941      0.55425000       2.2025000     -0.22275000       343.22600       2.0866709    0.0077011379
       596.99998       290.80407       99569.246       7855.9726      0.10575000       2.3772500     -0.27775000       342.65400       2.3417362    0.0056309909
       601.99999       290.81177       99567.032       7835.8801      0.97775010       2.0120000      0.19825000       342.88500       2.2086795    0.0064924493
       607.00001       290.76578       99577.874       7803.7509      0.77775000       2.6480000    -0.047750000       341.92200       2.3693657    0.0072909556
       611.99998       290.74568       99586.157       7774.6058       1.1882500       2.0740000     0.041500000       342.38200       2.0501223    0.0066020058
       616.99999       290.69552       99608.392       7722.2828     -0.95850000      0.82900010     -0.29025000       343.94300       2.7944571    0.0088450998
       622.00001       290.68815       99614.555       7712.8761      -1.0340000       2.9985000     -0.13275000       342.23100       2.8558363    0.0067321776
       626.99998       290.70414       99612.780       7708.7652     -0.45500000       2.5785000     -0.10875000       341.57400       2.7045513    0.0095563956
       631.99999       290.74709       99607.070       7740.5435     -0.55925000       1.5692500     -0.13500000       342.76500       2.2387669    0.0068706178
       637.00000       290.85784       99578.949       7839.2250      0.12375000       1.8650000      0.33550000       342.32900       3.0945562    0.0088532864
       641.99998       290.91679       99570.751       7911.8936     -0.56150000       1.4037500      0.65175000       343.69900       2.0712748    0.0089582180
       646.99999       290.92491       99569.257       7978.5921       1.3615000       1.8740000    0.0072500000       342.28300       2.3137563    0.0069850658
       652.00000       291.00754       99572.974       8068.3552      0.42375000       3.8265000     -0.60875000       342.18600       2.2678635    0.0070236204
       656.99998       291.15148       99600.614       8203.7465      0.80325000       2.5185000      0.25025000       342.27400       2.3841987    0.0073393605
       662.99998       291.23179       99610.971       8282.9939     -0.24325000       2.9345000     -0.29250000       341.92300       2.1616952    0.0056623218
       668.00000       291.38134       99616.152       8359.8203     -0.79000000       1.7912500     -0.34025000       343.63700       2.3660910    0.0080521277
       672.99997       291.38597       99611.547       8371.7155     -0.38800000       1.8152500     0.056000000       342.15600       2.6020078    0.0066762020
       677.99998       291.19365       99584.953       8285.2646     -0.31100000       1.4112500      0.46350000       343.57000       2.3215329    0.0072887481
       683.00000       291.11736       99575.022       8226.5114      -1.7060000       2.3527500     -0.81225000       341.87200       2.8294722    0.0078053002
       687.99997       291.05470       99559.961       8147.6361     -0.44325000       2.7727500     -0.58675000       341.52000       2.1755801    0.0057090608
       692.99998       290.96389       99562.368       8077.6699     -0.17725000       1.4477500      0.59325000       343.66600       2.4222649    0.0083673618
       698.00000       290.87137       99591.927       7990.2703      0.19775000       2.3055000      0.15450000       342.13300       2.9878151    0.0087995558
       702.99997       290.82451       99601.011       7934.9137      -1.0932500      0.88300000     0.012250000       342.67200       2.4169664    0.0081992686
       707.99998       290.73949       99614.057       7905.7914     -0.74925010       1.7822500    -0.044750000       342.60100       3.6530408    0.0082766769
       713.00000       290.72445       99614.047       7862.8939     -0.67850010       1.9730000      0.81050000       343.06900       2.2522529    0.0064635066
       718.00001       290.81868       99591.305       7821.4401     -0.95000000      0.80950000      0.15450000       342.74000       2.0075402    0.0066741950
       722.99998       290.86873       99580.628       7797.8118     -0.86175010      0.72500000     -0.31950000       342.59300       2.5755913    0.0084534874
       727.99999       290.93238       99562.972       7759.6943      0.18200000       1.5665000     -0.19025000       342.97600       4.9486844    0.0096379094
       733.00001       290.96865       99561.677       7757.9132    -0.014500000      0.84825000      0.17550000       343.66400       2.8821174    0.0072624733
       737.99998       290.99578       99573.511       7809.6129     -0.30925000       1.8770000   -0.0077500000       342.65400       2.8008818    0.0075873340
       742.99999       291.01250       99582.574       7833.4178     -0.24775000       2.5860000     -0.71425000       342.41100       2.8356968    0.0071870434
       748.00001       291.01293       99609.943       7855.9178     -0.67700000       1.8340000      0.31350000       341.90900       2.6368712    0.0075898059
       753.99997       290.99482       99616.426       7888.6101      -1.5975000       1.0535000     0.025000000       342.78900       2.6367791    0.0083396663
       758.99999       290.98013       99609.831       7938.7926      -1.1352500       2.6347500      0.59175000       342.67700       2.3841495    0.0078696804
       764.00000       290.92802       99603.460       7920.6921    -0.096000000       2.1482500      0.40275000       342.55700       2.4667806    0.0068185447
       768.99997       290.81903       99579.963       7873.8550     -0.88325010       2.7015000      0.43075000       343.35400       2.6604677    0.0091730796
       773.99999       290.76520       99575.119       7829.2571     -0.40050000       1.6160000      0.78175000       343.56500       3.3226994    0.0091394043
       779.00000       290.71355       99575.579       7720.9534      0.83075000       2.4860000     0.012500000       342.40300       2.7062497    0.0089873040
       783.99997       290.66943       99581.712       7666.1508      0.39300000       2.4112500      0.34700000       342.82300       2.1461092    0.0082288194
       788.99999       290.66849       99606.269       7641.8832    -0.050750000       1.1910000     -0.13725000       343.20400       2.9577947    0.0080872394
       794.00000       290.63239       99610.246       7621.2475     0.070750010       1.5330000      0.12950000       344.05200       2.8038983    0.0072917294
       798.99997       290.58102       99610.833       7621.9971     -0.23425000       2.4302500     0.075750000       342.16500       2.2063625    0.0070535681
       803.99998       290.51531       99604.122       7596.6984     -0.66675000       2.0232500      0.10050000       341.77800       2.1204196    0.0073617083
       809.00000       290.41829       99574.882       7567.6808     -0.60675000      0.96775010      0.18450000       342.67600       2.5454143    0.0070159648
       813.99997       290.36450       99569.810       7549.5837      0.22400000       1.6497500      0.10600000       342.60300       2.6883701    0.0083881210
       818.99998       290.30244       99572.082       7509.5826     0.069000010       2.6950000      0.14100000       342.49100       3.0073861    0.0089300865
       824.00000       290.27494       99575.601       7500.6649    -0.049500000       2.1902500    -0.054250000       342.40600       2.6868948    0.0078373612
       828.99997       290.27753       99598.919       7508.7060      0.28450000       2.8672500     -0.42550000       343.26300       2.5411018    0.0086414284
       833.99998       290.30986       99598.618       7543.9173     -0.73700000       1.6627500      0.53875010       342.43600       2.3281191    0.0069265718
       839.00000       290.37349       99583.431       7610.1847      -2.6465000       1.9447500    -0.071500000       342.59600       2.3019173    0.0073477839
       845.00000       290.44221       99575.421       7666.3713      -1.0005000      0.97900000     -0.52725010       341.58800       2.7660107    0.0066912146
       849.99998       290.55171       99555.658       7735.6856      -1.3887500       1.2422500     -0.29925000       341.72300       2.6658021    0.0079872956
       854.99999       290.59416       99558.574       7791.8648     -0.74400000       2.3225000     -0.17375000       341.96400       2.5876249    0.0071028587
       860.00000       290.60348       99578.356       7836.1271      -1.0862500       2.7567500     -0.19375000       341.91500       2.5154200    0.0070592398
       864.99998       290.61486       99586.464       7866.0825     -0.90600000      0.89225010      0.48850000       343.11100       2.9211161    0.0077334186
       869.99999       290.60000       99604.025       7899.3761     -0.30175000       1.1742500     0.089750010       342.62300       2.5563634    0.0075922866
       875.00000       290.60013       99603.007       7919.3715    -0.028250000       3.0357500     -0.23375000       342.91200       4.7327535     0.010477967
       879.99997       290.58247       99587.171       7899.1300     -0.11850000       2.7450000     -0.48525000       342.17700       2.3170190    0.0071133693
       884.99999       290.61987       99579.318       7924.4123     -0.81650010       2.5265000      0.12175000       343.08700       2.8908796    0.0081934052
       890.00000       290.69197       99561.257       7980.1965     -0.39525000       3.3277500     -0.50550000       342.44100       2.4532735    0.0070688952
       894.99997       290.73149       99563.378       8004.7128      0.53775000       3.4800000     -0.76575010       341.43500       2.3317215    0.0089191243
       899.99999       290.79783       99578.071       8019.9410      0.54050000       1.9455000     -0.58475010       342.51700       2.3810773    0.0078295829
       905.00000       290.83933       99585.042       8064.1628      0.31175000       3.6417500     0.015250000       341.69700       3.1564204    0.0089623023
       909.99997       290.84582       99604.051       8105.6646      0.34650000       2.4920000     0.034750000       342.06300       2.6562427    0.0085411475
       914.99999       290.86579       99602.963       8152.7019     0.081250000       2.7300000     0.061500000       342.63800       2.4918566    0.0071397171
       920.00000       290.89496       99586.264       8256.7856      0.15225000       2.4205000     0.017750000       342.27200       2.0585676    0.0069588706
       924.99997       290.92522       99580.291       8260.9207     -0.31100000       2.8510000     -0.35150000       342.01400       3.7690978    0.0083721818
       929.99998       290.93770       99566.835       8202.7374      0.59950000       1.6310000      0.23250000       342.97200       2.5590220    0.0097459763
       935.99999       290.98507       99580.933       8090.8961      0.96825000       1.7312500     -0.31850000       342.97800       6.0851920     0.011006801
       941.00001       291.04333       99586.060       8080.0405      0.93275000       5.0690000     -0.10625000       341.61500       2.4420022    0.0071206300
       945.99998       291.11394       99589.951       8124.5304      0.75675000       3.2102500      0.26375000       342.05200       2.4513515    0.0073861130
       950.99999       291.20516       99599.386       8235.1750       1.2010000       2.7502500     -0.42525000       341.48200       2.5936917    0.0081504003
       956.00000       291.25457       99593.589       8326.5654      0.69700000       2.8835000     -0.34900000       341.49300       2.0409980    0.0082357182
       960.99998       291.31786       99572.224       8500.0223     -0.28825000       2.2690000     -0.60825000       341.77500       2.8562302    0.0088681003
       965.99999       291.26942       99577.048       8513.5275     -0.33425000       1.7792500     -0.31375000       341.72600       2.9143607    0.0099364973
       971.00000       291.24917       99578.699       8491.3055     -0.42925000       1.7310000     0.029750000       341.78200       2.7614242    0.0072676616
       975.99998       291.25966       99600.406       8365.5138     -0.40525000       2.3470000     -0.45225000       341.79700       2.2060762    0.0062144122
       980.99999       291.21241       99605.361       8261.9350      -1.3817500       2.5295000     -0.37700000       341.84000       4.0195075    0.0094031608
       986.00000       291.14052       99600.468       8152.1708     -0.57775000       1.4592500     -0.26425000       342.26400       2.2381869    0.0054713454
       990.99998       291.04623       99579.998       8011.8634      0.45650000       1.9815000     -0.37975000       342.49400       2.2189241    0.0086739218
       995.99999       291.00721       99574.044       7944.9597     -0.12500000       1.7505000    -0.060500000       342.71500       2.7649936    0.0081664780
       1001.0000       290.92570       99561.059       7902.1836     -0.45625000       2.3912500     -0.11275000       342.41200       2.8392089    0.0071763170
       1006.0000       291.03038       99579.338       7901.5384     -0.43400000       4.2965000    -0.063250010       342.68400       2.7622029    0.0083578683
       1011.0000       291.06334       99586.652       7888.8515     -0.49350000       2.6535000     -0.76400010       341.89700       2.3963896    0.0089598908
       1016.0000       291.05503       99597.416       7866.7524     -0.64375000       2.1815000    -0.014250000       342.48100       3.0273834    0.0074221668
       1021.0000       291.05595       99599.058       7853.7038      -1.3927500       3.7977500     -0.18025000       341.38000       2.6829336    0.0069684981
       1027.0000       290.99535       99575.397       7836.1295     -0.88300000       3.3182500     -0.20200000       341.67800       2.8825708    0.0072630404
       1032.0000       290.98770       99572.018       7838.7917      -1.1027500       2.0047500      0.21200000       342.34800       2.8224952    0.0079780564
       1037.0000       291.00319       99576.522       7858.0040      -1.9950000       2.7165000     -0.21600000       342.28400       2.8847936    0.0081632695
       1042.0000       291.04574       99578.947       7878.5065      -1.3452500       1.5015000      0.52750000       342.75000       2.8792938    0.0062563547
       1047.0000       291.18588       99601.943       7936.0235      -1.3007500       1.3042500     -0.10050000       343.36100       2.1143153    0.0074232302
       1052.0000       291.22253       99605.069       7952.1440     -0.77200000       1.6352500      0.34925000       343.10000       2.2283814    0.0078942813
       1057.0000       291.19737       99582.028       7920.0816      -2.1292500       1.7840000     -0.75000010       341.75900       2.7306762    0.0066798921
       1062.0000       291.20622       99577.195       7930.4712      -1.6732500       1.2330000      0.52100000       342.69500       3.2854890    0.0079994849
       1067.0000       291.15363       99573.067       7932.2301      -1.2842500       1.0780000      0.16600000       342.55700       2.2088210    0.0090304201
       1072.0000       291.13648       99572.759       7956.0167      -1.9797500       1.4765000     -0.32325000       342.53400       2.6207533    0.0077171287
       1077.0000       291.20495       99590.725       8068.8252      -2.5235000       1.7267500     -0.43975000       341.56700       2.0045247    0.0065904618
       1082.0000       291.21200       99598.288       8099.0233      -2.1097500      0.57000010     -0.37950000       341.57800       2.7928580    0.0071877243
       1087.0000       291.13816       99600.605       8069.4229      -2.0432500     -0.10150000      0.12950000       341.70400       3.5982030    0.0074889517
       1092.0000       291.14108       99601.325       8066.5882      -2.5897500       1.4740000     -0.23550000       342.29900       3.6605728     0.010251872
       1097.0000       291.17892       99595.356       8034.7554      -1.6920000       1.4590000      0.87350000       342.24400       2.7771700    0.0070928399
       1102.0000       291.20034       99594.429       8007.5260      -1.3742500      0.88075010      0.10200000       342.20000       2.5394089    0.0082192530
       1107.0000       291.29548       99596.090       8003.4377      -1.3465000       1.3142500     -0.16450000       341.44500       3.6922852    0.0097928137
       1112.0000       291.32106       99595.065       7992.6116      -1.2670000      0.85300000      0.45375000       342.05800       3.7685495    0.0097731662
       1118.0000       291.24909       99599.981       7922.2937      -1.6997500       1.5205000      0.80800000       342.26500       2.5409633    0.0077209365
       1123.0000       291.24280       99595.600       7937.1237      -1.1885000       1.5012500     -0.16300000       342.50800       2.7831191    0.0086803351
       1128.0000       291.25615       99578.386       8020.9893      -1.7512500       1.5797500     -0.21025000       342.03100       4.3250791     0.010862636
       1133.0000       291.24632       99572.159       8069.1166      -1.2127500       1.3997500      0.12500000       342.80800       2.9809025    0.0081492251
       1138.0000       291.29458       99563.106       8185.2702      -1.6447500       1.3367500     -0.38775000       342.03300       4.3574619    0.0095268700
       1143.0000       291.24941       99562.940       8206.7789      -1.4355000       3.1372500     0.065000010       342.48500       2.5293049    0.0057375660
       1148.0000       291.08897       99580.040       8140.5974      -1.9375000       1.2875000    -0.069500010       342.64000       2.0492704    0.0069991567
       1153.0000       291.01207       99582.987       8108.8388      -2.0705000       1.5387500     -0.30400000       342.44000       4.2782395     0.010448117
       1158.0000       290.92795       99581.773       8043.2146     -0.78750000       1.2740000     0.025000000       342.13500       2.0947284    0.0085089855
       1163.0000       290.86603       99581.022       8000.6621     -0.93450000       1.4045000     -0.16200000       342.87500       2.7138452    0.0084692681
       1168.0000       290.83639       99567.426       7969.3250      -1.7082500       2.0917500     -0.37325000       342.25900       3.3321683    0.0094202676
       1173.0000       290.84438       99568.462       7956.7340      -1.4172500       1.7622500      0.12625000       342.73200       2.5572612    0.0076928684
       1178.0000       290.85599       99583.147       7948.0786      -1.6372500       1.7580000    -0.018500000       341.96700       3.5492313    0.0087068154
       1183.0000       290.90762       99587.869       7956.3381      -1.1412500       1.0752500     -0.50325000       341.95200       2.9114065    0.0095546014
       1188.0000       291.05566       99599.029       7998.8754      -1.7927500       1.3095000     -0.47475000       342.09200       3.7625305    0.0094003613
       1193.0000       291.14257       99597.876       8030.6955      -1.9882500       1.5707500     -0.24400000       341.79200       2.8594545    0.0085523838
       1198.0000       291.28028       99573.939       8086.8345      -1.7410000       1.6322500    -0.068000000       342.24600       3.1138905    0.0084545879
       1204.0000       291.26760       99572.147       8097.0895      -1.6057500       1.4715000     -0.62375000       341.40400       3.4725987    0.0075173941
       1209.0000       291.13166       99578.440       8060.1124      -1.4957500       1.4600000     -0.53775000       341.48500       2.5486753    0.0085352092
       1214.0000       291.06599       99580.604       8076.9332      -1.2540000      0.65725000     -0.60075000       341.49900       2.4567857    0.0076111155
       1219.0000       290.89152       99599.343       8092.5240     -0.99150000      0.20225000     -0.21675000       341.47500       2.1390251    0.0082782101
       1224.0000       290.85317       99597.810       8106.7962     -0.66450010      0.82425000     -0.15125000       342.42100       2.1171800    0.0074245394
       1229.0000       290.94193       99574.480       8179.6287     -0.50300000      0.70825000     -0.19050000       341.55900       2.5528783    0.0080863794
       1234.0000       290.96190       99571.946       8186.5157     -0.17975000      0.91300000      0.11200000       342.23100       2.9741702    0.0082653982
       1239.0000       290.97692       99573.268       8127.7602     -0.66425000       1.4965000     -0.39400000       341.94500       4.0431872     0.010883335
       1244.0000       291.02295       99575.148       8113.7048      -1.3547500      0.61150000    0.0092500000       342.02500       4.0558035    0.0090481192
       1249.0000       291.09563       99593.462       8101.9994     -0.41775000       1.0740000      0.31975000       342.66800       2.1145105    0.0076316775
       1254.0000       291.11927       99592.721       8095.6958     -0.12975000      0.68850000      0.57550000       343.57500       2.6537818    0.0080852688
       1259.0000       291.15795       99573.316       8104.2081      0.11400000      0.38150000      0.12000000       342.67400       4.2146138    0.0093737614
       1264.0000       291.16505       99573.853       8111.8205     -0.36725000       1.5795000     -0.33075000       343.00400       4.9605883     0.010452016
       1269.0000       291.12307       99578.563       8132.1944     -0.12675000       1.3050000    -0.013000000       343.62600       3.1620735    0.0087075692
       1274.0000       291.07640       99580.826       8122.1784      0.78050010       2.1295000      0.13075000       342.97300       2.2874556    0.0080000500
       1279.0000       291.01474       99599.327       8101.5965      0.28950000       1.0760000      0.52725010       343.84700       4.5146299    0.0098150724
       1284.0000       290.97470       99598.046       8083.5355       1.6130000       1.9642500      0.49800000       342.09800       3.5840440    0.0087444843
       1289.0000       290.90125       99574.202       8029.9295      0.36850000       3.3375000    -0.044250000       342.55800       2.1939794    0.0079678738
       1295.0000       290.87172       99571.794       8018.8118     -0.34000000       1.6192500      0.68900000       343.61500       4.3119785     0.011971494
       1300.0000       290.89111       99573.199       8030.2504     -0.70800000       1.2382500      0.19600000       342.68900       3.5321763    0.0081590291
       1305.0000       290.90958       99575.743       8056.8591     -0.38125000       1.0385000      0.55275010       343.29400       2.3755995    0.0071778091
       1310.0000       290.94501       99594.140       8116.1542     -0.64875000       1.1852500    -0.022500000       342.74600       2.9698799    0.0092636174
       1315.0000       290.96513       99591.819       8140.0319     -0.27150000       1.9190000     -0.27525000       343.19600       3.4806997    0.0098203533
       1320.0000       290.99424       99573.972       8166.4655     -0.62875000       1.5977500     -0.11325000       343.73000       2.5595306    0.0078209406
       1325.0000       291.02475       99573.687       8185.3014      0.59325000       1.3927500      0.39275000       344.01000       2.6689807    0.0075636430
       1330.0000       291.03821       99572.553       8183.3107       2.3400000       1.3865000     -0.19450000       342.39500       2.0471916    0.0066283789
       1335.0000       291.07686       99576.978       8185.0455       1.4800000      0.60050000     -0.27600000       342.57900       2.1283899    0.0075897113
       1340.0000       291.15775       99599.519       8193.8659       1.2580000       1.4770000      0.61325000       342.91800       2.9282455    0.0095219712
       1345.0000       291.17007       99597.504       8191.5291       1.4072500       1.6547500      0.13300000       342.77000       2.1716548    0.0077375751
       1350.0000       291.17634       99579.805       8179.9186      0.18550000       1.1870000      0.38825000       343.36000       1.9936585    0.0072040008
       1355.0000       291.12911       99578.599       8154.7585     0.095500010      0.74500010    -0.012500000       343.68500       2.3279494    0.0082721753
       1360.0000       291.01354       99573.056       8130.2191     -0.10625000       2.0072500      0.13825000       343.21300       2.9413703    0.0077394259
       1365.0000       290.94312       99574.572       8082.7805      0.32225000       2.8802500     -0.31975000       341.99000       2.1660926    0.0091961387
       1370.0000       290.83719       99593.936       7992.7884      0.62550000       1.9740000      0.21175000       342.32500       4.0449614     0.010203595
       1375.0000       290.81312       99591.711       7960.4059      0.89175000       3.3947500      0.11675000       343.43100       2.3954317    0.0084598044
       1380.0000       290.85206       99572.987       7945.9565     0.017000000       2.9030000     -0.55925000       341.57500       2.6804635    0.0060949013
       1386.0000       290.83973       99581.243       7938.0350      0.29250000       2.8137500   -0.0090000010       342.05600       3.0475326    0.0096164068
       1391.0000       290.84943       99580.259       7927.4125     -0.13400000       2.8670000     0.091750000       342.42800       2.2684580    0.0077890632
       1396.0000       290.85907       99579.262       7909.1165     0.051750000       1.5750000      0.28650000       342.87400       1.9687426    0.0067650815
       1401.0000       290.84305       99588.565       7871.4921     -0.33600000       1.9292500      0.28300000       343.28800       1.9630659    0.0071266661
       1406.0000       290.85473       99583.747       7845.8752     -0.16475000       1.0402500      0.14175000       343.20600       1.9347497    0.0078304383
       1411.0000       290.90628       99561.143       7821.8701     -0.49700000       1.3770000     -0.33900000       341.71600       1.9673594    0.0071474134
       1416.0000       290.91492       99578.420       7816.8209    -0.038250000       1.0202500     -0.26025000       341.95400       1.9276975    0.0081935630
       1421.0000       290.90648       99581.799       7810.8797      0.22575000       1.0197500    -0.065500010       341.98800       1.8973835    0.0075969586
       1426.0000       290.87010       99585.494       7788.7729      0.16875000      0.27700000      0.25825000       342.43400       1.8699946    0.0069324816
       1431.0000       290.85033       99588.018       7817.3184      0.23625000      0.13550000      0.20550000       343.02100       1.9443133    0.0078640003
       1436.0000       290.83062       99585.627       7871.5803      0.25600000      0.56025000     -0.35150000       342.10600       1.9055155    0.0069170799
       1441.0000       290.79419       99566.604       7951.5935      0.95725010       1.6600000      0.18500000       342.56000       1.9155222    0.0079790569
       1446.0000       290.78580       99570.566       7991.6963       1.1352500       1.5602500     -0.38475000       341.88700       1.9176572    0.0065647477
       1451.0000       290.81129       99587.647       8077.7879       1.1520000       1.6802500      0.14900000       342.62300       2.5312737    0.0073941975
       1456.0000       290.72378       99582.001       7977.3866       1.0325000       1.8470000     -0.10950000       342.64100       2.7158858     0.010788575
       1461.0000       290.69182       99581.139       7934.1172      0.86925010       1.7397500     -0.61100000       342.15000       1.9461177    0.0087816145
       1466.0000       290.62972       99566.298       7883.3603      0.93700000       2.1117500      -1.0000000       342.40400       1.9645637    0.0058248705
       1471.0000       290.62542       99561.741       7853.2762       1.1835000       1.2032500      0.31600000       342.84300       2.0775988    0.0078820051
       1477.0000       290.74405       99580.333       7860.7365       1.5297500       1.0335000     -0.30675000       342.43700       2.2037227    0.0072171732
       1482.0000       290.81361       99582.823       7886.6023       1.3612500       1.1317500     -0.13750000       342.32000       4.7884001    0.0084780833
       1487.0000       290.88380       99572.484       7898.4209      0.44150000       1.1172500      0.23950000       342.82800       2.7103267     0.010994578
       1492.0000       290.96367       99574.752       7969.5781      0.65225010       2.1997500      0.39950000       342.40000       2.6256977    0.0072110663
       1497.0000       291.07140       99578.362       8158.6757      0.65875010       1.7585000      0.40750000       343.46100       2.7846780    0.0092918688
       1502.0000       291.11918       99579.599       8247.2689       1.9610000       2.0420000      0.27825000       343.53200       2.4259081    0.0072603402
       1507.0000       291.14612       99597.312       8321.2633      0.51350000       3.4330000     0.056750000       342.19800       2.6601964    0.0082720008
       1512.0000       291.16405       99599.651       8375.1135     -0.38375000       3.1972500    -0.051750000       341.69700       2.8113617    0.0067660675
       1517.0000       291.12391       99575.411       8342.3988     -0.67475000       3.3925000     -0.18875000       341.81300       2.6391460    0.0078176248
       1522.0000       291.09420       99572.120       8331.4020       1.4252500       3.1210000    -0.060250000       341.97300       3.3861691    0.0075520066
       1527.0000       291.05218       99580.925       8334.8256     -0.11325000       2.4507500     -0.12250000       342.34500       2.6128657    0.0079766788
       1532.0000       291.04352       99579.946       8330.9344     -0.34325000       1.4550000      0.19175000       342.70000       4.3801079    0.0080551483
       1537.0000       291.05875       99586.259       8331.7764      -1.0772500       2.7735000      0.38800000       342.60800       4.2593835    0.0085715235
       1542.0000       291.04883       99587.887       8297.0522     -0.71400000       2.1072500     -0.17000000       342.00400       2.2376084    0.0059931753
       1547.0000       291.05591       99570.256       8236.4629     -0.33725000       1.3812500     -0.19575000       342.34300       2.8825900    0.0091769670
       1552.0000       291.05485       99566.764       8185.3553     -0.31725000       1.9127500      0.26575000       342.36400       2.0283124    0.0073531941
       1557.0000       291.05223       99581.449       8111.1929      0.51500000       1.9057500      0.24800000       342.56900       2.3170754    0.0088009852
       1562.0000       291.00001       99582.061       8036.0471      0.70475010       3.5250000    -0.010000000       342.10100       2.7277564    0.0073221816
       1568.0000       290.86027       99574.148       7920.0916     -0.34400000       1.8545000     -0.40600000       342.51300       2.8886880    0.0067178269
       1573.0000       290.82795       99575.537       7890.5427     -0.44550000       1.6000000      0.45375000       342.93700       2.6065377    0.0091461833
       1578.0000       290.80363       99572.951       7897.8089     -0.42725000       1.5867500     0.076250000       342.04400       2.9982130    0.0072019274
       1583.0000       290.78173       99574.120       7889.6059       1.1577500       2.8325000     -0.28800000       341.61900       2.9011283    0.0066395277
       1588.0000       290.85115       99592.316       7935.1021       1.2345000       3.1210000     -0.21125000       341.99000       2.7263035    0.0089342623
       1593.0000       290.86395       99593.046       7956.1235      0.63275000       2.0017500      0.87375000       342.79400       3.3911049    0.0088940436
       1598.0000       290.80509       99573.502       7944.8021      0.92500010       1.1947500      0.20025000       342.68500       2.1735224    0.0075939552
       1603.0000       290.78871       99572.899       7937.2436     -0.64925000       1.5862500     -0.57900010       341.81600       2.2423377    0.0065873591
       1608.0000       290.77442       99582.265       7928.3261     -0.83625010       1.0255000      0.75000010       343.50700       2.6786527    0.0087583407
       1613.0000       290.80190       99579.936       7942.8891      -1.0127500       2.1562500     -0.38025000       342.04000       3.4812378    0.0083933978
       1618.0000       290.92815       99579.346       7973.1850     -0.60300000       1.7855000     -0.50750010       342.35000       2.0006388    0.0066885798
       1623.0000       290.91248       99581.965       7970.7776     -0.77925000       1.8417500     -0.34800000       341.44400       2.9927868    0.0067421847
       1628.0000       290.85022       99573.995       7980.3882      -1.2102500       1.3740000     -0.26900000       341.55900       2.1166539    0.0063320371
       1633.0000       290.78898       99573.542       7975.0333     -0.67775010      0.63800000     0.076750000       341.69600       2.6458098    0.0064906077
       1638.0000       290.59251       99592.675       7920.3164     -0.32075000      0.30875000      0.45600000       342.68600       3.5640403    0.0079856190
       1643.0000       290.49308       99593.478       7888.8592      0.27025000      0.91275010     -0.14350000       342.13200       2.1096429    0.0067592259
       1648.0000       290.45372       99575.107       7868.2355     0.016500000      0.53125000      0.18300000       342.63100       2.1996841    0.0068996800
       1653.0000       290.43174       99573.334       7859.8168      0.48325000       1.6570000     -0.19350000       343.27600       2.0997331    0.0079605380
       1659.0000       290.44238       99575.475       7854.4204      0.31225000       1.3620000     -0.37800000       341.53000       2.3267051    0.0062858211
       1664.0000       290.44821       99574.155       7851.4530      0.22325000       1.1157500     -0.38000000       341.70600       3.0980648    0.0081256515
       1669.0000       290.49955       99578.527       7867.3873      0.82375000       1.3635000     -0.93875000       342.42100       3.3422280    0.0077618151
       1674.0000       290.51331       99583.623       7876.4577      0.20875000       1.0345000      0.26700000       342.76000       2.0503571    0.0089819914
       1679.0000       290.48893       99584.150       7873.8192       1.3585000       1.2482500     -0.19600000       343.07700       2.3727665    0.0079233053
       1684.0000       290.50523       99585.738       7883.8687       1.0755000       1.1197500     -0.12425000       341.51200       2.7206815    0.0064484574
       1689.0000       290.54258       99595.885       7912.0188       1.3345000      0.96725000     -0.34325000       341.61500       3.2938941    0.0087817059
       1694.0000       290.56269       99598.056       7923.5764      0.89225010       1.0310000      0.19650000       342.82700       5.9339170     0.010162038
       1699.0000       290.58862       99590.411       7915.3100       1.1155000       1.9897500     -0.32975000       341.80500       3.4999506    0.0077543297
       1704.0000       290.61865       99589.058       7940.9166      0.92900000       1.8970000      0.22075000       342.42300       3.8819758    0.0091675899
       1709.0000       290.61825       99593.988       7967.8091     -0.25400000       2.0097500     0.063000000       342.26500       2.8916836    0.0077145933
       1714.0000       290.67150       99589.106       8018.4510      0.64800000       1.5590000     -0.27700000       342.43500       2.4596321    0.0078021380
       1719.0000       290.80492       99576.560       8127.3801      0.57500000       1.7137500     -0.28600000       341.58800       3.3495556    0.0080587599
       1724.0000       290.82597       99572.161       8168.5002      0.73725000       1.3155000     -0.33525000       341.80500       2.3945645    0.0098836533
       1729.0000       290.82464       99562.299       8199.0116      0.79025010       1.1020000     -0.17425000       341.92900       4.6819447    0.0093661450
       1734.0000       290.79604       99563.344       8198.8129      0.23250000       1.0025000      0.27550000       342.77300       2.0916192    0.0075613902
       1739.0000       290.65897       99581.999       8142.2058     -0.15575000       1.2120000     -0.17700000       341.76700       5.2834596     0.010209185
       1745.0000       290.60556       99581.935       8105.9679    -0.095750000      0.91450010     -0.17000000       341.94000       2.3152648    0.0070911480
       1750.0000       290.60619       99574.447       8077.9069    -0.050000000       1.0430000     0.061750000       342.00400       2.5691882    0.0068373034
       1755.0000       290.57651       99576.307       8029.3510      0.27375000       1.2685000     0.079000000       342.12300       4.5005546     0.010247178
       1760.0000       290.53568       99575.796       7956.4800     -0.37700000       1.4847500     -0.19075000       341.66500       2.4468760    0.0070761320
       1765.0000       290.55309       99572.841       7930.6098     -0.67600010       1.1342500      0.14675000       342.10200       3.6679790    0.0095481106
       1770.0000       290.57115       99574.613       7895.4863      0.70450000      0.94400010    -0.095500010       342.29100       2.6038837    0.0081775356
       1775.0000       290.63716       99577.649       7908.6737     -0.35100000       1.3652500     0.042500000       342.77600       2.5013356    0.0094531121
       1780.0000       290.79122       99574.963       7987.6999     -0.64575000      0.79600010     0.021000000       343.00000       2.9689359    0.0082198107
       1785.0000       290.87287       99573.768       8020.7891      -1.7215000      0.96475010     -0.18375000       342.42700       2.0062143    0.0072371804
       1790.0000       290.92550       99582.919       8028.6533      -1.5907500      0.90450010      0.47575000       343.36900       2.8398335    0.0081101480
       1795.0000       291.02353       99580.409       8109.7759     -0.60850000       2.6722500     0.077500000       342.98900       3.7587342    0.0081649545
       1800.0000       291.12008       99562.322       8203.0417      0.16325000       3.4447500    -0.051000000       342.78500       2.2578302    0.0075623437
       1805.0000       291.22969       99563.808       8332.5944     -0.23075000       3.5582500      0.27025000       342.49800       6.0729621     0.012384107
       1810.0000       291.40909       99578.009       8582.8267      0.42050000       2.5355000     -0.67100000       342.95700       2.7420855    0.0080972515
       1815.0000       291.46419       99573.353       8649.5211      0.31725000       1.9900000     0.021250000       342.56500       3.4597633    0.0089060287
       1820.0000       291.48693       99563.180       8668.2988      0.71875010       2.0815000      0.15950000       343.34700       4.2403641    0.0078171821
       1825.0000       291.43361       99565.846       8618.9065      0.47250000       1.7462500      0.95100000       343.06900       2.2081930    0.0094656862
       1830.0000       291.26757       99564.593       8432.9905       2.4485000       2.2825000      0.17325000       342.62400       2.3190014    0.0072356948
       1836.0000       291.13027       99572.396       8295.9536      0.41950000       1.8907500      0.26875000       343.59300       2.1549681    0.0074270169
       1841.0000       291.03855       99577.923       8205.2974      0.71725000       2.9902500      0.19250000       343.30100       2.6408491    0.0075672809
       1846.0000       290.97147       99578.533       8133.6326      0.82475010       3.2715000     -0.51000010       341.90700       1.9621093    0.0064238897
       1851.0000       290.93783       99563.337       8073.4884       1.3602500       3.2257500     0.051000000       343.07600       2.1984845    0.0067189148
       1856.0000       290.93023       99562.744       8065.6341      0.88525000       2.6435000     -0.37875000       342.30000       3.1487729    0.0073372035
       1861.0000       290.94945       99571.331       8101.8911      0.73000000       3.0150000     -0.44875000       342.88300       2.5055300    0.0068765991
       1866.0000       290.93942       99562.713       8094.4806       1.5315000       1.7465000     -0.55275010       342.61600       2.3164318    0.0082011218
       1871.0000       290.94922       99563.254       8094.3134     0.087750000       2.4905000     -0.26150000       342.12500       2.4131081    0.0081499741
       1876.0000       290.91469       99578.346       8025.7671       1.5257500       1.6227500      0.18750000       343.17100       2.2679441    0.0070791463
       1881.0000       290.93067       99577.848       8017.8026       1.6750000       2.5012500     0.028500000       342.66300       2.7101576    0.0077538258
       1886.0000       290.98352       99572.434       8046.9388     -0.26250000       1.9455000    -0.012750000       342.87100       2.6583553    0.0072366766
       1891.0000       291.09869       99564.301       8137.4157      0.78900000       2.4742500     -0.35100000       342.87500       2.6505259    0.0077327030
       1896.0000       291.16944       99567.512       8171.1088      0.92400000       2.4282500      0.11000000       342.81200       2.4335225    0.0062863198
       1901.0000       291.26235       99564.298       8221.2013       1.0292500       2.9902500     -0.24175000       342.18500       2.2659669    0.0097556640
       1906.0000       291.28551       99569.257       8203.3211      0.75775000       1.9232500     0.034000000       343.47100       2.5513964    0.0090079981
       1911.0000       291.30711       99576.518       8219.8861     -0.35775000       1.3835000     -0.29600000       342.57500       2.9121241    0.0090409501
       1916.0000       291.28480       99576.792       8264.1545     -0.17300000       2.7350000     -0.55025010       342.36900       3.0171505    0.0070847407
       1921.0000       291.29347       99574.731       8308.7175      0.27375000       2.4920000   -0.0047500000       342.58600       2.7046757    0.0066893363
       1927.0000       291.34802       99582.027       8429.3663      0.24500000       2.6410000    -0.097250010       342.23700       2.8844093    0.0082798760
       1932.0000       291.35665       99582.524       8456.3563     0.069500010       1.8592500     -0.11075000       342.28700       2.2708477    0.0078560877
       1937.0000       291.34260       99564.502       8422.1424     -0.74300000       2.0847500      0.20300000       342.67000       2.4767294    0.0071870515
       1942.0000       291.35265       99562.153       8409.2298      0.79675000       2.1402500     -0.29000000       342.07600       3.3108416    0.0076386983
       1947.0000       291.37212       99578.554       8346.6352      0.93300000       1.6287500     -0.20600000       341.72300       2.4311043    0.0071045108
       1952.0000       291.35062       99577.081       8305.0081      0.47125000      0.54400000      0.18675000       341.89100       4.5335220    0.0084341518
       1957.0000       291.30705       99562.979       8289.7839      0.13650000      0.60750000      0.23875000       342.64700       2.4305942    0.0084422860
       1962.0000       291.29665       99564.083       8278.0718    -0.045000000      0.28650000      0.36350000       342.85800       2.7587495    0.0087505805
       1967.0000       291.25303       99566.369       8270.7346    -0.042750000      0.13350000      0.29975000       343.21600       2.9684799    0.0077783768
       1972.0000       291.23564       99563.643       8252.1039     0.017000000    -0.080250000      0.16875000       342.84100       3.1607564    0.0087923817
       1977.0000       291.30454       99571.076       8243.9016     -0.28525000     -0.17250000      0.40100000       343.11400       4.6710606    0.0096514343
       1982.0000       291.31135       99577.766       8228.3477     -0.16025000       1.6520000     -0.40125000       342.38100       2.2214622    0.0076282105
       1987.0000       291.27994       99577.712       8190.6995     -0.45025000       1.6230000      0.11275000       342.99400       2.8910860    0.0064177837
       1992.0000       291.24849       99574.668       8162.9271     -0.67225000       1.4360000      0.26025000       342.32500       3.2517376    0.0068256072
       1997.0000       291.17492       99575.601       8139.9126      -1.1455000       1.3625000    -0.058500000       341.87100       3.9326571    0.0082269316
       2002.0000       291.13590       99576.349       8123.7222     -0.54275000       1.3152500     -0.20800000       343.12400       3.3306981    0.0068091235
       2007.0000       291.08147       99566.620       8100.4961     -0.63300000      0.78400000      0.41125000       342.94200       3.5330217    0.0091018094
       2012.0000       291.08572       99563.083       8098.2316     -0.14875000       1.9542500     0.024500000       341.62300       3.4264085     0.014439747
       2018.0000       291.17593       99570.896       8126.8175     -0.40325000       1.2820000      0.23075000       342.10600       3.3218745    0.0096738103
       2023.0000       291.21558       99571.117       8138.8631     -0.15250000       1.3975000     -0.22675000       341.58200       2.8956282    0.0077308869
       2028.0000       291.27650       99562.539       8143.8230     -0.10550000       1.1397500    -0.096000000       341.66100       3.9884755    0.0090389494
       2033.0000       291.32267       99564.708       8172.4173    0.0015000000       1.0330000     -0.12875000       341.94600       4.5151338    0.0084692784
       2038.0000       291.36348       99578.658       8231.9098     -0.31850000       1.1087500     -0.11025000       342.19800       3.1141381    0.0070107960
       2043.0000       291.35606       99576.188       8242.4245     -0.34725000       1.6572500      0.20650000       342.87200       2.8009230    0.0082171509
       2048.0000       291.31824       99562.990       8252.9841     -0.50925000      0.42500000      0.28300000       342.96500       3.1770112    0.0084102998
       2053.0000       291.29462       99564.617       8244.4939     -0.18525000      0.93075010      0.32375000       343.53900       3.6716278    0.0098108286
       2058.0000       291.22255       99568.250       8186.9494     -0.55250000       1.2507500    -0.081750010       342.14100       4.2872901     0.011354695
       2063.0000       291.17654       99563.290       8137.3390     -0.11350000       2.0542500      0.27475000       342.61500       4.8299503    0.0094863044
       2068.0000       291.12205       99562.505       8068.8805     -0.20350000       1.6337500     -0.49950000       341.72700       4.2583976     0.011475576
       2073.0000       291.14368       99567.516       8039.8905    -0.091750000       1.5677500      0.13400000       342.86700       2.8666008    0.0085829537
       2078.0000       291.19420       99568.519       8015.3048     -0.25900000       1.6505000     -0.40600000       341.79500       2.4092585    0.0076547287
       2083.0000       291.26598       99563.545       8000.1705    0.0050000000       1.6545000     -0.37325000       341.68300       2.2958255    0.0083055327
       2088.0000       291.46330       99562.083       8037.7673      0.32775000       1.4387500      0.11400000       342.19700       4.3547893    0.0097936446
       2093.0000       291.55270       99567.048       8036.7651      0.59725000       1.9617500      0.54100000       343.14600       4.7719505    0.0088939536
       2098.0000       291.62937       99565.591       8002.8674     -0.22700000       1.6295000      0.14875000       343.00200       3.8298449    0.0083445230
       2103.0000       291.62025       99563.358       7989.8663     -0.24225000       2.0782500     -0.12275000       341.61200       3.0618572    0.0084469225
       2109.0000       291.49682       99576.036       7978.2383      0.14750000       1.0215000     -0.28000000       342.49800       3.3247048    0.0097272484
       2114.0000       291.40524       99578.510       7966.0732      0.44125000       1.5567500     0.039500000       342.72800       3.0621094    0.0078136903
       2119.0000       291.22040       99565.718       7958.3600       1.0380000       2.0137500     -0.12950000       341.81500       2.2343253    0.0057219293
       2124.0000       291.13915       99561.941       7950.6081      0.43200000       1.6290000     -0.13450000       342.21400       3.0552451    0.0083149402
       2129.0000       291.10256       99564.864       7936.7440     0.069000010       1.5587500      0.27975000       342.28000       2.9989715    0.0075502895
       2134.0000       291.07480       99565.915       7931.4595      0.39100000       1.8150000    -0.062000000       342.22700       3.4632801    0.0094645262
       2139.0000       291.07771       99564.575       7925.0378       1.0062500       1.7375000      0.11950000       342.16400       3.2265836     0.010983891
       2144.0000       291.10990       99565.194       7941.1958     0.092750010       1.7485000     -0.16425000       342.15900       3.6527526    0.0091908262
       2149.0000       291.18388       99571.389       7982.7497       1.1420000      0.76425000      0.59675000       343.23600       2.3626686    0.0082276067
       2154.0000       291.22329       99571.133       7995.9168      0.47325000       1.6367500     -0.19450000       341.97100       2.9930668    0.0075211813
       2159.0000       291.33411       99565.086       8044.7009     -0.17000000       1.5740000      0.56850000       342.76600       3.7684552    0.0094067389
       2164.0000       291.31195       99564.764       8014.3547      0.16250000       1.5292500     -0.38750000       342.19000       4.1596269     0.011751045
       2169.0000       291.19601       99565.762       7909.2432      0.52825000       1.4855000     -0.19675000       341.55600       4.3303733    0.0087795709
       2174.0000       291.10319       99564.782       7854.8295      0.41800000       1.7730000     -0.18875000       341.67500       2.6356953    0.0057521860
       2179.0000       290.92636       99564.816       7765.4279      0.31900000      0.87675010      0.39875000       342.38500       3.6127933    0.0088373821
       2184.0000       290.82844       99565.791       7731.0529      0.42875000       1.4082500     -0.35500000       341.94300       3.0773816    0.0093731414
       2189.0000       290.75882       99568.151       7752.7527      0.76400010       1.8965000    -0.013750000       342.42800       2.0693600    0.0078080843
       2194.0000       290.71186       99564.008       7747.1556      0.23625000       1.0512500      0.58775000       342.62400       2.0394383    0.0076842015
       2200.0000       290.69717       99554.275       7745.6720       1.8682500       2.1542500     -0.82275000       343.45400       2.8680683    0.0078827492
       2205.0000       290.68584       99555.031       7750.4547       1.1892500      0.59000000     -0.51400000       341.65800       2.5008062     0.011268961
       2210.0000       290.70084       99554.049       7771.6933       1.5632500      0.21150000      0.35800000       342.53800       2.5971716    0.0089671349
       2215.0000       290.70107       99554.921       7746.7106       1.2382500       1.0407500     -0.12500000       342.71900       3.1403557    0.0081248173
       2220.0000       290.70935       99563.821       7712.1705       1.2440000      0.60725000      0.37525000       343.29900       2.7780526    0.0079358821
       2225.0000       290.69079       99570.906       7666.6731       1.9487500       1.1392500     -0.13225000       341.63900       2.6008492    0.0071169001
       2230.0000       290.65297       99578.266       7566.1742       1.5615000       1.0225000     -0.32025000       341.58800       2.4081850    0.0078372524
       2235.0000       290.63293       99573.797       7530.1185       1.6707500       1.4275000     0.051750000       342.13500       3.7451023    0.0074522602
       2240.0000       290.59707       99563.801       7522.8198       1.1087500       1.0697500    -0.070750010       341.64200       3.5354063    0.0078455270
       2245.0000       290.58591       99566.566       7512.7193      0.92500010      0.72025000      0.13375000       342.58900       3.9971610    0.0090222707
       2250.0000       290.57277       99566.240       7510.3654      0.98200010      0.85400000      0.14075000       343.06400       3.6024115    0.0075482838
       2255.0000       290.63017       99561.350       7542.1146       1.6362500       1.2277500      0.18500000       342.50200       2.0116358    0.0085983270
       2260.0000       290.72921       99566.185       7598.6037       1.0800000       1.3995000     -0.10050000       342.54900       2.0167098    0.0066615665
       2265.0000       290.80825       99567.587       7637.0104       1.5320000       1.2917500     -0.15350000       341.59200       2.8855790    0.0087723398
       2270.0000       290.94810       99555.366       7700.6955       1.3640000       1.5305000     -0.27400000       341.90700       3.0158375    0.0081913619
       2275.0000       291.02079       99550.118       7746.6210      0.64775000      0.86850010     0.028000000       342.18000       3.1493288    0.0080807013
       2280.0000       291.07614       99558.374       7787.2775      0.68225000      0.64600000     -0.21100000       342.32500       2.1035011    0.0064945918
       2285.0000       291.05096       99553.916       7781.4298      0.65700000       1.5747500     -0.53550000       343.28700       1.9627389    0.0079631623
       2291.0000       290.94367       99531.486       7748.6873       1.2697500       1.0172500      0.28425000       342.84200       1.9749744    0.0059172141
       2296.0000       290.93461       99533.109       7749.8220      0.47350000     -0.18300000      0.55325000       342.79100       1.9518652    0.0069517256
       2301.0000       290.88738       99544.664       7716.0367      0.97300000      0.20075000     0.010250000       342.61000       1.9338352    0.0073529487
       2306.0000       290.88092       99549.966       7714.8686       1.6992500      0.77375000    -0.089500000       343.00500       1.9156343    0.0070789327
       2311.0000       290.94972       99564.045       7755.7111       1.0687500      0.27725000      0.48250000       343.60800       1.9523623    0.0062534249
       2316.0000       290.97619       99545.300       7793.4724       1.4805000      0.37275000     0.032250000       342.31800       1.9156569    0.0066486247
       2321.0000       290.99522       99542.699       7806.2055       1.2842500      0.23200000    -0.053750000       342.54000       1.9242449    0.0074592645
       2326.0000       291.05566       99551.388       7839.6098       1.9187500      0.20225000    -0.038750000       342.27100       1.9239479    0.0067612812
       2331.0000       291.10660       99550.440       7854.0627       2.4110000      0.94650010     -0.34025000       342.31500       2.0184912    0.0071200045
       2336.0000       291.14531       99549.492       7846.8722       2.7180000      0.65000000     0.042500000       342.62600       1.9834988    0.0064377795
       2341.0000       291.16227       99556.084       7796.3826      0.85900000      0.41850000      0.39675000       342.69700       1.9585038    0.0073791953
       2346.0000       291.13928       99559.917       7762.2908      0.88050000       1.0740000     -0.38400000       342.60300       1.9701084    0.0063236730
       2351.0000       291.11689       99555.265       7733.9955       1.1535000      0.38625000     -0.43625000       342.97500       1.8841375    0.0075235556
       2356.0000       290.96832       99552.104       7640.7757      0.59625010      0.54950000    -0.085750010       342.65800       1.9597542    0.0073832659
       2361.0000       290.88495       99555.064       7589.4121       1.1695000       2.1512500    0.0042500000       342.84200       1.9350473    0.0058347086
       2366.0000       290.82884       99558.166       7551.4237       2.3972500       1.9715000      0.10575000       342.01300       2.2394203    0.0070660035
       2371.0000       290.78680       99555.132       7520.8445       1.8125000       1.2520000    -0.092000010       342.05400       1.9425998    0.0083259865
       2377.0000       290.77180       99552.842       7500.2096       2.4205000       1.1245000     -0.35100000       341.81800       1.9531176    0.0067706312
       2382.0000       290.79416       99555.805       7524.1036       2.2117500     -0.22575000      0.35975000       342.91600       1.9648635    0.0089473515
       2387.0000       290.86602       99557.500       7591.0082       3.3955000      0.26500000     -0.13575000       342.31500       1.9161960    0.0070039121
       2392.0000       290.90599       99554.490       7633.8900       2.7440000     -0.51125000     0.034500000       343.57100       1.9608460    0.0083932568
       2397.0000       290.96554       99554.351       7718.1142       2.5397500      0.52425000     0.048250000       342.48300       1.9459343    0.0056543863
       2402.0000       291.01481       99556.351       7770.0417       4.8337500       2.6407500      -1.3127500       342.50600       1.9644234    0.0097865876
       2407.0000       291.03452       99552.884       7773.8493       5.0375000       2.2745000      0.59150000       342.43100       1.9348884    0.0063165318
       2412.0000       291.05471       99548.990       7790.4193       4.0715000       2.6115000     -0.30350000       342.39100       1.9658609    0.0060389255
       2417.0000       291.07636       99547.306       7807.1023       3.8635000       1.9527500     0.036750000       343.04200       2.1671627    0.0076244784
       2422.0000       291.10626       99550.436       7825.8407       1.3365000       2.5025000       1.2222500       343.06500       2.6856859    0.0067981615
       2427.0000       291.10390       99553.662       7844.3935       2.0557500       3.3057500     -0.63900010       342.45200       3.0517336    0.0082432117
       2432.0000       291.14674       99554.808       7859.9356       1.8302500       2.8160000     -0.10625000       343.13500       2.1027851    0.0086576438
       2437.0000       291.24397       99563.645       7862.4467       1.5167500       2.9787500     -0.30450000       342.53700       2.2477638    0.0074343475
       2442.0000       291.31428       99567.183       7889.9080      0.49525000       2.5727500     0.056250000       342.52000       2.1847789    0.0065841987
       2447.0000       291.38751       99559.694       7924.9172       1.2830000       1.2052500     -0.14600000       343.00000       2.7706562    0.0081927787
       2452.0000       291.46787       99558.875       7968.8439      0.21900000       1.3385000     -0.12325000       342.71600       2.5353799    0.0081429599
       2457.0000       291.61587       99567.982       8121.0003     -0.14450000       1.9587500     -0.30450000       342.93700       2.5189597    0.0068827302
       2462.0000       291.62881       99566.562       8123.5979     0.083500010       2.3680000     -0.19575000       342.76500       2.8122885    0.0074700183
       2468.0000       291.56417       99554.554       8012.6112     -0.90250000       3.3492500     -0.37125000       342.33100       3.3193304    0.0089259077
       2473.0000       291.49005       99554.315       7927.2098     -0.14375000       2.8302500     -0.47225000       342.88200       2.2373648    0.0065459998
       2478.0000       291.28661       99558.439       7732.3240     -0.96900000       2.9400000      0.56275000       342.72300       2.8761826    0.0067935161
       2483.0000       291.14024       99554.125       7602.9280      -1.4437500       3.1460000     -0.13475000       342.35800       2.2585456    0.0075686655
       2488.0000       290.99715       99548.386       7516.5617     -0.40000000       2.8580000     -0.24900000       342.70700       2.5614618    0.0085556997
       2493.0000       290.90403       99550.825       7430.9142      -1.7397500       2.7380000      0.71675000       342.56200       3.3907905    0.0074815159
       2498.0000       290.81469       99552.824       7328.7645       1.2615000       3.3225000       1.4395000       343.66900       2.0613268    0.0084686961
       2503.0000       290.76526       99548.849       7269.0715      0.78350000       1.9330000      0.28750000       342.75100       2.8333128    0.0065638177
       2508.0000       290.76105       99547.930       7231.7645       1.3880000       3.1570000     -0.13225000       342.82400       2.5676084    0.0072239178
       2513.0000       290.80196       99551.878       7229.6412       1.3752500       3.1980000     -0.59550010       342.45000       2.6071641    0.0069758892
       2518.0000       290.91169       99552.401       7278.5201       1.1045000       4.2625000     -0.69150000       342.29000       3.6349326    0.0074236910
       2523.0000       290.97177       99548.357       7309.0922      0.57475000       2.0492500      0.14800000       342.63800       2.4221316    0.0067321732
       2528.0000       291.05901       99547.799       7359.7432       1.7720000       2.2377500     -0.38100000       342.90500       2.6209367    0.0086047513
       2533.0000       291.13607       99551.869       7412.6985       2.0082500       2.0050000     0.053500000       342.45000       2.0838690    0.0064993489
       2538.0000       291.17765       99551.675       7455.4740       3.3490000       2.2457500     -0.58825000       343.10900       3.1724431    0.0063998588
       2543.0000       291.21788       99549.102       7511.7178       3.0495000       1.8037500      0.44800000       342.47900       2.4082008    0.0088641688
       2548.0000       291.29046       99553.051       7587.2464       2.0552500       2.6825000    -0.046250000       342.64900       3.2017468    0.0071477542
       2553.0000       291.32244       99557.645       7664.1529      0.18025000       2.6715000     -0.25650000       342.39200       2.5104428    0.0063939552
       2559.0000       291.31123       99554.265       7790.0008       1.6300000       2.9010000     -0.28225000       341.83300       3.1774633    0.0079475767
       2564.0000       291.29504       99554.502       7827.2780      0.91025010       2.3642500    -0.055750000       342.79600       2.5084308    0.0071563793
       2569.0000       291.29424       99565.929       7860.4348     0.042250000       1.6037500    -0.096750010       343.21200       2.3874769    0.0064789220
       2574.0000       291.22483       99567.967       7835.5571       1.1910000       1.7805000     -0.38000000       342.77900       2.7875568    0.0066617250
       2579.0000       291.07518       99559.252       7711.1872       1.9895000       2.1847500     -0.45250000       342.37400       2.4315911    0.0077415993
       2584.0000       291.00092       99559.453       7655.2105       1.5202500       3.4045000      0.31375000       341.97300       2.4527156    0.0072556492
       2589.0000       290.93533       99567.883       7605.0425       1.2402500       2.3197500     -0.24900000       342.10200       4.7002981    0.0077987515
       2594.0000       290.84536       99565.077       7554.0716       1.1185000       2.2412500     -0.20800000       342.50900       3.2748780    0.0072107069
       2599.0000       290.78506       99554.257       7516.7704       1.0510000       1.6795000      0.60950010       342.83600       2.4392525    0.0080651906
       2604.0000       290.70934       99554.514       7485.7167       1.9297500       2.0485000     -0.58675000       342.26200       2.1876671    0.0083901078
       2609.0000       290.58387       99557.642       7446.5029       2.1580000       3.3727500     -0.72325000       342.00200       2.0394123    0.0070895260
       2614.0000       290.48985       99553.074       7423.2554       1.7457500       1.6502500     -0.18375000       342.48800       1.9931446    0.0071247648
       2619.0000       290.40633       99548.873       7412.4845       1.5740000       1.5265000      0.65400000       343.39300       1.9446557    0.0068743901
       2624.0000       290.36893       99551.640       7422.0957       2.8797500       1.7290000      0.10750000       342.29900       2.2299471    0.0073941082
       2629.0000       290.34443       99551.067       7450.3442       1.9012500       1.6802500      0.13875000       341.99200       2.2954536    0.0082163086
       2634.0000       290.33701       99548.727       7467.3433       2.6700000       1.9677500     -0.38500000       342.20800       2.3452163    0.0069750149
       2639.0000       290.37664       99554.067       7493.0143       1.2457500       1.9720000    -0.038750000       343.07700       2.9279313    0.0075087928
       2644.0000       290.42243       99558.418       7532.5322       2.1720000       2.2560000      0.29650000       342.44100       3.9102805    0.0069559355
       2650.0000       290.48274       99554.115       7567.6932       2.0245000       2.3302500     -0.30650000       342.16600       2.3328069    0.0057316914
       2655.0000       290.54079       99554.846       7630.1825       1.7037500       2.0270000     -0.13550000       342.61700       3.1557289    0.0073295360
       2660.0000       290.65111       99568.705       7737.7509       2.3985000       2.8095000     -0.14275000       342.62600       2.4330020    0.0088195265
       2665.0000       290.69362       99566.255       7813.7711       1.6780000       1.8075000      0.14825000       342.47700       2.0066123    0.0074621997
       2670.0000       290.71117       99548.354       7918.4592       1.9132500       3.0725000     -0.14900000       342.01400       2.1563601    0.0078732805
       2675.0000       290.70377       99548.927       7926.3652       1.0110000       2.3325000     -0.47875000       342.27000       2.6532601    0.0087298920
       2680.0000       290.65391       99557.310       7882.2693       1.8337500       2.6837500     -0.47525000       341.95300       2.5799865    0.0069730026
       2685.0000       290.63409       99553.604       7846.6810       1.6955000       2.1912500      0.16425000       342.36000       1.9519324    0.0088896605
       2690.0000       290.57906       99548.985       7742.4851       1.3522500       2.6707500     -0.14700000       342.43500       1.9634610    0.0062107674
       2695.0000       290.60498       99551.756       7696.7793      0.25175000       1.8622500  -0.00025000000       343.04600       2.1378727    0.0074390448
       2700.0000       290.68050       99550.968       7677.0115       1.6182500       2.6917500     0.043250000       342.99200       1.9801858    0.0078823575
       2705.0000       290.73958       99547.052       7658.4644       1.0957500       2.2085000     -0.78400000       342.56000       2.1466620    0.0074886168
       2710.0000       290.82581       99549.426       7629.0220      0.91250000       1.1217500      0.18275000       342.85100       2.0474323    0.0080901564
       2715.0000       290.92557       99553.501       7657.9475       1.3840000       1.9480000     -0.91425000       342.06100       2.0309422    0.0087536936
       2720.0000       291.04441       99548.502       7728.3347       2.0287500       1.8007500    0.0070000000       342.16800       2.0712854    0.0069815905
       2725.0000       291.11586       99550.102       7790.5265      0.78975000       2.4410000     -0.27125000       342.19200       1.9984677    0.0083289591
       2730.0000       291.20952       99566.991       7905.1677       2.2442500       1.9655000     -0.58900000       342.00500       2.0079208    0.0065829663
       2735.0000       291.24273       99569.455       7947.5844      0.58825000       1.7177500      0.26300000       342.89900       2.0050549    0.0077531425
       2741.0000       291.20601       99558.970       7963.6300       1.4187500       1.4152500     -0.13650000       342.09400       2.0653691    0.0074438690
       2746.0000       291.18502       99560.195       7968.7776      0.74350010       1.4185000     -0.50800000       342.04700       1.9897043    0.0074291086
       2751.0000       291.14391       99567.713       7932.5727      0.92325000      0.81050000      0.20450000       342.95200       2.0654549    0.0085976169
       2756.0000       291.14507       99561.086       7949.4480      0.88525000       1.4275000     -0.27675000       342.08100       2.0349868    0.0095582550
       2761.0000       291.14391       99548.493       7988.1915      0.61625000       1.8830000      0.17050000       343.16400       4.9357495     0.013545614
       2766.0000       291.19958       99554.391       7994.3360       1.0617500       1.4652500     -0.35775000       342.27900       2.5486882    0.0070173089
       2771.0000       291.21250       99550.460       7995.0001       1.4965000       1.7490000     -0.47700000       342.51600       2.6711058    0.0088859689
       2776.0000       291.19985       99547.929       7970.9308      0.75775000       1.6140000     -0.69650000       342.57800       2.5339393    0.0073309835
       2781.0000       291.16258       99551.067       7934.6335       1.8022500      0.62500000      0.83250000       343.09600       2.3883730    0.0076858627
       2786.0000       291.10072       99552.983       7891.4211      0.64700000      0.40125000      0.24050000       343.53700       2.3586461    0.0074883943
       2791.0000       291.00225       99542.210       7850.2314      0.29475000       1.3055000      0.11800000       343.17100       2.2356900    0.0073192446
       2796.0000       290.93181       99547.139       7803.6886      0.52625000       1.6217500     -0.17875000       343.27400       2.3781273    0.0072646093
       2801.0000       290.83201       99568.887       7734.5472       1.3347500       1.7927500      0.73400000       343.49500       2.6264296    0.0080634304
       2806.0000       290.86020       99555.197       7696.3267       1.1902500       2.0495000     -0.66250000       342.38900       2.6560370    0.0070511619
       2811.0000       290.85030       99553.869       7663.8224      0.67825000       1.6522500      0.37500000       343.41300       2.5354578    0.0077845416
       2816.0000       290.85543       99559.750       7628.9109      0.25450000       1.6547500      0.12500000       343.04100       2.3492566    0.0078551309
       2821.0000       290.85662       99555.886       7609.7563     -0.16800000       1.9575000      0.60950010       343.09800       3.4261134    0.0081828793
       2826.0000       290.83010       99547.629       7613.9092       1.9442500       2.3027500    -0.038500000       342.14900       2.4073875    0.0077915738
       2832.0000       290.79454       99549.927       7611.2301      0.97175000       1.9415000      0.43150000       342.93200       3.2616505    0.0093377649
       2837.0000       290.76688       99551.824       7615.2604      0.40075000       2.1597500      0.44000000       342.97900       2.4418786    0.0067670492
       2842.0000       290.74690       99548.946       7620.1753       2.4755000       1.3015000     -0.80250000       342.41300       2.1751277    0.0068620032
       2847.0000       290.69649       99557.470       7621.6563       1.2857500       2.8987500     -0.15250000       342.01000       2.9440115    0.0074152143
       2852.0000       290.68887       99557.975       7625.1429       1.3127500       2.4662500     -0.39350000       342.41200       2.7174503    0.0075524062
       2857.0000       290.72032       99533.993       7625.1071       1.1685000       1.9657500     -0.55125000       342.49200       2.7581501    0.0083599708
       2862.0000       290.75146       99530.655       7640.6358       1.7797500       2.2282500     -0.19250000       342.67600       2.8148773    0.0091552043
       2867.0000       290.83918       99550.569       7677.5913       2.0920000       1.8585000     -0.24250000       341.96700       2.3466207    0.0080274723
       2872.0000       290.86655       99552.159       7693.6730       1.3205000       2.3392500     -0.20700000       341.92000       2.5361185    0.0068074983
       2877.0000       290.87220       99553.156       7722.6642      0.77850000       1.3212500     -0.22575000       342.70700       1.9535653    0.0089946478
       2882.0000       290.85944       99552.588       7728.2763       1.7322500      0.58350000      0.36700000       342.51500       2.0299183    0.0081070304
       2887.0000       290.76179       99528.805       7683.2452       1.4337500      0.55500000      0.38775000       342.46300       2.0920973    0.0095577058
       2892.0000       290.73419       99525.894       7676.2033      0.81875000      0.10275000      0.57250010       343.72900       2.3833529    0.0076262216
       2897.0000       290.74415       99548.450       7685.1694       1.7332500       2.6685000     -0.27700000       341.94500       2.1766558    0.0078891586
       2902.0000       290.74539       99553.209       7689.5461       1.1182500       3.0650000      0.81550000       342.37200       2.1932560    0.0076982108
       2907.0000       290.79065       99553.561       7721.9519       1.3212500       1.5587500    0.0075000000       343.01300       2.0524647    0.0077257965
       2912.0000       290.80912       99557.296       7732.2099       1.8075000       1.6370000      0.57225000       342.79900       2.1632880    0.0070037783
       2917.0000       290.81443       99554.343       7719.7133       2.6220000       2.1242500     -0.64750000       341.86900       2.5124162    0.0082640195
       2923.0000       290.79970       99548.417       7714.1469       1.5770000      0.71100000      0.21275000       342.79800       2.0855616    0.0087260082
       2928.0000       290.72309       99542.770       7681.7039       1.3242500      0.71150000      0.47375000       343.23600       3.1277451    0.0083661911
       2933.0000       290.74476       99545.536       7699.8496       1.3740000      0.43275000     0.094500010       343.11200       1.9932463    0.0078158863
       2938.0000       290.83194       99551.102       7767.6317       1.3545000       2.0037500    -0.083750000       342.82600       2.0597388    0.0086038672
       2943.0000       290.86188       99550.135       7793.4483       1.5695000       1.5345000      0.12175000       343.10800       2.2162773    0.0086519495
       2948.0000       290.97262       99553.965       7827.1468      0.93100010       1.0010000      0.39650000       343.67900       2.5055725    0.0083398828
       2953.0000       290.97487       99557.127       7856.8801       1.9330000       1.9742500    -0.027250000       342.89900       2.8585242    0.0091593808
       2958.0000       290.84172       99549.403       7861.2001      0.95475010       1.3952500     -0.58800000       343.00800       2.2798564    0.0089134332
       2963.0000       290.77243       99548.549       7860.6399       1.1282500       2.0927500      0.61350010       343.16700       2.2289911    0.0081874208
       2968.0000       290.67214       99563.341       7870.4018       1.2367500       2.3420000      0.10925000       342.92300       2.3062970    0.0076011858
       2973.0000       290.61993       99562.381       7869.7420      0.79850010       2.2050000     0.074250010       342.95400       2.6488142    0.0081645713
       2978.0000       290.60566       99543.949       7846.2955      0.43275000      0.84750000      0.35050000       343.58000       2.8214718    0.0096451338
       2983.0000       290.58953       99543.555       7823.6254       1.8082500       1.8370000     -0.30575000       343.18000       2.2126957    0.0071346790
       2988.0000       290.58737       99552.349       7801.3595       2.0635000      0.85125010      0.83050010       343.24600       2.6984070    0.0082977795
       2993.0000       290.60122       99550.012       7783.7053      0.84475000       1.3645000      0.43300000       343.27700       2.4175696    0.0083472841
       2998.0000       290.62541       99552.008       7743.0418       2.5622500       2.5105000     -0.42575000       342.45000       2.6607495    0.0086795091
       3003.0000       290.65901       99551.920       7734.4015       2.5557500       2.0777500      0.37050000       342.06900       3.0664797    0.0091912345
       3009.0000       290.73006       99531.535       7752.7258       1.6652500       1.9880000     -0.20600000       342.65400       2.7329152    0.0087785329
       3014.0000       290.77977       99532.869       7771.9758       1.8360000       1.5535000      0.40900000       343.08400       2.4208446    0.0074949280
       3019.0000       290.81736       99559.568       7796.7086       1.1550000      0.95750000     -0.46525000       343.53300       4.4446363     0.011614633
       3024.0000       290.88411       99557.123       7844.4049       1.6977500       1.1167500     -0.15475000       343.07700       3.8264773    0.0094759300
       3029.0000       291.02659       99539.342       7925.2981       2.1867500       1.7172500   0.00075000000       342.77400       2.4639255    0.0075243304
       3034.0000       291.01522       99539.689       7969.1630       1.3927500       1.7630000     0.059000000       343.54700       2.5351562    0.0078176536
       3039.0000       290.92765       99534.122       8019.1145       1.9190000      0.56125000    -0.013750000       342.58300       3.1668041    0.0079404124
       3044.0000       290.87516       99532.564       8049.4370      0.90425000      0.32100000     0.037250000       343.42100       2.0594127    0.0079593214
       3049.0000       290.69168       99552.562       8043.1492       2.5165000     0.038750000      0.75600000       342.84600       3.1504068    0.0098815278
       3054.0000       290.65328       99553.777       8049.5287       2.3142500       2.1375000     -0.34700000       342.63200       2.8800448     0.010314906
       3059.0000       290.72988       99532.624       8061.7488       2.8717500       1.5080000     -0.27275000       341.91000       3.0985404    0.0093181689
       3064.0000       290.76659       99532.760       8066.9528       2.3750000       1.5952500     -0.61950000       342.95300       2.9597385    0.0084913406
       3069.0000       290.85165       99546.384       8074.5853       1.7122500       2.0255000     -0.39425000       341.97900       2.9700225    0.0083150526
       3074.0000       290.86908       99546.092       8053.0584       1.5440000       2.0725000      0.17750000       342.68800       2.5566758    0.0086824759
       3079.0000       290.85640       99546.237       8012.6720       2.1462500       1.5825000     -0.41100000       342.30200       2.3276473    0.0085430362
       3084.0000       290.85014       99546.024       7980.4913       1.7535000       1.6370000     -0.34775000       342.06200       3.0591161    0.0090201806
       3089.0000       290.77832       99531.349       7910.0660       1.6615000       1.1772500      0.10625000       342.33900       3.3036824    0.0092028927
       3094.0000       290.79716       99534.091       7893.3049       1.0662500      0.88025000     0.052250000       342.88900       3.3404264    0.0086078882
       3100.0000       290.87318       99559.920       7895.1722       1.4580000       1.1747500      0.29825000       342.54900       2.7482576     0.010087385
       3105.0000       290.94966       99555.960       7944.0484       1.9712500       1.6782500    -0.027250000       342.55900       2.7309015    0.0081013384
       3110.0000       291.09587       99539.269       8054.7412       1.6947500       2.1875000     -0.42750000       342.59900       2.6628658    0.0080158369
       3115.0000       291.15845       99539.920       8107.5674       1.1212500       1.3705000      0.13075000       342.75100       2.8445748    0.0089658250
       3120.0000       291.20480       99531.503       8170.6241       1.6740000       1.7225000     -0.56425010       342.53300       2.1256257    0.0072056609
       3125.0000       291.22755       99534.612       8228.6022       1.0997500       1.6415000      0.14325000       342.22200       2.5143472    0.0083735151
       3130.0000       291.20001       99564.624       8261.6781      0.74275000       4.3752500      0.13175000       343.02900       3.3746974    0.0097852000
       3135.0000       291.20001       99564.771       8283.7103      0.82300000       3.3560000     -0.16225000       342.22800       3.0719677    0.0091743296
       3140.0000       291.20952       99543.639       8334.4776      0.63025000       1.7285000      0.71300010       342.63100       2.2492591    0.0080048552
       3145.0000       291.19105       99543.190       8319.3261       1.8817500       2.4450000      0.82975010       342.91300       2.8592411    0.0069765240
       3150.0000       291.14554       99544.853       8235.0288      0.44625000       2.1260000     0.096250010       343.05800       3.0225794    0.0096388568
       3155.0000       291.14437       99543.816       8194.6894     -0.25050000       2.3502500      0.20350000       342.88800       2.0496486    0.0072830838
       3160.0000       291.14352       99552.684       8153.3080      0.17575000       1.7827500    -0.034250000       342.75600       3.0129390    0.0096779427
       3165.0000       291.15230       99550.161       8101.8175     0.060000000       2.0390000      0.82250010       343.25800       3.2831929     0.011242253
       3170.0000       291.20351       99532.033       8046.8719       1.2920000       1.9175000      0.17900000       342.83700       2.7860128    0.0095123752
       3175.0000       291.21482       99533.290       8006.9900       1.1052500       2.2227500      0.15575000       342.53200       2.8082622    0.0080432643
       3180.0000       291.20018       99546.428       7954.5817       1.9392500       3.3737500     -0.79000000       342.88500       2.1853434    0.0089390747
       3185.0000       291.20011       99545.645       7930.0643       1.7427500       3.1840000     -0.71275000       342.02500       2.4432942    0.0075214564
       3191.0000       291.20030       99546.699       7934.2308       1.8870000       4.0930000     -0.27850000       342.35000       2.5565363    0.0076379081
       3196.0000       291.20042       99545.533       7928.3271       1.5550000       3.0685000      0.21575000       342.18600       2.5013073    0.0066431917
       3201.0000       291.19973       99532.005       7927.3361   -0.0057500000       2.4105000      0.53700000       342.43400       2.6507077    0.0089155587
       3206.0000       291.19961       99535.738       7916.0731      0.19650000       2.4560000     -0.57700000       341.93000       2.9747409     0.012522765
       3211.0000       291.19381       99552.726       7896.3000       1.5102500       2.0812500     -0.22650000       342.00800       2.0501950    0.0073431748
       3216.0000       291.21583       99543.564       7906.9717       1.7862500       2.3560000     -0.97975000       342.32000       3.2845336    0.0095320471
       3221.0000       291.24478       99544.310       7930.5822      0.95150010       2.2885000    -0.026000000       342.45000       2.1868785    0.0082295822
       3226.0000       291.33023       99543.824       8012.2206      0.62825000       2.9980000     -0.15950000       342.54000       2.7570779    0.0085375181
       3231.0000       291.36226       99543.477       8060.2908      0.34500000       2.9257500      0.87850000       343.01500       2.9276686    0.0079861014
       3236.0000       291.36965       99546.797       8095.5866      0.49650000       2.3592500      0.81350000       342.97700       2.8169755    0.0079986478
       3241.0000       291.35661       99565.571       8118.9678       1.3557500       1.6762500     0.050000000       343.02400       2.5349004    0.0088450308
       3246.0000       291.34463       99557.411       8145.7194       2.3147500       2.8820000      0.60400000       342.43300       2.2651997    0.0070913960
       3251.0000       291.29971       99533.564       8161.9813       1.9485000       4.1867500      -1.8570000       342.18000       2.4865019    0.0088111830
       3256.0000       291.25507       99524.074       8159.9363       1.5640000       3.3992500     -0.33400000       342.37100       2.8971387    0.0093662614
       3261.0000       291.24371       99521.174       8158.1822       1.6185000       3.1045000     -0.70150010       342.03400       2.4047054    0.0094527284
       3266.0000       291.24467       99549.294       8131.0990       2.0042500       2.0817500     -0.20925000       342.11700       2.9642672    0.0085129204
       3271.0000       291.24352       99555.022       8107.3694       1.8262500       3.1402500      0.11800000       342.35200       2.1673546    0.0099850154
       3276.0000       291.26993       99534.902       8081.9189      0.75150000       3.1262500     -0.10225000       342.00200       2.7988953    0.0093557111
       3282.0000       291.30562       99533.726       8067.3376       1.3762500       3.0045000    -0.038500000       342.63300       2.1628305    0.0078961154
       3287.0000       291.31848       99534.784       8042.2639      0.21100000       1.5182500      0.12875000       342.42900       2.7110167    0.0078200807
       3292.0000       291.34977       99533.217       8046.9427      0.54925000       1.4745000       1.1147500       343.05100       2.3883593    0.0079160072
       3297.0000       291.42371       99552.616       8090.9466     -0.48550000       3.0130000   -0.0055000000       341.84000       2.4659264    0.0087363830
       3302.0000       291.46282       99554.712       8120.2395      0.43900000       2.2835000     -0.20625000       341.85400       2.5269449    0.0082801482
       3307.0000       291.54662       99524.840       8181.2565      0.71125000       2.1665000    -0.050500000       342.30800       2.3929076    0.0079205274
       3312.0000       291.52135       99520.511       8199.7873      0.94400010       1.5182500      0.23750000       342.93100       3.3418967     0.010100917
       3317.0000       291.36391       99534.520       8176.2591     -0.72575000      0.91175000      0.39475000       343.09900       2.6910638    0.0080978248
       3322.0000       291.28474       99535.548       8168.4800      0.87400000       2.6170000     -0.29125000       342.14200       2.5414012    0.0091127573
       3327.0000       291.16765       99548.387       8164.8477      0.40475000       2.3317500     -0.21325000       342.03700       2.6468290    0.0077438663
       3332.0000       291.07038       99549.358       8125.9535      0.88550000       2.9610000    -0.019750000       341.95800       3.0436543    0.0091253473
       3337.0000       291.01788       99519.567       8065.7392      0.45225000       2.8355000     -0.29650000       342.09800       2.9219925    0.0077488055
       3342.0000       290.98921       99515.671       8018.5529       1.2132500       2.5742500     -0.79175000       342.18300       2.5957960    0.0079864183
       3347.0000       290.95355       99533.774       7936.8884       2.4332500       2.7740000     -0.97250000       342.24400       2.7196510    0.0078764049
       3352.0000       290.93585       99536.749       7875.4855      0.11625000       1.6442500     -0.25350000       342.63500       3.0689318    0.0090093284
       3357.0000       290.99039       99548.052       7835.7444       1.0722500       2.0662500      0.18900000       343.38800       2.8604786    0.0087885080
       3362.0000       291.00860       99549.040       7804.7375       1.1260000       1.8250000     -0.28700000       342.75400       3.0764803    0.0094308690
       3367.0000       290.98556       99519.167       7764.5704      0.34400000       1.5392500      0.33500000       343.70300       2.9610671    0.0084857914
       3373.0000       291.00029       99515.440       7753.3749       1.7635000       1.6495000     -0.10350000       341.82500       2.7092144    0.0077953910
       3378.0000       291.01016       99532.695       7770.5110       1.5585000       1.6097500    -0.043500000       341.68300       3.0662619    0.0088472233
       3383.0000       291.05793       99536.817       7803.7819      0.96125010      0.16375000      0.28700000       342.21200       2.9799509    0.0075707386
       3388.0000       291.17039       99553.836       7876.5954      0.54000000       1.3622500      0.20450000       342.38400       3.1738497    0.0095888510
       3393.0000       291.22702       99553.930       7922.7330     -0.15975000       1.1635000     -0.24275000       342.49200       2.6356295    0.0077634277
       3398.0000       291.29045       99523.262       7986.5709      0.42850000      0.83650000      0.29900000       342.98300       3.5813258     0.010818784
       3403.0000       291.32345       99520.714       8019.0938      0.25675000      0.44375000    -0.079750000       342.48700       3.1078733    0.0086897722
       3408.0000       291.31324       99534.727       8026.0414       1.2372500      0.88450000     0.010750000       343.03200       3.0965386    0.0096818329
       3413.0000       291.29976       99535.752       8023.0532       1.0210000       1.4387500     -0.11275000       343.21700       3.0130236     0.010045464
       3418.0000       291.27603       99549.294       8000.2266      0.38600000       1.2047500      0.22050000       343.02800       2.2455746    0.0081190145
       3423.0000       291.24191       99548.482       7975.8076       1.0335000      0.81625000     -0.12100000       343.34200       2.6633323    0.0089951884
       3428.0000       291.15487       99517.985       7915.9333       1.1030000       2.0742500    -0.024250000       342.16000       2.4287935    0.0079430029
       3433.0000       291.13269       99516.097       7900.2319      0.66750000       2.1340000     -0.37500000       342.60700       3.0472435    0.0094088822
       3438.0000       291.14370       99534.480       7914.8006      0.42925000       1.6547500     0.071750000       342.23200       3.4141622    0.0091323291
       3443.0000       291.14754       99537.177       7908.6651       1.3975000       1.6640000      0.19150000       342.71700       2.8338284    0.0083768394
       3448.0000       291.19560       99548.937       7923.7282      0.33650000       2.1595000     -0.13250000       342.88100       2.6931874    0.0086823477
       3453.0000       291.21160       99548.206       7916.8133       1.4235000       1.6322500      0.17225000       342.74600       2.5100378    0.0087371813
       3458.0000       291.20001       99517.564       7869.2628       1.6792500       4.3005000      -1.2460000       342.28000       2.2672461    0.0091593435
       3464.0000       291.19995       99516.193       7851.6304       1.0807500       3.2472500     -0.71775000       342.03200       3.6271831     0.010248508
       3469.0000       291.21157       99534.510       7853.5014       1.1722500       2.4310000     -0.33000000       342.44700       2.6504295    0.0083881577
       3474.0000       291.19519       99536.953       7847.0958      0.86750010       1.9527500     -0.29825000       342.45300       2.8055254    0.0092977266
       3479.0000       291.18079       99543.776       7862.9648     0.077250000       2.5890000    -0.057250000       342.19600       2.5730754    0.0087163991
       3484.0000       291.12845       99549.635       7840.1694       1.1880000       3.3307500      0.27325000       342.37900       2.6515911    0.0084764094
       3489.0000       290.99272       99545.407       7768.2964    0.0075000000       3.2130000      0.14850000       342.68200       2.6489373    0.0071010914
       3494.0000       290.97073       99543.974       7759.6488      0.40950000       3.3517500     -0.20475000       341.95200       2.8291719    0.0079108064
       3499.0000       290.98572       99549.523       7761.6118     -0.17225000       3.0820000     -0.34100000       341.99800       2.7453462    0.0082021314
       3504.0000       290.99822       99552.891       7772.1571      0.31750000       2.2667500      0.15850000       342.64600       2.3511321    0.0069904907
       3509.0000       291.08767       99554.696       7832.0099      0.81525000       2.0865000      0.33625000       342.42300       2.6813241    0.0080662539
       3514.0000       291.13159       99547.840       7864.9606       1.8687500       2.9117500     -0.19550000       342.40100       3.3053054    0.0080438459
       3519.0000       291.13155       99535.880       7876.6099       1.1672500       1.7905000      0.37225000       342.68800       2.2783503    0.0092828183
       3524.0000       291.16825       99533.610       7905.7610      0.86225000       3.0592500     -0.31125000       341.72800       3.0640289    0.0069874253
       3529.0000       291.24235       99521.226       7947.6872      0.94850000       2.6392500     -0.30400000       341.73200       2.6417152    0.0084178646
       3534.0000       291.27636       99523.595       7985.5884      0.62075000       2.0647500     -0.18150000       341.68200       3.2246608    0.0092623402
       3539.0000       291.27765       99554.199       8013.1250      0.32600000       2.2502500      0.17425000       342.01500       2.2838146    0.0077663364
       3544.0000       291.32384       99554.158       8066.7468      0.61350010       1.9735000     -0.19075000       342.46000       2.2301663    0.0079004741
       3549.0000       291.39514       99535.946       8154.9680     -0.13600000       1.8795000      0.47375000       343.04800       2.1478181    0.0083333594
       3555.0000       291.42201       99533.321       8201.7014      0.49600000       2.6082500      0.66125010       343.20800       2.7799643    0.0078165616
       3560.0000       291.45207       99520.528       8252.0691      0.61025010       2.2752500     -0.36325000       342.70500       3.3841277     0.011631769
       3565.0000       291.47338       99524.824       8245.8512      0.60575000       2.5410000     -0.21875000       341.91600       2.4094117    0.0093302274
       3570.0000       291.46948       99554.628       8191.1135      0.67725000       3.0505000     -0.38800000       341.88200       2.9393780    0.0085166836
       3575.0000       291.42158       99552.658       8126.7307      0.21300000       2.3870000     -0.16850000       342.46600       3.0341137    0.0098942847
       3580.0000       291.37242       99535.825       8020.5776      0.28950000       3.3160000     -0.55625000       341.94300       3.2068771    0.0091268370
       3585.0000       291.30531       99531.839       7957.1101     -0.10600000       1.6482500      0.27125000       342.56800       2.7290540    0.0090608459
       3590.0000       291.16314       99515.327       7895.2523     -0.47575000       2.4107500      0.22475000       342.68500       2.9262133    0.0094641542
       3595.0000       291.07263       99519.304       7823.2425      0.40825000       2.3257500     -0.34325000       341.96000       2.1763952    0.0085131285
       3600.0000       291.00720       99547.566       7770.0885      0.14425000       2.5455000     -0.26700000       342.35100       3.2415605    0.0093796952
       3605.0000       290.95603       99550.211       7703.8842      0.98225000       2.5632500     -0.26375000       342.57800       2.6247141    0.0080127699
       3610.0000       290.90343       99549.208       7598.3282       1.0090000       3.0060000     -0.24350000       341.97600       2.5386565    0.0083573896
       3615.0000       290.86199       99542.899       7554.2385      0.18975000       2.2665000      0.15025000       342.20500       2.7212639    0.0085107510
       3620.0000       290.84408       99517.003       7538.7340      0.57125000       1.9885000      0.41525000       342.41800       3.0448679    0.0099886761
       3625.0000       290.84269       99515.133       7534.7862      0.52625000       2.0237500    -0.060500000       342.36900       3.0462015    0.0092606552
       3630.0000       290.84330       99523.578       7571.9547      0.64700000      0.83050010      0.26900000       343.40400       2.9241478    0.0084659744
       3635.0000       290.85207       99527.324       7565.0442       1.1787500       2.0560000     0.093750010       342.75500       2.5750678    0.0090328149
       3641.0000       290.89359       99544.000       7534.0814       1.5140000       1.3072500      0.22000000       342.85100       2.9367613    0.0088033852
       3646.0000       290.94433       99540.352       7576.9763      0.82600000       1.2542500      0.37950000       342.90000       3.6950950     0.011958776
       3651.0000       290.99865       99524.227       7620.4331      0.44675000       1.1157500     0.010000000       342.08200       2.2619366    0.0078298642
       3656.0000       291.03934       99522.460       7702.8898      0.74500010       1.2682500     -0.25775000       341.75800       2.6483534    0.0084153058
       3661.0000       291.11167       99516.782       7874.0988      0.67650000       1.0987500     -0.24725000       341.69100       2.3760396    0.0072746017
       3666.0000       291.09992       99540.815       7912.5069      0.72325000       1.4395000     0.035250000       342.18400       3.4615790    0.0093807628
       3671.0000       291.09993       99548.617       7932.4800      0.77225010       1.2422500    -0.041000000       342.32100       2.0260269    0.0084258760
       3676.0000       291.09986       99551.275       7872.9774      0.40625000       1.0410000    -0.019750000       342.27000       2.1148737    0.0061797049
       3681.0000       291.09975       99549.017       7849.4365      0.34325000      0.94725010      0.21300000       342.59100       2.4006625    0.0078665238
       3686.0000       291.09963       99539.385       7834.2292      0.84750000      0.90050010     0.096000000       342.97200       3.3647239    0.0092429863
       3691.0000       291.09386       99510.948       7820.6634      0.25275000      0.49225000     -0.32125000       341.78100       3.3865948    0.0093534048
       3696.0000       291.11552       99510.941       7814.8840      0.33150000      0.69325010      0.10575000       342.84000       2.6734112    0.0076950435
       3701.0000       291.15569       99518.451       7829.7577       1.2530000      0.27950000      0.38000000       342.82400       2.2025522    0.0081688136
       3706.0000       291.12480       99538.804       7776.7888       1.1430000       1.5315000     0.043500000       342.45500       3.7317957     0.010927541
       3711.0000       291.14326       99544.839       7796.7416      0.77250000      0.78050010     -0.33650000       342.59700       2.2487686    0.0075665262
       3716.0000       291.17508       99528.221       7917.6519       1.2390000      0.66050000      0.22725000       342.36500       2.4520625    0.0087183527
       3721.0000       291.19370       99524.015       7964.5875      0.70050000      0.81000010     -0.17775000       342.37800       2.5707167    0.0090799895
       3726.0000       291.27009       99519.252       8051.4401      0.69200000       1.2520000      0.19950000       342.51400       2.9729027    0.0093183353
       3732.0000       291.31789       99518.018       8078.7340      0.30175000       1.2635000     -0.27175000       342.07800       3.0234258    0.0093948006
       3737.0000       291.29955       99533.097       7952.1357      0.60150000       1.6302500     -0.22900000       342.29800       2.1833972    0.0076688530
       3742.0000       291.29943       99537.705       7906.8779      0.23000000       1.0760000    -0.029250000       342.49700       2.3444707    0.0076312992
       3747.0000       291.31437       99540.189       7849.1371      0.73275010       1.6597500     -0.33325000       341.82900       2.0098424    0.0086396448
       3752.0000       291.30321       99536.744       7853.1035      0.84225000       1.3285000     -0.15700000       342.44100       2.3883857    0.0084662145
       3757.0000       291.29345       99516.658       7973.3077      0.42900000      0.86050000     -0.17575000       342.11500       4.4063509     0.011441836
       3762.0000       291.25116       99512.042       8011.8179      0.64600000       1.0460000     0.055000000       342.24200       3.7010356     0.013297620
       3767.0000       291.14134       99512.042       8036.3957     0.052000000       1.5525000     -0.14275000       342.11000       3.1295441     0.011861985
       3772.0000       291.08303       99513.561       8058.0831      0.51050000       1.4272500      0.11225000       342.38400       2.5224110    0.0080072058
       3777.0000       290.98974       99535.027       7992.2352      0.98375000       1.1690000      0.20275000       342.66700       2.0176945    0.0065796411
       3782.0000       290.97528       99539.117       8000.0453       1.5405000       1.7445000     -0.41250000       341.91800       1.9671727    0.0073249724
       3787.0000       291.06826       99528.957       8092.9073      0.97475000       1.3850000     0.066250000       342.46900       2.0490218    0.0078737747
       3792.0000       291.10842       99524.800       8129.6586      0.87475000      0.66700010      0.63050000       343.07900       1.9969495    0.0070372389
       3797.0000       291.15257       99508.851       8154.4428       1.0725000      0.47675000      0.18400000       342.01900       2.2238440    0.0075970570
       3802.0000       291.21257       99506.512       8191.5599       1.2570000       1.0967500     -0.22950000       342.01400       2.6074090    0.0077981080
       3807.0000       291.25455       99520.666       8213.9841      0.68550000      0.32225000     -0.20925000       342.05100       2.9536304    0.0089454444
       3812.0000       291.30545       99526.634       8224.3648      0.22675000      0.69300000      0.54625000       343.00300       2.3690232    0.0076840983
       3817.0000       291.38591       99541.708       8240.3489      0.79625000      0.91625010     -0.24600000       342.72000       2.2694350    0.0066126687
       3823.0000       291.48119       99543.597       8265.7344      0.95050010       1.5255000     0.027750000       341.98800       2.1621357    0.0076592519
       3828.0000       291.56910       99526.608       8245.1850       1.0117500      0.96200010    -0.028750000       341.89800       2.2151878    0.0069322516
       3833.0000       291.62523       99523.403       8270.8889      0.45575000      0.53525000      0.14575000       343.22600       2.0176667    0.0067632843
       3838.0000       291.68874       99515.695       8366.2233      0.57075000       1.3817500    -0.040250000       343.06600       2.0689438     0.010393961
       3843.0000       291.72147       99518.939       8396.9045       1.4892500       1.8782500     -0.77225010       341.78900       1.9898607    0.0084214073
       3848.0000       291.72592       99544.667       8429.2325       1.1275000       1.3145000     -0.24725000       343.01500       2.5870754    0.0079751626
       3853.0000       291.69886       99549.882       8416.9051       2.0195000       1.1767500    -0.074500000       342.24000       2.5545273    0.0076949760
       3858.0000       291.65021       99551.134       8344.2388       1.4880000       2.8577500     -0.13175000       342.76500       3.1578583    0.0099401359
       3863.0000       291.58338       99545.827       8281.5756       1.6660000       2.4845000     -0.72125010       342.24000       2.9432587     0.011357764
       3868.0000       291.44875       99516.631       8195.8790       1.2480000       2.4002500      0.60500000       342.49500       2.2930080    0.0079463108
       3873.0000       291.36241       99510.017       8117.1103     0.090250010       1.6362500     0.047750000       342.93600       2.4187742    0.0095172296
       3878.0000       291.25967       99511.871       8018.9957      0.27150000       1.5267500      0.20300000       343.13600       2.9185452    0.0099640730
       3883.0000       291.22084       99514.325       7952.7528      0.22125000       2.1442500     -0.45550000       342.65700       2.6846051    0.0089653305
       3888.0000       291.25634       99534.161       7896.7389      0.40550000       1.9142500     -0.32075000       342.35500       2.7274705    0.0088508713
       3893.0000       291.24634       99539.742       7852.5818      0.82225010       2.1625000     -0.21475000       342.99800       2.8535311    0.0090513188
       3898.0000       291.28247       99538.555       7839.0194       1.0470000       3.0957500   -0.0020000000       342.62500       3.5991557     0.010852386
       3903.0000       291.25105       99535.427       7812.5394    -0.065750000       1.2182500    -0.030000000       343.14100       3.0984887    0.0094836039
       3908.0000       291.14218       99519.317       7790.3424      0.45650000       1.6602500     0.072500010       343.55200       2.1898991    0.0096862079
       3914.0000       291.05859       99518.053       7755.5066      0.24825000       1.4975000    -0.013500000       343.66100       4.5563119     0.014621221
       3919.0000       290.97226       99520.280       7713.6833      0.80775000       2.3520000      0.32725000       343.33800       2.5785409    0.0070218099
       3924.0000       290.90835       99526.795       7693.6361      0.15325000       1.9560000     -0.49875000       341.76200       2.2353264    0.0079669294
       3929.0000       290.84830       99551.635       7672.3793      0.73075000       1.7567500    -0.077250000       342.43000       2.6828617    0.0094178703
       3934.0000       290.83073       99554.947       7673.0941      0.32150000       2.4550000     -0.29525000       342.27800       3.0345666     0.011002663
       3939.0000       290.84373       99549.574       7703.4143      0.27675000       2.1697500     -0.15650000       342.73500       2.5754447    0.0098903692
       3944.0000       290.85006       99543.132       7718.9984      0.49400000      0.94750010      0.57100000       343.48900       3.6340491     0.013114899
       3949.0000       290.86540       99519.840       7725.3848       1.1825000       3.3705000     -0.52100000       342.30700       3.2397065     0.010723921
       3954.0000       290.92732       99514.957       7763.6739    -0.027500000       2.5057500      -1.1532500       342.83700       2.7943475    0.0080755513
       3959.0000       291.02391       99515.166       7809.8375     -0.33975000       3.1615000      0.10400000       342.21400       2.1746129    0.0085107793
       3964.0000       291.08428       99521.416       7870.6177      0.26675000       2.2702500     -0.12950000       342.28600       2.5601305    0.0090899387
       3969.0000       291.16422       99544.962       7959.5954       1.3270000       2.2932500    -0.012500000       342.40800       3.1682587     0.012187191
       3974.0000       291.25513       99550.522       8051.7906      0.36375000       1.5042500      0.25825000       343.09100       2.8676124    0.0091233580
       3979.0000       291.34008       99556.108       8182.2484      0.57750000       2.9887500     -0.40100000       342.85700       3.1116316     0.011207447
       3984.0000       291.38410       99549.758       8240.0700     -0.79350010       2.4255000     -0.31875000       342.62600       3.9158145     0.014185341
       3989.0000       291.47829       99520.031       8299.8103      0.46900000       1.8430000      0.12250000       343.04700       2.4789592    0.0079007331
       3994.0000       291.46649       99514.190       8294.5294      0.12200000       1.8690000      0.30500000       342.65700       2.4183997    0.0089430738
       3999.0000       291.33983       99511.979       8200.9559      0.93925010       1.9987500     -0.20775000       342.92500       2.5077275    0.0080132844
       4005.0000       291.23580       99515.117       8120.3913       1.0450000       2.5792500    -0.029750000       342.72100       2.1835111    0.0085472745
       4010.0000       291.09472       99535.680       8021.1776       1.2985000       2.0325000     -0.24500000       342.72200       2.1240556    0.0076737377
       4015.0000       291.05098       99540.988       7961.3365       1.4560000       1.5377500      0.14950000       342.31700       2.4895653    0.0079795404
       4020.0000       291.04099       99543.317       7902.3230       1.8947500       1.1970000      0.43800000       342.80700       2.1456097    0.0087001302
       4025.0000       291.03821       99538.865       7869.2038       1.0175000       1.9902500     -0.30650000       342.74600       2.4207018     0.010147928
       4030.0000       291.11265       99526.368       7869.3978       1.0185000       2.6670000    -0.070750010       342.49600       2.5388852    0.0086026477
       4035.0000       291.10550       99520.362       7850.1169      0.87550000       1.8877500      0.11150000       343.78500       2.7635493     0.010444124
       4040.0000       291.05418       99506.616       7827.7860      0.10950000       3.7112500     -0.95050010       342.55100       2.6384781    0.0092155725
       4045.0000       291.03450       99508.835       7827.1497      0.45950000       2.0205000     0.029750000       343.42400       2.7442977    0.0084410947
       4050.0000       290.99720       99523.694       7830.7995     -0.38475000       2.7072500    -0.048250000       343.01300       2.3413175    0.0077813767
       4055.0000       290.98622       99529.674       7841.4692      0.25650000       3.4512500     -0.29350000       342.16500       2.4967697    0.0078579497
       4060.0000       290.99980       99543.943       7874.4319     -0.38850000       2.5840000     -0.20375000       342.45100       3.5732205     0.011613086
       4065.0000       290.99968       99541.769       7893.7312      0.15975000       2.3627500     -0.23075000       342.56500       3.1583122     0.011161885
       4070.0000       291.00027       99526.311       7909.5110      0.27550000       2.5207500     -0.61600010       342.57900       2.3737673    0.0087188082
       4075.0000       291.00045       99520.352       7920.7906     0.043500000       1.8005000     -0.42175000       342.40700       2.1431862    0.0082655835
       4080.0000       290.99978       99506.531       7935.4878   0.00025000000       1.3005000    -0.089750010       343.00800       2.2992400    0.0076843416
       4085.0000       290.99960       99508.749       7935.9467      0.25250000       1.4077500      0.30800000       343.30600       2.4183608    0.0091331334
       4090.0000       290.99071       99527.693       7905.1190      0.61250000       2.2387500     -0.30925000       342.55100       2.7451125    0.0097382110
       4096.0000       291.01429       99525.345       7941.8107       1.1115000       1.7807500     -0.10125000       342.64600       3.4516702     0.011130460
       4101.0000       291.04207       99519.887       7991.9764      0.17150000       1.3352500     -0.64250000       343.05600       4.1289447     0.013827248
       4106.0000       291.08365       99522.999       8036.5306     -0.39825000       2.5360000      0.74500010       343.43000       2.1865101    0.0076802228
       4111.0000       291.16261       99520.439       8122.6528      0.10275000       1.1165000     0.010750000       343.02700       2.2782671    0.0082461573
       4116.0000       291.16914       99520.487       8151.0617      0.27900000       2.1527500     -0.96650000       342.14900       3.4356240     0.014768749
       4121.0000       291.16181       99521.834       8154.5783      0.54250000       2.1290000      0.40550000       342.61200       2.1127561    0.0095793002
       4126.0000       291.09975       99504.690       8132.1669     -0.46175000       2.7997500     -0.36250000       342.62600       2.0715811    0.0073110688
       4131.0000       291.05021       99500.859       8102.2234      0.64675000       2.0680000      0.32300000       342.70900       3.7569455     0.014130984
       4136.0000       291.00068       99505.652       8056.2598      0.93850000       2.6405000     -0.25175000       342.72500       2.1542328    0.0078651988
       4141.0000       290.93782       99525.750       7973.0314      0.18950000       2.2665000     -0.24900000       342.51800       2.1627647    0.0072428029
       4146.0000       290.93049       99532.683       7937.3569      0.76300000       2.5145000     -0.18000000       343.00500       2.1484150    0.0077365711
       4151.0000       290.95067       99543.942       7917.3367     -0.43675000       3.4122500      0.61475000       342.41000       2.6031013    0.0099989237
       4156.0000       290.93939       99532.456       7862.6087       1.2405000       3.2485000     -0.19625000       342.47100       2.6135850    0.0087180230
       4161.0000       290.94908       99525.456       7829.9391       1.0837500       3.4135000     -0.59075000       341.87400       2.9285180     0.011248150
       4166.0000       290.95999       99507.280       7786.7504       1.1910000       2.4530000    -0.070500000       342.35100       2.1842155    0.0081535616
       4171.0000       290.95018       99501.751       7754.1428      0.75725000       3.0612500     -0.11775000       342.45900       2.4678376    0.0079384161
       4176.0000       290.95521       99509.165       7746.3137      0.93825010       2.7185000     -0.31650000       342.18900       2.3727539     0.010969105
       4182.0000       290.95552       99515.033       7748.4057       1.0710000       2.7212500     -0.16925000       342.33900       3.2654611     0.010421369
       4187.0000       290.92466       99531.979       7759.6476      0.10075000       2.1260000      0.30500000       342.40100       2.7181755    0.0091000080
       4192.0000       290.89474       99538.389       7765.4078      0.54550000       1.9550000     -0.30075000       342.67500       2.4256746    0.0090753826
       4197.0000       290.86618       99539.995       7784.5978      0.90425000       3.0735000     -0.68200000       342.27000       2.2009435    0.0069156539
       4202.0000       290.84616       99536.470       7797.3471       1.2955000       2.0052500    0.0075000000       342.41100       3.5823679     0.010232495
       4207.0000       290.79544       99520.860       7793.7149      0.47025000       2.2875000     -0.19700000       343.47300       2.2399903    0.0075182455
       4212.0000       290.78749       99512.896       7800.1381      0.37175000       1.8782500      0.43800000       343.03700       2.3021900     0.010013142
       4217.0000       290.82003       99499.057       7816.1356       2.9205000       1.7127500     -0.68225000       342.57500       2.2002419    0.0079090859
       4222.0000       290.85108       99496.902       7829.1725       2.3025000       1.9905000    -0.052500000       342.73600       2.2932121    0.0091098960
       4227.0000       290.90972       99508.977       7834.3739      0.28475000       1.6640000      0.38725000       343.63900       2.0770208    0.0080569304
       4232.0000       290.96001       99516.201       7855.5848       1.2192500      0.46900000      0.23175000       343.35100       2.0431375    0.0069445007
       4237.0000       291.02398       99530.670       7896.1996       1.2600000       1.2980000     0.087750000       342.97100       1.9970479    0.0073620554
       4242.0000       291.06293       99538.330       7919.5841       1.9567500       2.3770000      0.43000000       342.57400       2.0952758    0.0071595459
       4247.0000       291.09077       99544.952       7956.0881      0.98250010       1.9772500     -0.11000000       342.83800       2.0030534    0.0069990845
       4252.0000       291.10990       99542.372       7969.2309       2.8500000       1.3720000     -0.22750000       342.64800       1.9897283    0.0064596064
       4257.0000       291.11447       99525.401       7959.2540       2.8287500       1.6500000    -0.041250000       342.28300       2.0277776    0.0070374963
       4262.0000       291.10335       99518.704       7941.1035       2.1760000       2.0787500      0.10000000       342.53300       2.0291338    0.0075274247
       4267.0000       291.06632       99503.285       7899.0924       1.7615000       2.7310000     -0.90400000       342.36900       1.9873090    0.0081837354
       4273.0000       291.04271       99501.710       7862.4727       1.7107500      0.85325000      0.70900010       342.91900       1.9727465    0.0085077438
       4278.0000       291.01863       99520.966       7814.3580       2.1960000       1.1105000     -0.22225000       341.80500       1.9530016    0.0078423208
       4283.0000       290.98856       99528.607       7792.4174       2.6095000       1.8977500     -0.26025000       341.96000       1.9632851    0.0083832511
       4288.0000       290.96240       99539.903       7791.0864       2.0340000       1.6647500     -0.25600000       341.86600       1.9687681    0.0093052247
       4293.0000       290.94242       99543.437       7786.6061       1.7817500       2.2895000     -0.21425000       341.88500       1.9780877    0.0093983212
       4298.0000       290.90480       99540.168       7795.9430       1.5420000       1.2560000     0.088250000       342.42700       1.9002284    0.0069568625
       4303.0000       290.88834       99534.015       7798.5412       1.1240000       1.5052500     -0.38475000       342.52900       1.9386957    0.0080073289
       4308.0000       290.87424       99519.577       7777.4238       1.6015000       2.1380000     -0.18725000       342.77300       1.9609885    0.0090165085
       4313.0000       290.90155       99512.110       7800.0200       2.4307500       2.3940000     -0.33425000       342.12000       1.9430113    0.0072468678
       4318.0000       290.97425       99497.606       7851.7213       2.4175000       2.0485000     -0.20025000       341.97300       1.9495147    0.0080665507
       4323.0000       291.01441       99496.949       7893.1430       1.9235000       1.8325000    -0.086250010       342.26800       1.9849193    0.0069399764
       4328.0000       291.07692       99510.433       7959.8883       1.4045000       1.6450000     0.041500000       342.28000       2.0171141    0.0089779471
       4333.0000       291.12357       99517.882       8017.5697       2.2477500       1.6970000     0.013000000       342.80700       1.9746061    0.0082253070
       4338.0000       291.12597       99532.668       8054.9178       2.2342500       1.6382500      0.11575000       341.84300       1.9948924    0.0076625828
       4343.0000       291.15981       99539.555       8110.5336       1.6620000       1.8542500     -0.10950000       341.79900       1.9482269    0.0080089862
       4348.0000       291.28516       99543.736       8230.1685       2.0462500       1.9715000    -0.015500000       342.31200       2.0078627    0.0072571202
       4353.0000       291.26608       99541.233       8250.8856       1.6577500       1.6277500     -0.47225000       342.08800       1.9744082    0.0085114450
       4358.0000       291.14341       99530.323       8217.6399       1.5292500       1.2395000     -0.50250000       342.18700       1.9875851    0.0076583591
       4364.0000       291.06635       99521.441       8182.2143       1.3607500      0.35650000     0.033000000       342.55700       1.9850854    0.0085930450
       4369.0000       290.89214       99503.082       8057.9515       1.5067500       1.4040000     -0.37900000       342.30800       1.9910502    0.0084106097
       4374.0000       290.85413       99501.960       8029.5046       1.8050000      0.75175010     -0.20850000       342.40600       1.9449785    0.0084539890
       4379.0000       290.93129       99512.092       8040.9812       1.4685000       1.2052500      0.38525000       342.92800       1.9979941    0.0088643247
       4384.0000       290.96784       99518.452       8071.6444      0.84700010      0.57900010      0.59650000       343.15000       1.9634448    0.0074611943
       4389.0000       291.04189       99534.413       8175.0256       1.1680000       1.2827500      0.58225000       343.18200       1.9879698    0.0071161526
       4394.0000       291.07584       99540.647       8199.2512       1.1852500       1.4195000      0.16275000       342.99100       1.9839455    0.0086309206
       4399.0000       291.08831       99543.637       8209.0842       2.0632500       1.3315000     0.079500000       342.18600       1.9673427    0.0094788174
       4404.0000       291.11823       99540.189       8208.2902       1.4410000      0.81550000     0.036750000       343.22800       1.9379920    0.0086132538
       4409.0000       291.14144       99529.021       8145.2449       1.4475000       1.4120000   0.00075000000       342.38400       1.9704272    0.0082415831
       4414.0000       291.16167       99521.262       8129.3035       1.9937500       1.7177500     0.048250000       342.46800       1.9467074    0.0080934280
       4419.0000       291.19860       99506.464       8141.6945       1.6290000       1.3557500     0.021250000       342.38100       1.9631492    0.0096467495
       4424.0000       291.21230       99500.298       8137.0111       2.3600000       1.7067500     -0.39975000       342.45600       1.9616423    0.0081595694
       4429.0000       291.20001       99496.910       8140.5851       2.6810000       1.9595000     0.088000010       341.93500       1.9798072    0.0080478787
       4434.0000       291.20001       99500.349       8122.3715       1.0490000       1.4440000      0.30825000       342.77700       1.9712740    0.0085107586
       4439.0000       291.20019       99511.835       8079.9932       1.1135000       1.5085000      0.21425000       342.92800       1.9652474    0.0076581775
       4444.0000       291.20013       99519.396       8063.1271       1.0632500       1.2722500     0.031750000       342.67500       1.9483415    0.0079588742
       4449.0000       291.18889       99534.253       8028.2079      0.99000010       1.6670000      0.13400000       342.41500       1.9508532    0.0083256894
       4455.0000       291.20972       99541.133       8043.7203      0.87100010       1.3412500     -0.10525000       342.99700       1.9664266    0.0083885299
       4460.0000       291.24518       99543.493       8100.1902       1.7135000       1.8635000     -0.19575000       342.53900       1.9464137    0.0084081176
       4465.0000       291.26530       99538.920       8134.1619    -0.010500000       1.3117500    0.0047500000       343.28800       1.9833694    0.0087363846
       4470.0000       291.29389       99529.278       8199.0456      0.71775000       2.1512500     -0.20175000       341.97800       1.9753366    0.0093256403
       4475.0000       291.32422       99517.639       8203.5225      0.62950000       2.0007500    -0.026750000       341.76900       2.0029885    0.0084346313
       4480.0000       291.38240       99492.718       8191.8248      0.49450000       2.2165000     -0.17175000       341.91200       1.9877339    0.0076902946
       4485.0000       291.32795       99488.955       8131.0250      0.47975000       1.4572500    -0.053750000       342.55700       1.9793134    0.0072116365
       4490.0000       291.22753       99491.424       8005.7010      0.67825000       1.1672500    -0.037000000       342.32200       1.9624044    0.0080442700
       4495.0000       291.14055       99497.724       7932.4018      0.66600000       1.4517500     -0.10100000       342.11400       1.9677214    0.0078835943
       4500.0000       290.94254       99519.427       7839.1534      0.34300000      0.67300000      0.34950000       343.07000       1.9622805    0.0094507428
       4505.0000       290.87802       99528.705       7777.8866      0.88825010      0.44900000      0.21625000       343.72500       1.9749066    0.0075143039
       4510.0000       290.87986       99536.356       7735.0896      0.52125000      0.32225000      0.42500000       343.32000       1.9397652    0.0075769343
       4515.0000       290.90630       99538.765       7732.6165      0.55875000      0.46850000      0.13100000       342.50700       1.9754237    0.0080519582
       4520.0000       290.98496       99537.546       7750.7677      0.67450000      0.62025000    -0.076750000       341.93300       1.9676986    0.0092000305
       4525.0000       291.04364       99532.904       7776.5821      0.70350000      0.27900000      0.12925000       342.00400       1.9264306    0.0085882002
       4530.0000       291.14375       99521.647       7854.0408      0.41400000      0.51150000      0.48875000       342.57500       1.9409747    0.0086245020
       4535.0000       291.20428       99514.667       7897.3810      0.31300000       1.3422500     0.025500000       342.49000       1.9715097    0.0088110708
       4540.0000       291.24890       99504.237       7929.8313       1.7495000       1.0290000    -0.043500000       342.90900       1.9579175    0.0089354628
       4546.0000       291.28491       99501.816       7958.2589       2.3522500       1.3097500     -0.79200010       341.86600       1.9296724    0.0088511973
       4551.0000       291.30626       99503.146       7973.0719       2.3992500       1.9887500    -0.077000010       342.13100       1.8994400    0.0091167553
       4556.0000       291.31486       99508.529       8017.2578       2.0730000       2.1560000     -0.51150000       342.10100       1.9189972     0.011580196
       4561.0000       291.30031       99520.173       8064.9336       1.7692500       1.9087500     -0.12625000       341.81400       1.9414642    0.0084095017
       4566.0000       291.28509       99531.828       8119.2148       1.3775000       1.8520000     -0.32075000       341.98100       1.9349388    0.0092448349
       4571.0000       291.29353       99537.322       8140.3225       1.1727500       1.1137500     0.086250010       342.04400       1.9986323    0.0091922798
       4576.0000       291.34496       99538.713       8091.0263      0.82700000      0.26325000      0.51175000       342.84300       1.9803667    0.0086298857
       4581.0000       291.35595       99537.033       8064.2712       1.3270000       1.4852500     -0.25450000       342.14700       1.9802711    0.0096646478
       4586.0000       291.35465       99531.659       8039.4015       1.3230000      0.87575010      0.10925000       342.45900       1.9851116    0.0078762386
       4591.0000       291.35661       99520.301       8004.1742       1.0422500       1.1777500      0.14275000       342.70000       1.9490769     0.011097543
       4596.0000       291.34463       99513.141       8005.8985      0.76375000      0.49575000      0.21150000       342.64500       1.9945644    0.0096319831
       4601.0000       291.28833       99504.213       8017.1959       1.4240000      0.54950000     -0.18850000       342.49900       1.9748568    0.0091548274
       4606.0000       291.33071       99497.409       8110.1581       1.0137500      0.32275000      0.14875000       342.48100       1.9661220     0.011460911
       4611.0000       291.35094       99497.890       8176.2497      0.97600010       1.2315000     -0.34900000       342.00700       1.9759334    0.0079453927
       4616.0000       291.38516       99509.407       8311.0642      0.65250000       1.0537500     -0.14100000       342.22200       2.0168861    0.0077522912
       4621.0000       291.40600       99515.392       8355.5113      0.86125000      0.74125000    -0.047500000       342.60700       1.9798207     0.010536847
       4626.0000       291.42967       99525.720       8327.9266       1.1682500      0.63325010     -0.13450000       342.47400       1.9695867     0.011320195
       4631.0000       291.41213       99531.999       8282.6480      0.86250000      0.79825000     0.067500000       342.39400       1.9698584    0.0093496951
       4637.0000       291.30458       99533.261       8084.7727      0.72425000       1.1037500     -0.15725000       342.67800       1.9332395     0.011803217
       4642.0000       291.28722       99531.019       8010.8392       1.1185000       1.0582500    -0.091000010       342.54800       1.9834579    0.0098955073
       4647.0000       291.31622       99524.881       8001.2426       1.2420000       1.1850000     -0.17900000       342.70600       1.9907238    0.0094846919
       4652.0000       291.29573       99519.764       7964.7071       1.9035000      0.60725000     0.016250000       343.60000       1.9638198    0.0099305334
       4657.0000       291.31167       99508.761       7979.7530       1.6077500      0.53900000     0.081750010       343.20400       1.9954089    0.0084953704
       4662.0000       291.30939       99502.938       7972.4202       1.1830000      0.46750000      0.45450000       343.10200       1.9704323    0.0098164293
       4667.0000       291.24718       99499.784       7931.8995      0.77900000      0.83500000     -0.19325000       341.97700       1.9995576    0.0096846894
       4672.0000       291.18743       99499.052       7889.1380       1.0852500      0.57800000     -0.26950000       341.98100       1.9444325     0.010891808
       4677.0000       291.14785       99504.922       7854.0138       1.2772500      0.54250000     -0.37550000       342.03600       2.0033279    0.0089510962
       4682.0000       291.09620       99505.723       7811.1712       1.1395000      0.51000010     0.017500000       342.34600       1.9827055    0.0092163985
       4687.0000       290.97216       99501.723       7715.4772      0.72700010      0.82000010      0.25450000       342.63400       1.9521234     0.010301439
       4692.0000       290.92592       99505.092       7681.1874      0.81675000      0.59625010    -0.035000000       342.10300       1.9426714     0.012910589
       4697.0000       290.92992       99511.701       7686.6280       1.0567500      0.67975000     0.080500010       342.80900       1.9725540    0.0087603319
       4702.0000       290.94225       99515.904       7692.8399      0.85700010      0.59425000     -0.18225000       342.51600       1.9437038    0.0092318448
       4707.0000       291.01079       99530.324       7738.1733       1.1365000      0.88000010     0.086000000       342.44700       1.9920962     0.010386958
       4712.0000       291.06044       99533.643       7774.7954      0.88525000    -0.070250000     -0.19475000       342.52600       1.9580030     0.013312988
       4717.0000       291.12409       99524.836       7815.6268      0.99225000      0.32450000     -0.24375000       342.19400       1.9627633    0.0099690964
       4722.0000       291.16255       99519.739       7845.8149       1.2140000      0.62575000     -0.40775000       342.01600       1.9581720     0.010007365
       4728.0000       291.16792       99510.310       7866.5640       1.0677500      0.52050000      0.26300000       342.63400       1.9720019    0.0084151447
       4733.0000       291.21171       99502.325       7908.9488       1.5597500      0.66450010     0.031500000       341.93200       2.0036979     0.010891722
       4738.0000       291.28841       99489.642       7956.6185       1.0007500      0.95725010    -0.083500010       343.01500       1.9761496     0.010786229
       4743.0000       291.31475       99488.264       8006.9531       1.1870000       1.5267500     -0.10625000       342.12200       2.0179507    0.0083083980
       4748.0000       291.33909       99492.907       8088.2498       1.0655000       1.8965000    -0.029250000       342.26100       1.9692619     0.011268150
       4753.0000       291.36555       99495.669       8150.9738      0.84175000       1.0122500     -0.16600000       342.43300       1.9456296    0.0076689950
       4758.0000       291.35598       99506.191       8227.1214       1.3665000       1.6667500     -0.62725000       342.26600       1.9828092    0.0096765615
       4763.0000       291.34618       99513.759       8246.5170       1.3147500       1.2485000     -0.15625000       342.35400       1.9765986    0.0098501608
       4768.0000       291.37117       99517.675       8255.0959      0.75200000       1.7160000    -0.088500000       342.84200       2.0752775    0.0091713966
       4773.0000       291.35313       99521.672       8217.6256       1.6500000       1.8495000     -0.27500000       342.49600       1.9479537     0.011532155
