MIRICO/SHELL project - Processed LDS file generated on
Sat Jul 08 20:53:22 2017
Time stamp for record start
05/10/2017  15:03:55.0001
Nb of points in the record
         945
Beam position index
       5.0000000
Beam angle (degrees)
       8.5430000
Open Path length (m)
       83.010000
****************** Temporal data record ************************
Elapsedtime_sec Temp_K Press_Pa Humidity_ppmv WindX_m/s WindY_m/s WindZ_m/s Speedofsound_m/s CH4vmr_ppmv CH4vmrerror_ppmv  
      0.00000000       290.56830       99620.423       8012.8806     -0.54075000       1.8252500      0.30675000       343.09700       2.0301945     0.010783062
       5.0000131       290.52558       99620.483       8015.4748      0.23825000       3.8007500     -0.21975000       342.18300       1.9659276    0.0092356440
       9.9999860       290.59427       99620.371       8070.6581     -0.84750000       2.1032500      0.70425000       342.70300       1.9532876     0.010703235
       14.999999       290.61558       99623.236       8096.7202      0.45275000       2.0090000      0.19900000       343.45000       1.9864732    0.0095672852
       20.000012       290.64439       99621.514       8111.5752     -0.36275000       3.5852500      0.24525000       342.40600       2.0149997     0.010530696
       24.999985       290.76063       99615.882       8110.7212      0.35025000       3.9065000     -0.28075000       342.33500       1.9770282    0.0095057141
       29.999998       290.77492       99611.128       8100.5951       1.1405000       3.2635000     -0.84650000       341.81200       1.9376017     0.011891262
       35.000011       290.67968       99603.265       8064.3651      0.92075000       2.3332500     -0.22250000       342.86700       1.9324796     0.012813585
       39.999984       290.64968       99595.360       8052.8815     -0.44525000       3.1825000      0.19700000       342.38800       1.9802860     0.011226682
       44.999997       290.61963       99587.468       8048.8977       1.2262500       3.1605000     -0.35875000       341.80300       1.9405949     0.016240724
       50.000010       290.51750       99578.576       8038.7487     -0.97775010       2.3242500     -0.61425000       342.84300       2.0187563     0.012287506
       54.999983       290.55490       99577.974       8056.2604     0.036500000       2.0837500     -0.13125000       343.00000       1.9915449     0.013405464
       59.999996       290.70605       99577.277       8104.0594       1.1930000       2.0510000      0.50975000       343.36200       1.9338602     0.010714660
       65.000010       290.75515       99594.944       8136.0387      0.75525000       2.8455000     -0.57275000       342.12100       1.9755661     0.010639865
       69.999982       290.80693       99606.218       8165.5794      0.95675000       1.1570000      0.90575000       342.56800       1.9169031     0.011937807
       74.999996       290.81530       99620.358       8189.6881      0.44900000       2.0157500      0.32150000       342.22800       1.9791549     0.011643529
       81.000003       290.85108       99628.673       8224.8567      0.13525000       1.5905000     0.068250000       342.39000       1.9781069    0.0098086157
       85.999976       290.88019       99626.181       8245.2862     -0.44100000       3.1892500      0.17950000       341.86500       1.9580208     0.012018548
       90.999989       290.95325       99626.081       8285.4555     -0.10550000       2.3590000      0.44900000       342.06800       1.9258300     0.011710025
       96.000002       291.10582       99624.082       8363.1781     -0.30475000       2.4532500     0.029750000       342.12600       1.9377112     0.012082568
       100.99998       291.17333       99619.941       8401.5872    -0.026500000       2.2645000     -0.24400000       341.87600       2.0624723     0.010959545
       105.99999       291.22271       99614.790       8435.6387      0.72025000       1.3392500      0.21375000       342.71500       1.9644499     0.010267412
       111.00000       291.27050       99609.677       8454.8427      0.73475000       1.5022500      0.66975000       342.80800       1.9378438     0.011728755
       115.99997       291.25807       99598.986       8444.0055      0.79275010       1.6665000     -0.23975000       342.09600       2.0031991     0.012757185
       120.99999       291.24827       99593.414       8423.3505      0.65625010       1.9287500     -0.43750000       341.49700       1.9285780     0.012074284
       126.00000       291.31317       99586.856       8397.9499      0.14200000       2.4730000    -0.087250000       341.92100       1.9200416     0.013453696
       131.00001       291.26760       99588.276       8358.5115      0.63950000       2.4377500     -0.40275000       341.53300       2.0166351     0.010808603
       135.99999       291.10677       99598.760       8298.3215     0.024500000       2.5870000     0.038250000       343.07900       1.9226505     0.013622187
       141.00000       290.98548       99605.876       8229.6299     -0.27075000      0.97275010      0.63250010       343.29200       1.9372415     0.010395949
       146.00001       290.77347       99620.788       8128.9612      0.12225000       1.2295000    -0.030000000       342.71600       2.0219647     0.017746103
       150.99999       290.65773       99628.559       8063.1449     -0.82200000       1.6262500     -0.22900000       343.69800       1.9313315     0.012738739
       156.00000       290.61947       99629.240       7994.5022      -1.7812500       1.0447500     -0.14750000       341.57900       1.9343686     0.011083657
       161.00001       290.58135       99631.141       7949.0474      -1.5455000       1.3810000    -0.047750000       342.01800       1.9952441     0.011913462
       165.99998       290.61450       99631.693       7954.2480      -1.2202500       1.8480000     -0.56650000       342.37700       1.9297579     0.018853929
       171.99999       290.59965       99630.183       7930.5254     -0.46400000       3.0505000     0.091000010       342.23900       1.9925277     0.011142791
       177.00001       290.56314       99630.788       7904.3667     -0.81325010       3.0515000      0.29650000       341.65200       1.9896006     0.010459372
       181.99998       290.54325       99624.674       7884.6983     -0.61500000       1.8212500     -0.17225000       342.44800       1.9702838     0.011309097
       186.99999       290.53080       99612.003       7863.9958      -1.0302500       1.7237500    -0.028250000       342.85200       1.9901367     0.012281724
       192.00000       290.48668       99601.635       7838.2094      -1.1357500       2.8730000      0.67775010       342.40900       1.9653669     0.014695630
       196.99998       290.38363       99580.141       7777.9659     -0.95050010       3.4710000      0.11825000       341.65100       1.9327317     0.012674328
       201.99999       290.38422       99575.333       7793.0888     -0.46325000       3.9337500     -0.14800000       342.11000       1.9690634     0.011348784
       207.00000       290.42395       99580.158       7857.1951      -1.3257500       3.5072500     0.051000000       341.85800       1.9406864     0.012271830
       211.99998       290.45139       99585.665       7896.5017      -1.4407500       3.2972500     -0.50250000       341.32400       1.9602288     0.011326993
       216.99999       290.55889       99605.155       7949.5355      -1.3842500       3.3142500     -0.46925000       341.29300       1.9067720     0.018224485
       222.00000       290.63462       99615.391       8051.9015     -0.31575000       2.5497500     -0.32300000       341.83900       1.9645820     0.011235363
       226.99998       290.67465       99623.086       8182.0588     -0.71750000       2.2795000    -0.079000000       341.52900       2.0122485     0.012137991
       231.99999       290.71487       99628.361       8277.3755     -0.18300000       2.4710000      0.10625000       341.83900       1.9772819     0.018070128
       237.00000       290.78912       99631.075       8455.1503      0.45400000       2.4235000     -0.35025000       342.24400       1.9145898     0.013050688
       241.99997       290.82210       99631.393       8532.5791      0.33900000       2.4217500     -0.39450000       341.65800       1.9590616     0.011064437
       246.99999       290.80032       99630.145       8492.4203     -0.26150000       1.9060000     -0.20050000       341.98200       1.9401401     0.017361276
       252.00000       290.80044       99624.032       8495.6659      0.51825000       2.1937500     -0.10175000       342.14500       1.9905125     0.012579104
       257.00001       290.78762       99611.986       8488.1766      0.89125000       3.2615000      0.27400000       342.21200       1.9010899     0.018709812
       262.99998       290.80595       99599.515       8480.7431       1.0395000       2.6515000      0.52975000       341.89100       1.9288284     0.011170867
       267.99999       290.84109       99579.934       8483.6430       1.2325000       2.3292500     -0.19525000       341.52200       1.9204593     0.012618604
       273.00001       290.86127       99575.168       8464.6034       1.0535000       2.6660000     -0.31950000       341.31700       1.9095117     0.021974325
       277.99998       290.88816       99578.134       8407.7730      0.89025000       2.3865000     -0.41575000       341.31700       1.9317013     0.013762366
       282.99999       290.91843       99581.138       8409.2102      0.63075000       1.4315000     -0.18600000       341.31900       1.9719521    0.0089598038
       288.00001       290.94265       99591.100       8434.1158      0.97350010       1.4802500      0.20050000       341.48600       1.9227831    0.0092627740
       292.99998       290.96264       99600.725       8445.8101     0.050250000      0.92925010      0.57200000       342.75800       1.9347095     0.013616914
       297.99999       291.02172       99614.087       8522.1394    0.0030000000       1.8850000     -0.32075000       341.34900       1.9772293    0.0095726441
       303.00001       291.00283       99619.796       8501.6830     0.041250000       1.2187500      0.18550000       342.19600       1.9510567     0.012377453
       307.99998       290.90516       99628.272       8391.6371     -0.58550000       2.2087500     -0.12100000       341.75500       1.9343093     0.011473241
       312.99999       290.88153       99627.278       8355.7327     -0.31450000       1.5775000     0.049250000       341.89100       1.9511669     0.010468388
       318.00001       290.85461       99615.899       8316.0643      -1.0505000       1.8360000      0.42375000       342.20800       2.0002766     0.010574957
       322.99998       290.83105       99605.666       8276.8338     -0.57775000       1.6352500     -0.18025000       341.30200       1.9559374    0.0095439108
       327.99999       290.86740       99585.783       8280.1254     -0.90500000       2.2045000     -0.23500000       342.50200       1.9454047     0.012222806
       333.00000       290.84480       99580.298       8252.1219     -0.16175000       2.2542500     -0.20725000       341.32000       1.9444586     0.012023578
       337.99998       290.74682       99577.819       8174.8515     -0.30150000       1.8975000     -0.37925000       341.78700       1.9682095     0.010838711
       342.99999       290.72885       99579.261       8147.3424     -0.33200000      0.99000010     -0.87450000       342.46600       1.9785428    0.0087992291
       348.00000       290.72057       99592.193       8130.8375     -0.74725000       2.0167500     0.040000000       341.46100       1.9126913     0.010931181
       354.00001       290.77122       99601.776       8159.3337     -0.43750000       1.9147500     -0.15600000       342.15500       1.9839866    0.0099471121
       358.99998       290.88456       99609.560       8218.6224     -0.13750000       1.3435000     0.010000000       342.44100       1.9796973     0.011130581
       364.00000       290.95515       99614.677       8275.0455      0.36175000       2.1640000     -0.74725000       341.64500       2.0111339    0.0097302684
       369.00001       291.06000       99622.473       8398.1272     -0.35475000       2.3937500     -0.33800000       342.50300       1.9198651     0.011508902
       373.99998       291.08372       99620.911       8394.8911     -0.31975000       1.9862500     -0.33925000       341.79100       1.9518343     0.011457440
       379.00000       291.05658       99613.397       8326.7423      -1.2300000       1.1185000      0.13925000       341.88700       1.9315487     0.012605399
       384.00001       291.04790       99603.738       8292.4012    -0.063250010       2.2785000     -0.23525000       341.58600       1.9535767     0.010492229
       388.99998       291.00583       99585.983       8192.5115     0.081500000       1.7602500     -0.18025000       342.23700       1.9392586     0.018025732
       394.00000       290.97602       99577.877       8160.7709      0.25625000       1.6670000     -0.60525000       342.22600       1.9700087    0.0090489568
       399.00001       290.95462       99565.120       8167.9737      0.39275000       1.2105000     0.081750010       342.12000       1.9807487     0.012333329
       403.99998       290.93501       99571.046       8196.0066      0.18875000       1.4620000     0.019500000       342.79200       1.9946053     0.011144106
       408.99999       290.89724       99592.887       8258.6214      0.83475010       1.6307500     -0.23050000       342.27700       1.8963253     0.013278092
       414.00001       290.88616       99602.997       8272.3004       1.1695000       1.8372500     -0.36950000       342.04000       1.9287877    0.0098548215
       418.99998       290.89102       99621.544       8314.9150      0.62450000      0.89375010      0.13175000       342.85000       1.9380323     0.010971485
       423.99999       290.90976       99627.269       8297.5082      0.88625000       1.5310000     -0.20850000       342.06500       1.9536113    0.0097588084
       429.00001       290.94690       99622.859       8210.4143      0.16600000       1.9825000    -0.065250000       343.06100       1.9244165     0.011312058
       433.99998       290.96707       99617.253       8157.1426      0.58525000       2.2985000     -0.29850000       342.79600       1.9597204     0.018145526
       438.99999       291.02101       99608.353       8108.0868      0.66475000       1.8817500    -0.088250000       342.72100       1.9084311     0.013743797
       445.00000       290.98530       99596.475       8028.6293      0.89200000       1.6107500     -0.45550000       342.16800       1.9553075    0.0090563245
       450.00001       290.90132       99577.265       7935.6342       1.2767500       1.2840000     -0.17625000       341.77300       1.9640209    0.0083970891
       454.99999       290.86070       99574.965       7914.5227       1.2632500       1.9385000      0.13475000       341.91000       1.9329471     0.018002931
       460.00000       290.79340       99577.373       7903.9768       1.0305000       1.0567500      0.14850000       341.69300       1.9503886     0.017563432
       465.00001       290.76944       99596.521       7976.6509     0.066500000      0.88150010      0.40750000       343.80300       1.9513022    0.0096004832
       469.99999       290.74917       99606.906       8020.2399      0.73075000      0.91075000     -0.20575000       341.63300       1.9594492    0.0083778729
       475.00000       290.72954       99618.926       8076.1245      0.40475000      0.96525010     0.084500010       341.96300       1.9577652     0.010120026
       480.00001       290.69964       99623.426       8093.0951      0.29500000       1.3710000     -0.12175000       341.72900       1.9479992     0.010292637
       484.99998       290.67006       99614.392       8064.6671      0.18175000       1.2662500     -0.18500000       341.93000       1.9413204     0.010700293
       490.00000       290.65027       99610.492       8049.5525     -0.15050000       1.3750000     -0.34750000       342.55900       1.9430669    0.0090223069
       495.00001       290.63048       99606.620       8026.9396     0.072500010       1.2512500     0.021750000       341.83600       1.9331368    0.0084743845
       499.99998       290.59369       99599.239       7974.7388      0.20150000      0.96025000     -0.10225000       341.88300       1.9202481     0.010023838
       505.00000       290.58500       99597.560       7956.7162      0.49275000      0.71250000    -0.086000000       341.79400       1.9801449    0.0086156500
       510.00001       290.59331       99598.958       7955.2817      0.14825000      0.36525000    -0.024000000       342.43800       1.9077023     0.012564388
       514.99998       290.60079       99609.286       7934.2246      0.44050000      0.17550000      0.20075000       342.70000       1.9516720    0.0072021786
       520.00000       290.63804       99611.653       7958.9137      0.43350000      0.35400000      0.44825000       343.32500       1.9337977    0.0078094627
       525.00001       290.74574       99612.752       8056.7023      0.23350000       1.1415000      0.36725000       343.05700       1.9400785    0.0068863230
       529.99998       290.80647       99612.080       8114.2663     0.037250000       2.1952500      0.26625000       342.99800       1.9169959    0.0073323325
       535.99999       290.83717       99603.420       8183.0112      0.35950000       2.2082500      0.26125000       342.60500       1.9300668     0.010627556
       541.00000       290.90882       99594.317       8253.1454     -0.88900010       3.1340000     -0.44800000       342.65900       1.9268357    0.0095331867
       545.99998       291.01607       99576.903       8343.4725      0.19500000       2.3560000     -0.52350000       343.10600       1.9009474     0.010298845
       550.99999       291.06495       99572.463       8365.3752       1.0020000       2.9352500      0.76450000       342.16200       1.9286440    0.0081268594
       556.00000       291.15107       99569.353       8381.8104       2.5147500       1.8880000     -0.34475000       342.18200       1.9260715    0.0096421170
       560.99997       291.17655       99573.076       8363.7930       1.2552500       2.3915000     -0.20825000       342.94100       1.9256283     0.016227739
       565.99999       291.11760       99600.485       8254.3916       2.2532500       1.2280000      0.62250000       342.58900       1.9108407     0.011681962
       571.00000       291.04547       99609.691       8162.8077      0.45350000       2.0352500      0.20750000       342.95100       1.9338291    0.0078282252
       576.00001       290.89329       99614.906       8045.4560       1.7660000       2.6582500     -0.58775000       341.51400       1.9322938    0.0094690806
       580.99999       290.82603       99613.210       7972.6234       1.9780000       2.0902500    -0.018250000       342.37200       1.9666546    0.0098309466
       586.00000       290.76268       99592.240       7906.3770      0.87075010       2.0027500     0.021250000       342.82400       2.0213673    0.0099282257
       591.00001       290.72669       99582.467       7854.4941       1.1157500       1.7962500     -0.13025000       342.96200       2.1101001    0.0084186063
       595.99999       290.80407       99569.246       7855.9726      0.47650000       2.7260000     -0.11825000       342.39900       2.6329205     0.010992658
       601.00000       290.81177       99567.032       7835.8801       1.0755000       2.5450000     0.066750000       342.50200       2.6238296    0.0079193051
       606.00001       290.76578       99577.874       7803.7509      0.49350000       2.4237500     -0.65675000       341.67000       2.5404647    0.0090450616
       610.99999       290.74568       99586.157       7774.6058       1.2770000       2.2832500      0.15575000       341.93600       2.0672073    0.0084592481
       616.00000       290.69552       99608.392       7722.2828     -0.73500000       1.4140000      0.37475000       344.35300       2.5964581    0.0092970303
       621.00001       290.68815       99614.555       7712.8761     -0.76800000       2.4990000     -0.28725000       341.85400       3.6947219     0.010449246
       626.99998       290.71067       99612.152       7712.5961     -0.59850000       2.2597500     -0.11650000       341.55900       2.5843874    0.0081069014
       631.99999       290.75877       99605.158       7750.6994     -0.86050000      0.88675000      0.37175000       342.78900       2.2379501     0.010160542
       637.00000       290.87063       99576.706       7853.6471     -0.95075010       2.7592500    -0.080000010       341.72800       2.9608668    0.0098186638
       641.99998       290.92709       99570.017       7926.5910     -0.89200000       1.8267500     -0.31675000       342.75700       2.9661551    0.0096351505
       646.99999       290.93944       99569.401       7995.7748       1.3142500       2.5560000     -0.19950000       342.55600       3.6112215     0.011337626
       652.00000       291.02706       99574.618       8087.4760    -0.085250010       3.6587500     -0.54600000       341.85400       2.3214301     0.020942505
       656.99998       291.16609       99602.954       8219.3203      0.39550000       3.5465000      0.19350000       342.42100       1.9572066    0.0094951944
       661.99999       291.23179       99610.971       8282.9939     -0.37300000       2.6702500    -0.065250000       342.33700       2.3424057     0.010782420
       667.00000       291.38134       99616.152       8359.8203     -0.12700000       1.7092500     0.091000010       342.64900       2.6070913     0.010124053
       671.99998       291.38597       99611.547       8371.7155     -0.74650000       1.8047500     -0.14000000       342.21700       3.3643282    0.0094505494
       676.99999       291.19365       99584.953       8285.2646     -0.33600000       2.4775000    -0.052500000       342.34100       3.4565576     0.010303945
       682.00000       291.11736       99575.022       8226.5114      -1.5285000       3.1032500     -0.16300000       342.45600       2.8939657    0.0079840143
       686.99998       291.05470       99559.961       8147.6361     -0.36975000       2.6202500      0.52775000       342.04800       2.7870310    0.0077617008
       691.99999       290.96389       99562.368       8077.6699     -0.18575000       1.8130000     0.095500010       341.96400       3.2743566     0.011202837
       697.00000       290.87137       99591.927       7990.2703    -0.037750000       1.6637500      0.10875000       342.39700       2.8805259     0.010637088
       701.99997       290.82451       99601.011       7934.9137     -0.54375000       1.6970000     -0.64725010       343.00200       2.6137948    0.0087774786
       706.99999       290.73949       99614.057       7905.7914     -0.40475000       1.4860000     -0.16900000       342.12700       2.1866947    0.0084239673
       713.00000       290.72734       99612.865       7854.6426     -0.59225000       1.4725000     -0.50050000       341.44800       3.1974249    0.0082841950
       718.00001       290.82865       99589.079       7816.1437     -0.52075000       1.8857500     0.086750000       342.89600       2.3126964     0.010856204
       722.99998       290.87880       99578.630       7793.9448      -1.1862500       1.1332500     -0.11425000       342.71500       3.3599451    0.0094321009
       727.99999       290.94064       99562.010       7757.3921     0.021000000      0.88550000      0.13300000       343.76500       4.2215066     0.011481012
       733.00001       290.97441       99562.473       7760.4843     -0.61850010       1.0385000    -0.060250000       343.30600       2.3595893     0.011187370
       737.99998       291.00014       99575.030       7814.4943     -0.68775000       1.7337500    -0.084500010       342.05200       2.1981539     0.011519776
       742.99999       291.01433       99584.826       7837.9962     -0.74625000       1.9840000    -0.062750000       342.66400       2.3347634    0.0088886230
       748.00001       291.01115       99611.883       7861.4069      -1.2595000       1.8710000     -0.47850000       342.29400       2.4264461     0.010108382
       752.99998       290.99482       99616.426       7888.6101     -0.42125000       1.2272500      0.44900000       342.69800       3.1684933    0.0096121932
       757.99999       290.98013       99609.831       7938.7926      -1.0162500       2.4297500      0.28500000       342.31400       3.1686803     0.010807494
       763.00001       290.92802       99603.460       7920.6921      -1.0505000       1.8765000      0.59100000       343.20700       3.4070367     0.010525093
       767.99998       290.81903       99579.963       7873.8550    -0.099000010       3.2190000     0.098000000       343.27800       2.9363750     0.010442046
       772.99999       290.76520       99575.119       7829.2571    -0.029750000       1.2300000      0.58975010       343.86000       2.4211585     0.010900477
       778.00000       290.71355       99575.579       7720.9534     -0.16600000       2.5960000     -0.45425000       342.64700       2.7058722     0.010680446
       782.99998       290.66943       99581.712       7666.1508      0.51500000       2.2562500     0.093250010       343.16600       2.4573123     0.010847424
       787.99999       290.66849       99606.269       7641.8832      0.14675000       1.4575000      0.23850000       343.20500       2.5485644     0.010875675
       793.00000       290.63239       99610.246       7621.2475    -0.025750000       1.5180000      0.14575000       342.13800       2.6590517     0.011109440
       797.99998       290.58102       99610.833       7621.9971     -0.83275000       2.6967500     -0.34825000       342.28800       3.0334563    0.0085786590
       803.99998       290.50069       99601.892       7591.0012     -0.41325000       2.0257500     -0.45550000       341.60400       2.4156381     0.012351201
       809.00000       290.40658       99573.268       7564.0507     -0.64825000       2.0762500      0.10400000       342.64900       3.2317883    0.0096750518
       814.00001       290.35517       99569.695       7545.9809    -0.042250000       1.4697500      0.21425000       342.78000       3.7473708     0.010648043
       818.99998       290.29493       99572.383       7506.4665      0.27725000       2.8320000     -0.15450000       342.46900       3.0707620     0.012478645
       824.00000       290.27245       99576.908       7500.8781      0.17800000       2.2397500     -0.20025000       342.67800       3.3054746    0.0095919949
       829.00001       290.28198       99599.568       7514.1256      0.19325000       2.2852500     0.015000000       343.19800       2.3253092     0.010376463
       833.99998       290.31934       99597.494       7553.4030     -0.89075010       2.2310000     -0.34575000       342.23000       2.1076456     0.017193552
       839.00000       290.38371       99582.218       7619.1632      -2.0997500       1.7557500      0.54475000       342.93600       2.4181727     0.010448860
       844.00001       290.44221       99575.421       7666.3713     -0.85625000       1.0135000    -0.020250000       341.64400       4.7059885     0.010761511
       848.99998       290.55171       99555.658       7735.6856      -1.3957500       1.0107500      0.26475000       341.95200       2.9901230     0.010558962
       853.99999       290.59416       99558.574       7791.8648      -1.6210000       2.4080000     -0.35800000       342.00000       2.0051608     0.010086562
       859.00001       290.60348       99578.356       7836.1271      -1.6242500       2.4962500     -0.38700000       341.76000       2.8757077     0.012617642
       863.99998       290.61486       99586.464       7866.0825     -0.53700000       1.8910000    0.0050000000       342.03900       3.4086203     0.010552593
       868.99999       290.60000       99604.025       7899.3761     -0.52275000       1.8132500    -0.045250000       342.74700       3.2603423     0.011726338
       874.00001       290.60013       99603.007       7919.3715      0.31600000       1.9270000     -0.20800000       342.84300       2.2043417     0.012522338
       878.99998       290.58247       99587.171       7899.1300     -0.40225000       3.0880000     -0.55700000       342.66500       3.1903604     0.010436656
       883.99999       290.61987       99579.318       7924.4123     -0.57725000       3.3735000     -0.20050000       341.82000       2.9020466     0.011527929
       889.00001       290.69197       99561.257       7980.1965      0.10375000       2.9630000     -0.27700000       342.54300       2.8493564     0.013507102
       895.00001       290.73938       99564.837       8008.9312      0.42900000       3.2650000     -0.43875000       342.10400       2.2889372     0.011740742
       899.99999       290.80712       99579.354       8028.0301       1.6775000       2.2610000    -0.056500000       342.75100       3.6957296     0.010115966
       905.00000       290.84614       99586.603       8074.1406     0.067000000       3.7135000     -0.10075000       341.83000       2.7648983     0.016707868
       910.00001       290.84981       99604.533       8114.3825    -0.014000000       3.0692500     -0.17100000       341.90400       2.5804704     0.010669508
       914.99999       290.87071       99591.123       8223.1926     -0.41950000       2.5440000      0.18575000       342.45900       3.8448021     0.010926929
       920.00000       290.90102       99585.060       8260.9843      0.12575000       1.8710000      0.17050000       342.11900       2.4176385     0.010417993
       925.00001       290.91563       99570.285       8216.6491     -0.36675000       2.9677500     -0.22950000       342.03500       5.8079514     0.011362532
       929.99998       290.94446       99566.712       8198.2965      0.71975000       1.1387500     0.027750000       343.40600       3.4387484     0.013103842
       935.00000       290.98507       99580.933       8090.8961       1.1220000       1.9250000     -0.40975000       342.49400       2.9932241     0.012694024
       940.00001       291.04333       99586.060       8080.0405      0.53025000       4.3357500     -0.70525000       341.40900       2.1878773     0.017121213
       944.99998       291.11394       99589.951       8124.5304      0.58175000       3.4200000      0.21300000       342.13200       5.0471235     0.010940632
       950.00000       291.20516       99599.386       8235.1750       1.0892500       2.6010000    -0.087500010       341.49300       3.3765284     0.017757922
       955.00001       291.25457       99593.589       8326.5654       1.0670000       2.8475000    -0.078500000       341.57400       2.6466333     0.018596954
       959.99998       291.31786       99572.224       8500.0223     -0.22475000       2.1702500     -0.27550000       341.60200       3.4953416     0.018569220
       965.00000       291.26942       99577.048       8513.5275     -0.29925000       1.9527500    -0.077500000       341.65800       2.5692657     0.017892468
       970.00001       291.24917       99578.699       8491.3055     -0.28875000       1.8362500      0.15275000       341.75400       3.7770014     0.012525541
       974.99998       291.25966       99600.406       8365.5138     -0.25475000       2.4847500     -0.28175000       342.20200       2.7213160     0.018423951
       980.00000       291.21241       99605.361       8261.9350      -1.2430000       2.5685000     -0.30975000       341.98400       3.8066275     0.011981117
       986.00000       291.08590       99585.571       8086.7316     -0.25275000       1.7582500    0.0085000000       342.40600       4.7137490     0.012154391
       990.99998       291.03749       99578.718       7996.1209     -0.11975000       2.5350000     -0.30850000       342.31500       4.1103967     0.013512736
       995.99999       290.94990       99563.459       7940.9610     0.056500000       1.6720000     -0.57025000       342.88800       3.0347323     0.014616143
       1001.0000       290.92466       99561.336       7894.6834     -0.27525000       3.1670000    -0.056000000       342.59600       3.3404818     0.013972482
       1006.0000       291.03902       99581.009       7899.1494     -0.51025000       3.8077500     -0.74300000       342.39000       3.0045869     0.022516061
       1011.0000       291.06686       99587.803       7886.0968    -0.056750000       3.3810000      0.11650000       342.96300       2.5564572     0.018273837
       1016.0000       291.05620       99598.337       7863.7648     -0.69825010       2.5615000      0.37125000       342.86500       2.1972134     0.019241965
       1021.0000       291.05465       99598.498       7851.6619      -1.4542500       3.5520000     -0.28075000       341.43200       3.4499274     0.022191869
       1026.0000       290.99535       99575.397       7836.1295      -1.0150000       3.2652500     -0.25150000       341.82200       2.5831056     0.017152740
       1031.0000       290.98770       99572.018       7838.7917      -2.6077500       2.0217500     -0.72200010       342.78200       2.7784011     0.018137450
       1036.0000       291.00319       99576.522       7858.0040     -0.41150000       4.0490000     -0.41225000       342.12200       2.6386947     0.017877725
       1041.0000       291.04574       99578.947       7878.5065      -1.5805000       1.6282500      0.32400000       342.47900       3.1676008     0.023071772
       1046.0000       291.18588       99601.943       7936.0235     -0.94800010       1.7810000     -0.46625000       342.27300       2.2060370     0.018717329
       1051.0000       291.22253       99605.069       7952.1440     -0.95250000       1.3547500     -0.14825000       341.75800       2.3226098     0.023391638
       1056.0000       291.19737       99582.028       7920.0816      -1.7125000       1.9535000     -0.17675000       342.19500       2.5302098     0.019222190
       1061.0000       291.20622       99577.195       7930.4712     -0.97400000       1.8357500     0.061000000       342.55100       3.1049721     0.016094941
       1066.0000       291.15363       99573.067       7932.2301      -1.4757500      0.81875000    -0.037500000       342.30800       3.4855947     0.020804663
       1071.0000       291.13648       99572.759       7956.0167      -1.6340000       1.7560000     0.042500000       342.59800       5.2986223     0.011798772
       1077.0000       291.20839       99592.538       8077.5593      -2.0950000       1.7590000      0.76600000       342.21400       2.5309693     0.019962125
       1082.0000       291.21036       99599.350       8101.0154      -1.5010000      0.59975000     -0.97250000       341.57900       2.6978791     0.022897129
       1087.0000       291.13674       99600.951       8069.4999      -2.6557500       1.6350000     -0.32750000       341.74000       3.1975808     0.024541883
       1092.0000       291.14467       99601.165       8065.0538      -2.5047500       1.8195000     -0.21875000       342.66400       2.4271166     0.023855159
       1097.0000       291.18223       99595.067       8028.8083      -2.6532500       1.4742500     -0.34200000       341.78400       3.4899121     0.018072325
       1102.0000       291.20607       99594.399       8002.8295      -1.0787500       1.0565000     -0.19425000       342.42200       3.9645497     0.015669246
       1107.0000       291.30355       99595.887       8001.7303      -1.3895000       1.0700000    -0.078750010       341.50400       2.6426172     0.021132556
       1112.0000       291.32174       99594.857       7989.7654      -1.4080000      0.71650000   -0.0017500000       342.39300       2.6660682     0.022781216
       1117.0000       291.24909       99599.981       7922.2937      -1.4725000       1.5507500      0.90475000       342.71900       2.7733969     0.024755226
       1122.0000       291.24280       99595.600       7937.1237      -1.1392500       1.0220000     -0.31100000       342.69800       4.8073999     0.023711782
       1127.0000       291.25615       99578.386       8020.9893      -1.1950000       1.8280000     -0.14725000       342.06900       3.3337281     0.019244770
       1132.0000       291.24632       99572.159       8069.1166     -0.85475000       1.3462500      0.56500000       343.12600       3.9095507     0.017664716
       1137.0000       291.29458       99563.106       8185.2702      -1.2795000       1.3357500     -0.37450000       342.17800       3.4142812     0.018455369
       1142.0000       291.24941       99562.940       8206.7789      -2.2132500       1.7432500     -0.50550000       342.24400       2.9172172     0.019043011
       1147.0000       291.08897       99580.040       8140.5974     -0.63325010       1.2772500     0.091000010       342.75000       3.7553106     0.022046057
       1152.0000       291.01207       99582.987       8108.8388      -1.8730000       1.6532500     -0.19725000       342.25200       2.3103226     0.017252782
       1157.0000       290.92795       99581.773       8043.2146     -0.68500010       2.2660000     -0.37100000       342.49100       3.3685656     0.020511083
       1162.0000       290.86603       99581.022       8000.6621      -2.1315000       1.4007500     -0.25475000       342.14900       2.8960977     0.025650363
       1168.0000       290.83598       99567.128       7965.8426      -1.3877500       1.8772500    -0.035500000       342.70300       3.9514252     0.024132161
       1173.0000       290.84899       99569.427       7955.6599      -1.9752500       1.4307500       1.0282500       342.55700       3.0356642     0.025087550
       1178.0000       290.86331       99584.191       7948.4139      -1.6490000       1.6040000     -0.16875000       341.91900       2.9972332     0.024014937
       1183.0000       290.92246       99588.665       7959.9656      -1.9357500       1.5607500     -0.55250000       341.80800       3.0645669     0.019546759
       1188.0000       291.07412       99599.404       8005.0828      -2.0992500       1.6357500     -0.33275000       341.94100       3.1512240     0.021284766
       1193.0000       291.15834       99596.737       8037.2973      -1.7330000       1.6165000     -0.32375000       342.09200       3.4509424     0.017819551
       1198.0000       291.28555       99573.025       8090.5484      -1.8527500       1.6687500     -0.15250000       342.07700       2.6228180     0.018194487
       1203.0000       291.26760       99572.147       8097.0895      -1.7475000       1.2780000     -0.48025000       341.70100       2.9438044     0.018986928
       1208.0000       291.13166       99578.440       8060.1124      -1.1577500       1.5595000     -0.42600000       341.59200       4.5031094     0.023238187
       1213.0000       291.06599       99580.604       8076.9332     -0.95675000       1.0097500    -0.014250000       341.58100       2.7828837     0.021288859
       1218.0000       290.89152       99599.343       8092.5240     -0.74375000      0.20400000     0.095500010       341.62000       2.4738599     0.019508123
       1223.0000       290.85317       99597.810       8106.7962     -0.69975000      0.77325000     -0.26850000       341.67000       2.9484732     0.018042906
       1228.0000       290.94193       99574.480       8179.6287     -0.36875000      0.64825000     0.070750010       341.64800       2.7516949     0.019480712
       1233.0000       290.96190       99571.946       8186.5157     -0.48475000       1.0892500      0.12300000       342.66700       3.6920546     0.033760279
       1238.0000       290.97692       99573.268       8127.7602     -0.81875000       1.7965000     -0.18100000       342.36300       4.4538128     0.016529315
       1243.0000       291.02295       99575.148       8113.7048     -0.88450000       1.2422500     0.079000000       342.11200       4.1150462     0.023139198
       1248.0000       291.09563       99593.462       8101.9994     -0.37925000      0.64100000      0.34800000       342.96500       2.7939315     0.020314843
       1254.0000       291.12252       99591.686       8095.2975     -0.34650000      0.50750010      0.38650000       344.10100       3.1554393     0.015001456
       1259.0000       291.16141       99573.027       8105.5221      0.10375000      0.86300000     0.060500000       342.88300       3.2609072     0.021536259
       1264.0000       291.16341       99574.556       8113.6547      -1.0942500       1.2122500      0.11325000       343.52700       4.0060980     0.023892095
       1269.0000       291.11473       99578.814       8131.1468      0.27550000       1.3162500     -0.43000000       343.33600       2.2543920     0.017177692
       1274.0000       291.06556       99581.580       8118.7444      0.48200000       2.1850000     -0.17800000       343.46400       4.0402341     0.023614091
       1279.0000       291.00668       99599.777       8098.5331      0.57100000       1.1365000      0.25175000       343.26500       2.8459173     0.019530058
       1284.0000       290.96676       99596.729       8079.1023      0.57425000       2.1840000     -0.46225000       342.23500       4.0780543     0.021777193
       1289.0000       290.89387       99573.309       8026.3519      0.58250000       2.6640000     -0.11275000       342.49700       2.8878209     0.018058483
       1294.0000       290.87172       99571.794       8018.8118      0.17450000       1.7995000     -0.11925000       343.58100       3.7832191     0.029556798
       1299.0000       290.89111       99573.199       8030.2504     -0.67575000       1.6357500      0.30225000       342.50200       5.5995735     0.029370566
       1304.0000       290.90958       99575.743       8056.8591     -0.56500000      0.71325000      0.66825000       342.74300       2.1588649     0.021669083
       1309.0000       290.94501       99594.140       8116.1542     -0.73800000       1.3640000     -0.24475000       342.94400       2.9408553     0.020357286
       1314.0000       290.96513       99591.819       8140.0319     -0.15400000      0.84400000      0.36275000       343.26400       3.8135612     0.030538182
       1319.0000       290.99424       99573.972       8166.4655     -0.55100000       2.1105000      0.11350000       343.51600       2.7786043     0.030997361
       1324.0000       291.02475       99573.687       8185.3014       1.1147500     0.038250000      0.55375000       343.98900       2.5809280     0.018241345
       1329.0000       291.03821       99572.553       8183.3107       2.0950000       1.9292500     0.025500000       342.34200       2.3172874     0.022614920
       1334.0000       291.07686       99576.978       8185.0455       1.3587500       1.0742500     0.038500000       342.31200       2.4652113     0.023519154
       1339.0000       291.15775       99599.519       8193.8659       1.5422500      0.98025010   -0.0077500000       342.88300       2.6032859     0.025671266
       1345.0000       291.16958       99596.068       8190.2335       1.1335000       1.8837500     0.025500000       342.77400       2.6587030     0.018293846
       1350.0000       291.16996       99579.369       8175.6238     -0.18625000      0.85825000      0.46000000       343.74500       2.2110963     0.018664089
       1355.0000       291.11508       99578.649       8148.6230      0.24125000      0.89125000      0.15900000       343.93700       2.1345083     0.020057140
       1360.0000       290.99945       99572.958       8121.9972      0.12075000       2.0567500     0.092750010       343.07500       3.3703319     0.027564833
       1365.0000       290.88402       99590.265       8031.5753      0.44900000       2.4632500     -0.54950000       341.87900       2.8284785     0.020523031
       1370.0000       290.82931       99594.097       7984.8875      0.80575000       2.8552500    -0.094500010       342.37700       3.0992196     0.022509228
       1375.0000       290.86002       99575.294       7968.9999     -0.17700000       3.1890000     -0.23425000       343.23100       2.1414641     0.027462564
       1380.0000       290.85007       99572.903       7940.9222     -0.10075000       3.5282500     -0.14975000       341.60100       2.7277760     0.019113349
       1385.0000       290.83973       99581.243       7938.0350   -0.0052500000       2.8250000     -0.13100000       341.96800       2.8434979     0.020503498
       1390.0000       290.84943       99580.259       7927.4125     -0.13175000       2.5015000      0.28925000       342.31400       2.1702236     0.019195210
       1395.0000       290.85907       99579.262       7909.1165     -0.44950000       2.0517500      0.24125000       342.55200       2.0888492     0.021165356
       1400.0000       290.84305       99588.565       7871.4921      0.19900000       2.0867500     -0.25750000       342.14500       1.9773870     0.019086030
       1405.0000       290.85473       99583.747       7845.8752      0.15325000       1.0517500    -0.059500000       343.18300       1.9631498     0.019204377
       1410.0000       290.90628       99561.143       7821.8701     -0.49925000       1.2990000     -0.47175000       341.61100       1.9345766     0.026148390
       1415.0000       290.91492       99578.420       7816.8209     -0.36800000      0.85600010     -0.18300000       341.94600       1.9543212     0.022022695
       1420.0000       290.90648       99581.799       7810.8797      0.16125000       1.0417500     -0.12125000       342.03400       1.9755610     0.011937629
       1425.0000       290.87010       99585.494       7788.7729     0.059250000      0.20675000      0.34375000       342.88700       1.9282789     0.018873334
       1430.0000       290.85033       99588.018       7817.3184     0.091750000      0.16575000      0.36125000       343.45700       1.9459412    0.0084979438
       1436.0000       290.80999       99568.906       7916.6836      0.45925000      0.40050000    -0.075250010       342.17000       1.9416106     0.017937590
       1441.0000       290.79151       99566.788       7959.9251       1.1367500       1.2350000      0.15525000       342.69300       1.9428278     0.014846570
       1446.0000       290.82771       99586.088       8059.8834       1.1140000       1.4380000     -0.39175000       342.11700       1.9561941     0.019843204
       1451.0000       290.80468       99587.538       8076.8814      0.57425000       1.9577500      0.17425000       342.58000       2.7253763     0.013484205
       1456.0000       290.71633       99582.023       7967.9380       1.3927500       1.9162500     -0.56200000       341.91900       4.5332757     0.014564169
       1461.0000       290.68701       99580.676       7926.6507      0.66675000       1.4647500     -0.35625000       342.08500       1.9791009     0.014183082
       1466.0000       290.62492       99564.797       7875.4128       1.2947500       2.2787500     -0.10850000       342.42000       1.9766294     0.017617033
       1471.0000       290.63048       99561.714       7850.1454       1.7530000      0.49775000     0.083750000       342.07900       2.1760879     0.013279231
       1476.0000       290.74405       99580.333       7860.7365       1.7870000      0.89475010     -0.23950000       342.61100       3.0676402     0.018978290
       1481.0000       290.81361       99582.823       7886.6023       1.4747500       1.1417500      0.22225000       342.95900       2.4850074     0.014181606
       1486.0000       290.88380       99572.484       7898.4209     -0.56600000       1.1715000      0.25775000       343.77000       3.9254911     0.013472766
       1491.0000       290.96367       99574.752       7969.5781      0.14175000       2.1732500      0.46625000       342.48800       4.1139943     0.012516126
       1496.0000       291.07140       99578.362       8158.6757      0.32975000       2.0262500     -0.10775000       343.36700       2.7182788     0.011355176
       1501.0000       291.11918       99579.599       8247.2689      0.97200010       3.9602500     -0.50625000       342.16200       3.5327812     0.013460951
       1506.0000       291.14612       99597.312       8321.2633     -0.17225000       3.6190000     -0.38125000       341.91900       2.8040937     0.013472473
       1511.0000       291.16405       99599.651       8375.1135     -0.56400000       3.2217500     -0.59875010       341.68900       3.1066727     0.013240292
       1516.0000       291.12391       99575.411       8342.3988      -1.5117500       3.4365000     -0.11575000       341.84500       3.8240339     0.014611507
       1521.0000       291.09420       99572.120       8331.4020      0.97150000       3.5742500     0.033750000       341.91800       4.3608276     0.015874591
       1527.0000       291.04946       99580.721       8334.5829     -0.41825000       2.7700000    -0.078750010       342.69500       2.8973541     0.024517433
       1532.0000       291.04328       99579.763       8329.3531     -0.32525000       2.2247500      0.13175000       342.76400       2.7401305     0.016621207
       1537.0000       291.05676       99586.983       8326.2617     -0.76025000       2.3512500      0.32175000       342.08500       4.7141336     0.013634306
       1542.0000       291.04685       99587.614       8287.9637     -0.24850000       1.9287500      0.13325000       342.03500       3.1421586     0.014221680
       1547.0000       291.05668       99569.051       8226.9626     -0.38775000       1.7952500      0.23125000       342.79900       4.4368749     0.013996701
       1552.0000       291.05316       99566.826       8174.0575      0.39425000       1.8022500     -0.11600000       342.41900       2.4596199     0.017862784
       1557.0000       291.04375       99581.865       8096.0880      0.43325000       1.7490000      0.18700000       342.87900       3.4794759     0.014615068
       1562.0000       290.98661       99581.742       8021.1391      0.82950000       3.4005000     -0.47300000       341.92700       2.6254580     0.018928401
       1567.0000       290.86027       99574.148       7920.0916     -0.14175000       1.8872500     -0.44775000       342.34600       2.5944718     0.017672939
       1572.0000       290.82795       99575.537       7890.5427      -1.0225000      0.67375000      0.12850000       342.85300       2.3398426     0.019665570
       1577.0000       290.80363       99572.951       7897.8089     -0.73500000       2.2862500     0.066750000       342.25200       4.0239349     0.012370148
       1582.0000       290.78173       99574.120       7889.6059       1.2142500       2.5497500    -0.089500000       341.55100       2.6135640     0.016648075
       1587.0000       290.85115       99592.316       7935.1021      0.87925000       2.6680000     -0.44025000       342.12700       3.1144225     0.019964277
       1592.0000       290.86395       99593.046       7956.1235      0.63550000       2.0950000      0.99250010       342.73800       2.2987744     0.020037163
       1597.0000       290.80509       99573.502       7944.8021      0.17450000       1.3882500     -0.14825000       342.69200       3.2780166     0.017580006
       1602.0000       290.78871       99572.899       7937.2436     -0.14500000       1.2935000     -0.13950000       342.07000       2.3473994     0.015735688
       1607.0000       290.77442       99582.265       7928.3261     -0.32775000       1.1412500      0.30925000       343.61700       2.8319260     0.020557581
       1612.0000       290.80190       99579.936       7942.8891     -0.52950000       2.6907500     -0.42800000       342.21000       2.5238644     0.019318758
       1618.0000       290.92903       99579.975       7973.2533     -0.59875010       1.7325000      0.20300000       342.47500       2.1786358     0.019095042
       1623.0000       290.90332       99582.331       7969.4692     -0.75900010       1.9457500     -0.10850000       341.45700       2.4634872     0.025130219
       1628.0000       290.84098       99573.505       7980.6752     -0.76800000       1.6172500    -0.087250000       341.55800       2.4095519     0.014160352
       1633.0000       290.77222       99574.049       7971.9252     -0.61700000       1.3650000     0.036250000       341.64500       2.8094967     0.018635707
       1638.0000       290.56954       99593.442       7913.4552     -0.36450000      0.74200000      0.20900000       342.38700       2.8089567     0.022275275
       1643.0000       290.47782       99592.731       7883.4242      0.69875000      0.69000010     -0.44500000       341.88300       2.3946472     0.015996570
       1648.0000       290.44735       99574.458       7865.9828     -0.18875000      0.59550010      0.28575000       342.95300       2.6512351     0.018531261
       1653.0000       290.43030       99573.421       7858.9860      0.33450000       1.6837500     -0.26625000       343.05400       2.5055348     0.018196252
       1658.0000       290.44238       99575.475       7854.4204      0.27775000       1.3227500     -0.23850000       341.52700       2.7817869     0.016312540
       1663.0000       290.44821       99574.155       7851.4530      0.28800000       1.1132500    -0.048750000       341.95000       3.4409608     0.021597044
       1668.0000       290.49955       99578.527       7867.3873      0.98375000       1.7310000     -0.40350000       342.05400       4.1012656     0.021235035
       1673.0000       290.51331       99583.623       7876.4577      0.81075010       1.5172500      0.10625000       342.24200       3.2212211     0.012504098
       1678.0000       290.48893       99584.150       7873.8192       1.1100000       1.4222500     0.033250000       343.34800       5.3491003     0.019948884
       1683.0000       290.50523       99585.738       7883.8687       1.0990000       1.1510000     -0.16650000       341.49500       2.2485126     0.014862173
       1688.0000       290.54258       99595.885       7912.0188       1.0450000      0.88625000     -0.49100000       341.83200       5.4368312     0.018331859
       1693.0000       290.56269       99598.056       7923.5764      0.98600010      0.69975000      0.43650000       342.97900       4.7477857     0.021703160
       1698.0000       290.58862       99590.411       7915.3100      0.98325000       2.3500000     -0.47775000       341.71800       2.9529362     0.017944509
       1703.0000       290.61865       99589.058       7940.9166      0.75475000       1.5992500     -0.13975000       341.95900       3.4481095     0.017287843
       1709.0000       290.62684       99593.318       7976.4126      0.12900000       1.6537500      0.59900000       342.87200       2.9145120     0.017302295
       1714.0000       290.68523       99587.671       8030.8789     0.078000000       1.8625000     -0.16475000       342.20300       3.2042485     0.019666550
       1719.0000       290.81214       99575.582       8137.3671      0.81225000       1.6942500     -0.27725000       341.59200       3.6187222     0.018698862
       1724.0000       290.82567       99571.427       8174.0688      0.59275000       1.4590000    -0.040750000       342.80200       3.4923686     0.018067942
       1729.0000       290.82191       99562.004       8201.2178      0.94600000      0.97650000    -0.035000000       341.67800       6.6076132     0.027652370
       1734.0000       290.78584       99564.309       8195.4063      0.32925000       1.2200000     -0.20025000       341.93900       2.1587073     0.021443525
       1739.0000       290.64761       99582.481       8136.3491     -0.37575000       1.3452500     -0.57900010       341.75300       5.6760304     0.018195438
       1744.0000       290.60556       99581.935       8105.9679      0.18350000      0.99925010      0.28900000       342.03100       2.6381444     0.016095828
       1749.0000       290.60619       99574.447       8077.9069     -0.19950000       1.1152500    -0.085500000       342.01800       3.0071440     0.019129247
       1754.0000       290.57651       99576.307       8029.3510      0.25900000      0.98150000      0.15225000       342.10100       2.8870527     0.016478984
       1759.0000       290.53568       99575.796       7956.4800     -0.30650000       1.3635000     -0.30950000       341.66400       3.0988141     0.019611003
       1764.0000       290.55309       99572.841       7930.6098     -0.26325000       1.6345000    -0.087500010       342.23500       4.9165406     0.013061571
       1769.0000       290.57115       99574.613       7895.4863     -0.23975000       1.3965000      0.15525000       342.15200       3.3305354     0.018068824
       1774.0000       290.63716       99577.649       7908.6737     -0.24175000       1.6090000      0.23250000       343.21200       2.2206984     0.017088116
       1779.0000       290.79122       99574.963       7987.6999     -0.95050010       1.1107500     0.039500000       342.29100       2.1018156     0.017716933
       1784.0000       290.87287       99573.768       8020.7891      -1.0980000      0.46000000      0.14400000       342.55200       2.3657672     0.015940050
       1789.0000       290.92550       99582.919       8028.6533     -0.61300000       1.8185000      0.52000000       343.08300       2.3828699     0.019006917
       1794.0000       291.02353       99580.409       8109.7759     -0.24200000       2.0587500    -0.082250010       343.36000       3.3583357     0.025973890
       1800.0000       291.14090       99562.115       8226.1255      0.39400000       3.1915000     -0.21250000       342.40700       2.7076355     0.018950761
       1805.0000       291.25326       99564.861       8362.7825      0.30050000       4.0377500     -0.52400000       342.27800       3.1821116     0.015647343
       1810.0000       291.42413       99577.479       8601.5129      0.87250010       3.3002500     -0.35450000       343.09500       3.1047372     0.019537815
       1815.0000       291.48440       99562.949       8657.7050     -0.39850000       1.3612500      0.40200000       343.04100       2.6430445     0.014214159
       1820.0000       291.48129       99563.502       8663.9764      0.26500000       1.7087500      0.49775000       343.38000       2.5762564     0.017006047
       1825.0000       291.33887       99567.328       8513.6690      0.34575000       1.3135000      0.56675000       343.08300       2.7982587     0.018410891
       1830.0000       291.24975       99564.153       8413.1445       2.3735000       2.2912500     0.069000010       342.32300       2.3328476     0.020026091
       1835.0000       291.13027       99572.396       8295.9536       1.1852500       2.0500000     0.018500000       343.50800       2.0885142     0.018532406
       1840.0000       291.03855       99577.923       8205.2974     -0.15400000       3.1202500     -0.29850000       342.28800       2.7988763     0.017762544
       1845.0000       290.97147       99578.533       8133.6326       1.2382500       3.4892500     -0.27200000       341.86800       2.2084778     0.014544450
       1850.0000       290.93783       99563.337       8073.4884       1.1595000       2.9760000     0.018000000       342.18200       2.3670904     0.016911976
       1855.0000       290.93023       99562.744       8065.6341      0.77725010       2.9020000      0.13725000       342.72900       2.5550246     0.022151087
       1860.0000       290.94945       99571.331       8101.8911       1.0795000       2.8410000      0.11275000       342.74900       2.7854032     0.015233211
       1865.0000       290.93942       99562.713       8094.4806      0.59800000       2.3607500     -0.48150000       342.21900       2.3274575     0.015894701
       1870.0000       290.94922       99563.254       8094.3134   -0.0087500000       2.3362500     0.047000000       342.26500       2.3731845     0.018512029
       1875.0000       290.91469       99578.346       8025.7671      0.73150000       1.1377500     0.085500000       342.84700       3.0145478     0.021243279
       1880.0000       290.93067       99577.848       8017.8026      0.87500010       2.6807500      0.12350000       342.46700       2.5498576     0.017356364
       1886.0000       291.04264       99563.461       8106.9845      0.39525000       1.9860000      0.32600000       342.80400       2.9564753     0.017980858
       1891.0000       291.11278       99564.751       8144.5424       1.1290000       2.4047500     0.059500000       343.34000       3.3971228     0.020280093
       1896.0000       291.21403       99566.687       8192.4005      0.61125000       2.7735000     0.076000010       342.73700       3.4750267     0.019269254
       1901.0000       291.27194       99563.953       8226.8271      0.53300010       2.8560000     -0.76475010       341.66500       2.2396837     0.015068248
       1906.0000       291.29085       99570.909       8205.2246     0.064750000       2.1420000      0.44600000       342.79100       3.8045632     0.017721343
       1911.0000       291.30991       99577.670       8225.3152     -0.54300000       2.4697500    0.0010000000       342.82800       3.0204617     0.015723066
       1916.0000       291.28555       99576.282       8272.3466      0.56575000       2.5732500      0.11125000       343.01200       3.4957661     0.020291786
       1921.0000       291.29668       99574.465       8318.7150     -0.46450000       1.6830000      0.39800000       342.88100       3.5725949     0.015774353
       1926.0000       291.34802       99582.027       8429.3663      0.54625000       2.7300000     -0.21800000       342.68300       2.5262507     0.021974670
       1931.0000       291.35665       99582.524       8456.3563      0.27550000       2.1202500    -0.068250000       342.69400       2.9484711     0.020143898
       1936.0000       291.34260       99564.502       8422.1424    -0.022000000       1.3265000      0.78675000       342.76600       2.7360071     0.019908001
       1941.0000       291.35265       99562.153       8409.2298      0.83475010       2.1430000     -0.19325000       342.19800       4.0780005     0.019001083
       1946.0000       291.37212       99578.554       8346.6352       1.1265000       1.6972500      0.15875000       341.82500       2.6443723     0.019799916
       1951.0000       291.35062       99577.081       8305.0081      0.55675000      0.62000000     0.032250000       341.87000       3.4426893     0.020368106
       1956.0000       291.30705       99562.979       8289.7839      0.13300000      0.12900000      0.28850000       342.88800       3.3666947     0.019482815
       1961.0000       291.29665       99564.083       8278.0718     -0.12375000      0.22000000      0.31225000       342.85100       4.0908506     0.018285431
       1966.0000       291.25303       99566.369       8270.7346      0.18950000    -0.022000000      0.32575000       343.32500       3.3685377     0.016459438
       1971.0000       291.23564       99563.643       8252.1039   -0.0022500000    0.0070000000      0.18625000       342.88800       3.7375516     0.027345247
       1977.0000       291.30793       99572.621       8241.4248     -0.84925000     0.079250000      0.25625000       342.84600       5.0448073     0.022762058
       1982.0000       291.30967       99578.794       8224.2893      0.24425000       2.0787500     -0.64450000       342.42100       3.6060326     0.022165984
       1987.0000       291.27465       99577.102       8184.8047     -0.54675000       1.0985000      0.59375000       343.80400       2.8066260     0.016397389
       1992.0000       291.24071       99574.061       8157.8829      -1.3295000       1.0382500      0.28075000       342.46100       4.8274606     0.019379423
       1997.0000       291.16607       99575.946       8136.3318      -1.6452500       1.3670000    -0.064250000       342.24900       2.3959930     0.024395272
       2002.0000       291.12967       99576.205       8120.9976     0.077000010      0.82325010      0.33625000       343.02400       3.9838395     0.018394902
       2007.0000       291.07937       99565.617       8098.9622     -0.52300000      0.52700000      0.31500000       343.03100       2.3172167     0.019564860
       2012.0000       291.09100       99562.819       8099.3994     -0.22775000       2.0340000    -0.057750000       342.00400       3.1017809     0.024189442
       2017.0000       291.17593       99570.896       8126.8175     -0.54725000       1.1552500    0.0060000000       342.60200       4.1400492     0.024705272
       2022.0000       291.21558       99571.117       8138.8631     -0.24575000       1.3742500   -0.0092500000       341.64800       3.8660481     0.020940649
       2027.0000       291.27650       99562.539       8143.8230     -0.24250000      0.98825000     -0.13175000       341.63400       4.2359884     0.019464472
       2032.0000       291.32267       99564.708       8172.4173     -0.14150000       1.0322500     -0.17650000       341.80500       3.9283542     0.017762813
       2037.0000       291.36348       99578.658       8231.9098     -0.13100000       1.3122500    -0.011500000       342.21600       2.1932591     0.019003281
       2042.0000       291.35606       99576.188       8242.4245     -0.50675000      0.99425010     -0.17075000       343.13100       4.2640713     0.020657724
       2047.0000       291.31824       99562.990       8252.9841     -0.55575000      0.55975000      0.44400000       343.16200       5.8782233     0.029863009
       2052.0000       291.29462       99564.617       8244.4939     -0.53300010       1.1972500     0.037000000       343.27700       2.2905447     0.021128479
       2057.0000       291.22255       99568.250       8186.9494     -0.23250000       1.2327500      0.38975000       342.51700       4.2979462     0.022476286
       2062.0000       291.17654       99563.290       8137.3390     -0.53550000       1.7822500      0.63950000       342.96500       6.3242201     0.021880551
       2068.0000       291.12335       99563.513       8062.0016     -0.43825000       1.0985000      0.12325000       342.43500       5.3840086     0.019561974
       2073.0000       291.15254       99568.509       8035.7043     -0.34825000       1.9660000     -0.18425000       341.72200       6.2943810     0.025718658
       2078.0000       291.20555       99567.521       8010.9891    -0.037250000       1.6942500    -0.020750000       341.76600       2.1792818     0.016937423
       2083.0000       291.28484       99562.555       7999.0701     -0.20950000       1.8232500     -0.28750000       341.66900       3.1491817     0.025739366
       2088.0000       291.48428       99563.068       8038.6914    -0.099250000       1.8560000     -0.26775000       342.42800       3.3072020     0.026062976
       2093.0000       291.56593       99568.052       8034.8838      0.37200000       1.5080000      0.29075000       341.64500       4.4512310     0.018245230
       2098.0000       291.63246       99564.947       7999.9895     0.062750000       1.8545000    0.0062500000       342.26800       5.1728145     0.030579481
       2103.0000       291.61105       99563.208       7987.6841     -0.34525000       1.8197500    0.0037500000       342.03900       3.4996674     0.021186700
       2108.0000       291.49682       99576.036       7978.2383    -0.087500010       1.2335000     -0.13450000       342.10100       2.7297616     0.021939838
       2113.0000       291.40524       99578.510       7966.0732      0.48000000       1.3610000      0.15350000       342.60400       3.5138213     0.028840679
       2118.0000       291.22040       99565.718       7958.3600      0.96500000       2.0702500     -0.20500000       341.68500       2.5103075     0.023309818
       2123.0000       291.13915       99561.941       7950.6081      0.25800000       1.5425000      0.32050000       342.24200       3.5708010     0.021292117
       2128.0000       291.10256       99564.864       7936.7440      0.33750000       1.0245000      0.35025000       342.72400       3.2597173     0.017854227
       2133.0000       291.07480       99565.915       7931.4595      0.71275000       1.9400000     -0.32075000       342.38500       3.2185224     0.025164243
       2138.0000       291.07771       99564.575       7925.0378      0.82200000       1.6030000     -0.10850000       342.35200       3.2960000     0.026148263
       2143.0000       291.10990       99565.194       7941.1958      0.25150000       1.4680000     -0.20075000       341.56400       4.7164330     0.025048111
       2148.0000       291.18388       99571.389       7982.7497      0.45400000      0.96700010      0.39225000       342.85900       4.1491213     0.023670927
       2153.0000       291.22329       99571.133       7995.9168      0.58525000       1.5092500     -0.49350000       341.80800       4.0812728     0.024763501
       2159.0000       291.33473       99564.922       8041.8694      0.32025000       1.6995000     0.031250000       341.74100       2.3020137     0.022721056
       2164.0000       291.29994       99564.850       8003.4461      0.35650000       1.6685000     -0.23075000       342.76000       3.9035472     0.032356950
       2169.0000       291.17944       99565.564       7898.2765      0.55650000       1.4522500    -0.095750000       341.96900       3.1551321     0.015615068
       2174.0000       291.08163       99564.590       7844.0725      0.27050000       1.7540000     -0.25075000       341.63500       3.9677575     0.028697033
       2179.0000       290.90467       99565.008       7756.2696      0.13300000      0.98950000      0.41850000       342.17700       3.3658950     0.020664851
       2184.0000       290.81201       99565.989       7727.5859      0.61025010       1.4867500     -0.18175000       341.97600       3.2046776     0.028120783
       2189.0000       290.74746       99567.519       7751.4599      0.80450000       1.4480000      0.11500000       342.28700       2.3425409     0.022330847
       2194.0000       290.70541       99562.884       7746.2992     0.012000000       1.2367500      0.28725000       342.51800       2.3897091     0.027100418
       2199.0000       290.69717       99554.275       7745.6720      0.94250010       2.5657500     -0.14300000       343.37700       2.5619503     0.020362660
       2204.0000       290.68584       99555.031       7750.4547       1.0992500      0.62250000     -0.39025000       341.95700       3.3474334     0.024391683
       2209.0000       290.70084       99554.049       7771.6933       1.4670000    -0.012500000      0.30700000       342.37200       3.1971115     0.027076999
       2214.0000       290.70107       99554.921       7746.7106      0.97975000       1.0245000     0.084250000       341.97800       2.9828047     0.018668375
       2219.0000       290.70935       99563.821       7712.1705       1.1080000      0.28375000      0.37550000       343.27500       3.0388220     0.025109222
       2224.0000       290.69079       99570.906       7666.6731       1.9370000       1.3200000     -0.17700000       341.59900       2.5771964     0.019666550
       2229.0000       290.65297       99578.266       7566.1742       1.5297500       1.0075000     -0.31500000       341.69200       2.6941448     0.020339743
       2234.0000       290.63293       99573.797       7530.1185       1.3442500       1.2795000     -0.11950000       341.63200       4.7008562     0.020849435
       2239.0000       290.59707       99563.801       7522.8198       1.1467500      0.89200000     0.051250000       341.93100       3.1901612     0.023393039
       2244.0000       290.58591       99566.566       7512.7193       1.0760000      0.32700000    0.0035000000       343.17400       3.7007159     0.022261205
       2250.0000       290.58120       99565.254       7515.0400      0.61375000       1.0922500     -0.16025000       343.10800       3.6806163     0.020708121
       2255.0000       290.64623       99560.384       7550.9873      0.70575000       1.4257500     -0.39675000       342.16300       2.1165200     0.015027376
       2260.0000       290.74401       99566.663       7605.9734       1.6895000       1.5465000    -0.028000000       342.44900       2.3381855     0.020093160
       2265.0000       290.87138       99561.354       7658.7303       1.5672500       1.2782500     -0.11150000       341.62200       3.6634715     0.022219154
       2270.0000       290.96470       99554.117       7710.4647       1.2380000       1.6627500     -0.27000000       341.71500       3.1826867     0.020743320
       2275.0000       291.06080       99558.390       7774.7179      0.49250000      0.72250000    -0.047750000       342.07600       2.8997632     0.019006054
       2280.0000       291.07504       99557.877       7788.0243      0.89975010      0.45800000    -0.052500000       342.22200       2.1782458     0.017452944
       2285.0000       290.96497       99537.252       7747.8655      0.34100000       2.0172500      0.12975000       343.91700       2.0731325     0.022359015
       2290.0000       290.94367       99531.486       7748.6873       1.4487500      0.84350000     0.017500000       342.77400       2.0376474     0.013516728
       2295.0000       290.93461       99533.109       7749.8220      0.75075010     0.024250000      0.59800000       342.34800       2.1564839     0.015712669
       2300.0000       290.88738       99544.664       7716.0367       1.0785000      0.41900000     -0.13575000       342.78300       2.0135242     0.019911268
       2305.0000       290.88092       99549.966       7714.8686       1.9582500      0.19275000    -0.084250000       343.69200       1.9770786     0.011790122
       2310.0000       290.94972       99564.045       7755.7111       1.1010000      0.42025000      0.21725000       343.19400       2.0844091     0.017469556
       2315.0000       290.97619       99545.300       7793.4724       1.6870000      0.22100000     -0.14025000       342.40300       2.0163413     0.011886593
       2320.0000       290.99522       99542.699       7806.2055      0.90150000      0.27725000      0.14575000       342.63200       2.0172732     0.010533619
       2325.0000       291.05566       99551.388       7839.6098       2.7907500     -0.24525000      0.14425000       342.65300       2.0540433     0.011993901
       2330.0000       291.10660       99550.440       7854.0627       2.9675000      0.25600000     -0.56675000       342.40400       2.1255587     0.019412250
       2335.0000       291.14531       99549.492       7846.8722       2.4447500      0.56625000     -0.27875000       341.75600       2.0086057     0.014827820
       2341.0000       291.15968       99556.955       7789.9281       1.4152500    -0.031000000      0.79050000       343.00600       2.0250145     0.016783758
       2346.0000       291.14938       99557.712       7768.4341       1.1882500       1.6615000     -0.19100000       341.70500       2.0308714     0.010002713
       2351.0000       291.10500       99554.652       7723.8217      0.94425000     0.036250000     -0.44025000       343.03200       1.9709628     0.010783321
       2356.0000       290.94955       99552.691       7629.2417      0.75125000      0.51025000    -0.022000000       342.66600       2.0520433     0.012073992
       2361.0000       290.87141       99555.664       7581.0207       1.3292500       1.2627500    -0.013500000       342.87000       1.9345335     0.011089251
       2366.0000       290.81846       99557.562       7543.9510       2.7215000       1.4812500     -0.38950000       341.98000       2.2544907     0.014213039
       2371.0000       290.78134       99554.522       7516.7573       2.1680000       1.0952500     -0.20300000       342.14500       1.9861606     0.013413314
       2376.0000       290.77180       99552.842       7500.2096       2.6275000       1.2382500    -0.058000000       341.92400       1.9289590    0.0084016650
       2381.0000       290.79416       99555.805       7524.1036       1.9662500      0.29150000     -0.83300010       342.23900       1.9428410    0.0086379025
       2386.0000       290.86602       99557.500       7591.0082       3.3532500      0.65800010     -0.28575000       342.01700       1.9500594    0.0080128856
       2391.0000       290.90599       99554.490       7633.8900       1.1182500      -1.0807500      -1.1150000       342.92600       1.9628735    0.0099071512
       2396.0000       290.96554       99554.351       7718.1142       2.7830000     -0.35050000     -0.13875000       342.46800       1.9141331    0.0090515120
       2401.0000       291.01481       99556.351       7770.0417       4.0242500       3.6932500     -0.63600000       342.56800       1.9911900    0.0098732161
       2406.0000       291.03452       99552.884       7773.8493       4.6520000       1.5357500      0.53950000       342.70200       1.9271306    0.0083455357
       2411.0000       291.05471       99548.990       7790.4193       3.5442500       3.5537500     -0.69750010       342.55700       1.9589188     0.010008828
       2416.0000       291.07636       99547.306       7807.1023       3.5330000       4.4820000      0.20450000       342.27300       2.1773813     0.010788022
       2421.0000       291.10626       99550.436       7825.8407       4.1672500       4.7765000     -0.66825000       342.30300       3.4473787     0.011496593
       2426.0000       291.10390       99553.662       7844.3935       1.8547500       3.2767500     -0.24250000       342.49200       2.3775449    0.0094606694
       2432.0000       291.15840       99555.195       7862.9702      0.94150010       2.5905000      0.25400000       343.07400       2.2156278     0.011420672
       2437.0000       291.25804       99564.656       7867.0638       1.4250000       2.8062500    -0.046750000       342.69100       2.9865285     0.010472822
       2442.0000       291.32833       99567.436       7896.7187     -0.21725000       2.7020000      -1.0977500       342.22000       2.6370940    0.0096419891
       2447.0000       291.40363       99559.328       7932.6601      0.84275000       1.7122500     0.087250000       342.66900       3.8582412     0.011474804
       2452.0000       291.48388       99559.015       7979.2008      0.50525000       1.2452500     -0.24525000       342.65500       4.2558637     0.018317560
       2457.0000       291.62338       99567.995       8127.0140     -0.60100000       1.8505000     -0.52300000       342.77800       4.5352935     0.021447587
       2462.0000       291.62401       99565.833       8115.8764      0.39525000       2.2750000     -0.31075000       342.75200       2.1797759     0.010785138
       2467.0000       291.56417       99554.554       8012.6112     -0.93225000       3.5670000     -0.38450000       342.62000       2.5999841     0.012975801
       2472.0000       291.49005       99554.315       7927.2098      -1.1082500       2.6440000     -0.17375000       343.01700       4.1556089     0.022843669
       2477.0000       291.28661       99558.439       7732.3240      -1.6197500       3.2080000     -0.47375000       342.82500       2.8271595     0.012637145
       2482.0000       291.14024       99554.125       7602.9280      -1.0022500       2.6582500      0.17175000       342.68700       2.3075419     0.011193825
       2487.0000       290.99715       99548.386       7516.5617     -0.97375010       2.5147500      0.48500000       342.79800       3.3205985     0.012946932
       2492.0000       290.90403       99550.825       7430.9142      0.35075000       4.0382500     -0.75600000       342.26900       2.3355169     0.010057008
       2497.0000       290.81469       99552.824       7328.7645      0.97600010       2.4957500       1.8640000       343.34500       2.4108413     0.011438415
       2502.0000       290.76526       99548.849       7269.0715       1.4397500       2.1682500      0.13175000       342.75000       3.1832745     0.011622827
       2507.0000       290.76105       99547.930       7231.7645       1.5130000       2.9952500     -0.14950000       342.83800       2.5969417    0.0095182175
       2512.0000       290.80196       99551.878       7229.6412      0.94625000       3.8192500     -0.16050000       342.34200       2.6512501     0.011646073
       2517.0000       290.91169       99552.401       7278.5201       1.4167500       3.8107500     -0.42850000       342.11700       2.7285413    0.0092557616
       2523.0000       290.98389       99547.555       7316.2178      0.68600000       2.2370000      0.49550000       342.79800       2.1469462     0.010103920
       2528.0000       291.07542       99548.612       7370.1447       1.7337500       2.0285000    -0.048750000       342.88500       2.6397294    0.0099169431
       2533.0000       291.14998       99552.685       7423.5738       1.1485000       2.1610000      0.33050000       342.77600       2.6411228     0.015518331
       2538.0000       291.18575       99551.067       7465.9079       2.8820000       2.1635000     -0.82975010       342.31300       3.6541761     0.013024779
       2543.0000       291.22585       99548.727       7524.1916       1.7242500       3.3802500      0.62725000       343.08000       4.4921406     0.013215826
       2548.0000       291.29883       99554.067       7602.2896       1.9110000       2.3177500     -0.37650000       342.62900       4.0314371     0.010712048
       2553.0000       291.32589       99558.418       7680.0307     -0.50600000       2.1475000      0.20325000       342.60500       2.5484362    0.0097036765
       2558.0000       291.31123       99554.265       7790.0008       1.3802500       2.5447500      0.26425000       342.48900       3.0739469    0.0095124568
       2563.0000       291.29504       99554.502       7827.2780       1.0270000       1.6892500      0.23075000       342.92700       2.2395619    0.0081033779
       2568.0000       291.29424       99565.929       7860.4348      0.46525000       1.3940000     0.078000000       343.08000       2.5114463    0.0093519891
       2573.0000       291.22483       99567.967       7835.5571       1.2072500       1.3522500      0.20650000       343.43100       2.4117412     0.010685861
       2578.0000       291.07518       99559.252       7711.1872       1.6890000       2.9022500      -1.2495000       342.16400       2.3987278     0.010794399
       2583.0000       291.00092       99559.453       7655.2105       1.6405000       1.3100000      0.76475010       342.56400       3.3826996    0.0088735614
       2588.0000       290.93533       99567.883       7605.0425      0.40100000       2.6132500     -0.13225000       342.73200       2.3046028    0.0085333301
       2593.0000       290.84536       99565.077       7554.0716       1.1975000       2.0717500     -0.29875000       342.77300       2.7766492    0.0091937078
       2598.0000       290.78506       99554.257       7516.7704      0.63175000       1.0627500      0.54275000       342.94800       3.3467992    0.0099119924
       2603.0000       290.70934       99554.514       7485.7167       1.8322500       2.8952500    -0.048500000       342.21100       3.5475782     0.010326394
       2609.0000       290.56411       99556.826       7440.9713       1.8957500       2.7357500     -0.10550000       342.01500       2.0701270    0.0071702053
       2614.0000       290.47248       99552.014       7419.9236       1.3777500       1.8335000     0.047250000       342.54300       1.9724984    0.0083404272
       2619.0000       290.39684       99549.324       7413.2727       1.5107500       1.2187500      0.52400000       343.12600       1.9849055    0.0071359765
       2624.0000       290.36446       99552.347       7425.7210       2.8745000       2.1452500     -0.37775000       341.73500       2.5246861    0.0098043496
       2629.0000       290.34094       99550.506       7453.4262       1.4672500       1.1602500     -0.11000000       342.41400       3.4400575     0.010786147
       2634.0000       290.33853       99548.399       7471.2234       2.1157500       2.0862500     -0.42700000       342.24000       2.7887507     0.018036597
       2639.0000       290.38482       99555.035       7500.4279       1.6770000       2.7010000     -0.34900000       342.66800       2.6180217     0.011460633
       2644.0000       290.43306       99559.141       7541.1747       1.9285000       2.5295000   -0.0097500000       342.31500       3.5588584     0.012666903
       2649.0000       290.48274       99554.115       7567.6932       3.5130000       2.4322500      0.47300000       342.47800       2.8103739     0.016652255
       2654.0000       290.54079       99554.846       7630.1825       1.7682500       1.9565000      0.23425000       342.89700       3.6482180     0.011656122
       2659.0000       290.65111       99568.705       7737.7509       1.8585000       2.2480000     -0.18575000       342.74500       2.1254264    0.0081858434
       2664.0000       290.69362       99566.255       7813.7711      0.55075000       1.9940000    -0.028000000       343.38200       2.0931723    0.0072293498
       2669.0000       290.71117       99548.354       7918.4592       1.9222500       2.8357500     -0.33875000       341.94600       2.2398464    0.0079312075
       2674.0000       290.70377       99548.927       7926.3652      0.59225000       2.0952500     -0.29575000       342.31200       3.1613483    0.0088946962
       2679.0000       290.65391       99557.310       7882.2693       2.1210000       3.0067500     -0.72550000       341.86500       2.2626198    0.0070365657
       2684.0000       290.63409       99553.604       7846.6810       1.3620000       2.1157500     -0.17750000       342.09800       1.9682905    0.0074088335
       2689.0000       290.57906       99548.985       7742.4851       1.5400000       2.3472500     -0.63475000       342.29000       1.9713293    0.0084705446
       2694.0000       290.60498       99551.756       7696.7793      0.27300000       2.0720000     0.079000000       343.14600       2.0940063     0.011499246
       2700.0000       290.69125       99550.179       7672.6456       1.9940000       2.5757500     -0.44000000       342.63600       1.9940407     0.011054132
       2705.0000       290.75299       99546.277       7655.7383       1.2305000       2.2475000     -0.20875000       342.93300       2.1202911    0.0094180505
       2710.0000       290.84475       99550.240       7632.2459       1.1387500       1.7722500      0.17275000       342.99600       2.0117281    0.0087174771
       2715.0000       290.97742       99549.892       7688.8861       1.1712500       2.5990000     -0.23725000       342.16200       1.9815444    0.0087107747
       2720.0000       291.05980       99548.525       7739.6239       1.6302500       2.2775000     -0.67050000       342.78300       2.0452882    0.0094102126
       2725.0000       291.15636       99561.481       7852.7626       1.0320000       2.0327500     -0.36675000       342.23200       1.9991450    0.0081358899
       2730.0000       291.21911       99567.877       7915.7145       2.0917500       1.7390000     -0.28475000       341.86500       1.9802462    0.0075758177
       2735.0000       291.21471       99560.216       7941.6513       1.0660000       1.8242500    -0.072750000       342.82000       2.0583701    0.0069064000
       2740.0000       291.20601       99558.970       7963.6300       1.8465000       1.7960000     0.020500000       342.15500       2.4657068    0.0078602508
       2745.0000       291.18502       99560.195       7968.7776      0.68850000       1.0672500     -0.22600000       342.27800       2.0542906    0.0087188751
       2750.0000       291.14391       99567.713       7932.5727       1.0017500       1.0435000      0.56250000       343.33600       2.0353843    0.0087555499
       2755.0000       291.14507       99561.086       7949.4480      0.92025010       1.0135000     -0.35350000       342.07600       1.9706802    0.0075441097
       2760.0000       291.14391       99548.493       7988.1915      0.52225000       2.1925000    -0.047500000       342.93300       3.4880822     0.010281640
       2765.0000       291.19958       99554.391       7994.3360      0.59825000       1.7075000     0.061000000       342.72300       2.7963108     0.010914193
       2770.0000       291.21250       99550.460       7995.0001       1.7870000      0.88875000      0.17450000       343.42900       3.8879882     0.011266270
       2775.0000       291.19985       99547.929       7970.9308       1.2002500       2.0095000     -0.27275000       342.45000       2.4330662     0.016809108
       2780.0000       291.16258       99551.067       7934.6335      0.74950000      0.88625000      0.62050000       343.22700       2.5145413     0.010171160
       2785.0000       291.10072       99552.983       7891.4211      0.37150000      0.60000000      0.42900000       343.65000       2.7777638    0.0092288907
       2791.0000       290.98822       99542.683       7841.4047      0.29425000      0.83950010      0.20775000       343.23500       2.5524810    0.0078270734
       2796.0000       290.87211       99564.869       7774.6652      0.40075000       1.5222500     -0.14450000       343.33400       2.6580257     0.010029072
       2801.0000       290.82575       99569.146       7725.4144      0.92925010       1.9720000      0.17875000       342.84300       2.7420927     0.011054685
       2806.0000       290.85823       99554.724       7689.3956       1.1250000       1.9360000     -0.86975000       342.47600       2.8691953    0.0095654754
       2811.0000       290.84830       99553.915       7657.9667      0.50625000      0.99900010      0.59450000       343.64700       3.4115468     0.010329105
       2816.0000       290.85665       99559.075       7624.1233      0.23375000       1.0877500      0.25925000       343.35300       3.0033397     0.011418898
       2821.0000       290.85539       99554.966       7607.3621     -0.37850000       2.6467500      0.42625000       342.72200       3.5632652     0.012867214
       2826.0000       290.82417       99547.891       7613.2206       1.4827500       2.2400000     -0.54850000       342.38600       2.6752918    0.0085908428
       2831.0000       290.79454       99549.927       7611.2301       1.9492500       2.8980000      0.23100000       342.77000       3.0930912     0.013743658
       2836.0000       290.76688       99551.824       7615.2604      0.85575000       2.1185000    -0.081750010       342.60400       2.4459058     0.010078507
       2841.0000       290.74690       99548.946       7620.1753       2.3155000       2.2070000      0.27800000       342.77200       2.8039276     0.010169382
       2846.0000       290.69649       99557.470       7621.6563       1.7380000       2.4502500      0.17725000       342.19300       4.3850127     0.012036004
       2851.0000       290.68887       99557.975       7625.1429      0.99325010       2.1015000      0.14425000       342.62400       2.2766252     0.016434041
       2856.0000       290.72032       99533.993       7625.1071       1.0955000       1.8840000      0.23000000       342.36600       2.6209237    0.0095413236
       2861.0000       290.75146       99530.655       7640.6358       1.1970000       2.1170000      0.15150000       342.54600       2.7764374     0.010146179
       2866.0000       290.83918       99550.569       7677.5913       1.6817500       1.8480000     -0.21875000       341.92100       2.7378684     0.011977460
       2871.0000       290.86655       99552.159       7693.6730       1.5747500       2.2585000    -0.052750000       342.06800       2.2759803    0.0071742248
       2876.0000       290.87220       99553.156       7722.6642      0.45025000       1.1887500    -0.023250000       342.89100       1.9762153    0.0077136821
       2882.0000       290.85382       99551.856       7727.3231       1.2825000      0.41775000      0.17150000       343.14500       2.0275595    0.0077917623
       2887.0000       290.75426       99527.418       7680.9175       1.5362500      0.50625000      0.52175000       342.52800       2.0994976    0.0091994467
       2892.0000       290.73168       99526.519       7676.1732      0.98800000       1.1430000      0.48450000       343.73300       2.6948937    0.0093331893
       2897.0000       290.74340       99549.713       7685.5408      0.22450000       2.2422500     -0.25875000       342.13500       2.4467604    0.0080515390
       2902.0000       290.74712       99553.693       7691.1778       1.5145000       2.7117500      0.44475000       342.51300       2.2856042     0.012758848
       2907.0000       290.79533       99554.505       7724.8774       1.4012500       1.1420000     -0.10375000       342.88100       2.1379242    0.0075853991
       2912.0000       290.81133       99557.746       7732.9493       1.4925000       1.5240000     -0.72925000       342.56600       2.2198368    0.0080611286
       2917.0000       290.81320       99553.353       7718.8812       2.6717500       1.9320000     0.073750000       342.71600       2.7136257     0.013080172
       2922.0000       290.79970       99548.417       7714.1469       1.1915000       1.0540000      0.45125000       343.02500       2.0753144    0.0090423588
       2927.0000       290.72309       99542.770       7681.7039      0.98050000      0.24775000      0.32875000       343.21300       3.9885213     0.014330054
       2932.0000       290.74476       99545.536       7699.8496       1.9807500      0.65975000      0.31900000       343.00500       2.0136006     0.010502853
       2937.0000       290.83194       99551.102       7767.6317       1.5355000       2.5050000     -0.71625010       342.45000       2.1193046    0.0084769446
       2942.0000       290.86188       99550.135       7793.4483       1.6602500       1.4190000     0.021750000       343.51200       2.7022892     0.011396908
       2947.0000       290.97262       99553.965       7827.1468       1.7075000       1.6015000     -0.23725000       342.91400       3.0840542     0.011810302
       2952.0000       290.97487       99557.127       7856.8801       1.3005000       1.6045000    0.0055000000       343.24300       3.0804344    0.0099605522
       2957.0000       290.84172       99549.403       7861.2001      0.76850000       1.4612500    -0.015000000       343.35200       2.1936338    0.0078468115
       2962.0000       290.77243       99548.549       7860.6399       1.9720000       1.9710000     -0.27425000       343.22600       2.3961053    0.0075820320
       2967.0000       290.67214       99563.341       7870.4018       2.5830000       1.7865000     0.057250000       343.33700       2.3038457    0.0095606588
       2973.0000       290.61248       99561.431       7868.3853       1.5207500       1.9085000     -0.66700010       343.03900       3.2770594     0.014893695
       2978.0000       290.60143       99543.471       7841.9022      0.81625000      0.60700010      0.63075000       343.81800       3.1271862     0.012929956
       2983.0000       290.58780       99544.075       7818.8794       1.8602500       1.3705000      0.20375000       343.42600       2.6409465     0.010320996
       2988.0000       290.58913       99551.990       7797.9143       1.9922500       1.3607500      0.68925010       343.29200       3.1861238     0.012485825
       2993.0000       290.60550       99549.383       7780.0432       1.9845000       2.4665000     -0.66325000       342.33500       3.0146613     0.018543383
       2998.0000       290.63115       99552.287       7740.0099       1.7897500       2.4770000     -0.40825000       342.86700       2.7499529     0.016002406
       3003.0000       290.66721       99551.458       7734.6308       2.9797500       2.4930000    0.0012500000       342.04600       2.9329717     0.021834928
       3008.0000       290.73006       99531.535       7752.7258       1.2995000       1.6680000     -0.16275000       342.73000       3.1981241     0.011258797
       3013.0000       290.77977       99532.869       7771.9758       2.1375000       1.5067500      0.52500000       343.07000       2.9659662     0.020859966
       3018.0000       290.81736       99559.568       7796.7086      0.68850000       1.2920000     -0.51900010       343.55100       2.7375906     0.017194887
       3023.0000       290.88411       99557.123       7844.4049       2.0237500       1.8247500     -0.23475000       342.87700       2.3855364     0.011893128
       3028.0000       291.02659       99539.342       7925.2981       1.7940000       1.2170000      0.36775000       342.62000       4.2718414     0.026034938
       3033.0000       291.01522       99539.689       7969.1630       1.2557500       1.4802500     -0.47825000       343.10300       2.3598632     0.012549040
       3038.0000       290.92765       99534.122       8019.1145       1.4187500      0.76875000    -0.083250000       343.07900       4.5371665     0.022312316
       3043.0000       290.87516       99532.564       8049.4370       1.0212500      0.33825000     -0.13675000       343.24800       2.0523593    0.0079701283
       3048.0000       290.69168       99552.562       8043.1492       2.1770000      0.87750010     -0.15675000       343.15700       2.4248423     0.015803443
       3053.0000       290.65328       99553.777       8049.5287       2.0375000       2.0107500      0.10275000       342.72500       3.0262612    0.0084548524
       3058.0000       290.72988       99532.624       8061.7488       2.9612500       1.3075000     -0.46250000       342.01200       3.6039012     0.014164104
       3064.0000       290.77549       99533.541       8067.4573       1.8395000       1.4735000      0.13075000       343.17000       3.2434288     0.011497496
       3069.0000       290.85714       99546.528       8071.5019       1.6040000       1.9442500     -0.40075000       341.83600       3.7191166     0.011608166
       3074.0000       290.86956       99545.730       8046.9242       2.3470000       1.9822500     -0.38600000       341.80700       2.9372957     0.011898548
       3079.0000       290.85614       99546.391       8006.6947       2.0372500       1.3785000     -0.11225000       342.51500       2.4007825    0.0094182419
       3084.0000       290.84741       99545.686       7973.3697       2.1540000       1.5987500     -0.71000000       342.21700       3.0086597     0.010835721
       3089.0000       290.77914       99531.310       7904.8769       1.6015000      0.67925010     -0.18175000       342.53600       3.3208366     0.016335197
       3094.0000       290.80535       99535.521       7892.7046       1.0642500      0.71050010      0.31450000       342.96300       4.1497473     0.012833736
       3099.0000       290.87318       99559.920       7895.1722       1.8915000       1.1742500    -0.067750010       342.39300       3.2512481     0.010883500
       3104.0000       290.94966       99555.960       7944.0484       1.9765000       1.6410000     -0.30275000       342.24300       3.2700769     0.018389161
       3109.0000       291.09587       99539.269       8054.7412       1.5335000       1.9912500     -0.80150000       342.47300       3.3074615     0.020516355
       3114.0000       291.15845       99539.920       8107.5674       1.1190000       1.3655000      0.15075000       342.68500       2.9653248    0.0091294333
       3119.0000       291.20480       99531.503       8170.6241       1.6717500       1.2372500      0.38500000       342.63000       2.9502577    0.0085134368
       3124.0000       291.22755       99534.612       8228.6022      0.62375000       1.4500000     0.065250000       342.38700       3.0635478     0.011801395
       3129.0000       291.20001       99564.624       8261.6781       1.2072500       3.3085000     -0.60725000       342.88700       4.1918084     0.022160717
       3134.0000       291.20001       99564.771       8283.7103      0.30525000       3.5012500      0.69150000       342.48600       3.1390770     0.017883888
       3139.0000       291.20952       99543.639       8334.4776      0.16775000       2.4070000      0.45300000       342.65800       2.1867144     0.015653099
       3144.0000       291.19105       99543.190       8319.3261      0.77025000       3.0160000      0.27950000       342.91000       2.6497685    0.0092976630
       3150.0000       291.14432       99544.539       8226.9049      0.13750000       1.7060000      0.55000000       343.13300       3.4290567     0.010715233
       3155.0000       291.14561       99543.768       8186.7016      0.51175000       3.0400000      0.51225000       343.31900       2.9436066     0.012466739
       3160.0000       291.14428       99552.580       8143.3090     -0.37775000       2.6122500      0.60225000       342.42000       2.3912552     0.010400100
       3165.0000       291.18530       99535.588       8081.7608      0.45000000       1.7660000      0.19625000       343.24500       2.8266758     0.013105577
       3170.0000       291.20679       99531.777       8038.5602      0.83500000       1.4487500     0.041750000       343.01300       2.5855849     0.019227096
       3175.0000       291.20020       99545.284       7985.5499       1.2967500       2.5950000     0.023250000       342.79000       2.5690691     0.011659886
       3180.0000       291.20017       99546.468       7948.4166       2.2755000       3.0137500     -0.33275000       342.92100       2.8744091     0.013321473
       3185.0000       291.20018       99545.393       7942.9333       2.0567500       1.8442500     -0.29675000       342.35600       2.6844482     0.010706952
       3190.0000       291.20030       99546.699       7934.2308      0.98450010       3.6680000     -0.67075000       342.28200       2.8314774     0.020340808
       3195.0000       291.20042       99545.533       7928.3271      0.81925000       2.1785000      0.51975000       342.61400       5.6165755     0.039051599
       3200.0000       291.19973       99532.005       7927.3361     0.032250000       2.3875000     0.079500000       342.43500       2.3219781     0.012601922
       3205.0000       291.19961       99535.738       7916.0731      0.16225000       2.5270000     -0.39550000       341.87300       2.4520280     0.012607117
       3210.0000       291.19381       99552.726       7896.3000       1.1370000       1.7742500      0.34100000       342.26100       2.4623617     0.011690727
       3215.0000       291.21583       99543.564       7906.9717       2.0307500       2.3185000     -0.20525000       342.31600       2.3982837    0.0099884051
       3220.0000       291.24478       99544.310       7930.5822       1.5237500       1.8772500      0.35925000       342.72800       2.1849595     0.011457973
       3225.0000       291.33023       99543.824       8012.2206      0.68100010       3.0997500     -0.55275010       342.48500       2.7006453    0.0087533557
       3230.0000       291.36226       99543.477       8060.2908      0.63025000       2.4002500    -0.089750010       342.65900       2.8380509     0.012502601
       3235.0000       291.36965       99546.797       8095.5866       1.5887500       2.9255000     -0.85375010       342.32300       2.7238054    0.0096460633
       3241.0000       291.35525       99564.748       8124.7643      0.76725010       1.1995000      0.16175000       343.11400       2.7699673     0.017613590
       3246.0000       291.32397       99539.098       8155.2779       1.5097500       3.2432500     -0.74850000       342.36700       2.0485221     0.010360729
       3251.0000       291.29365       99532.559       8162.5540     -0.13875000       3.7035000      -1.1037500       341.93300       3.9304400     0.020756018
       3256.0000       291.25176       99522.795       8160.3916       1.0390000       4.1355000      0.55650000       342.61600       2.3609019     0.020614358
       3261.0000       291.24298       99521.642       8156.6231       1.6632500       3.3137500     -0.13925000       342.43400       3.0352532     0.025077637
       3266.0000       291.24345       99551.228       8126.1962       1.8147500       2.5737500      0.14600000       342.27300       3.4194682     0.012512002
       3271.0000       291.24477       99554.985       8102.8564       3.0025000       3.3452500      -1.3605000       342.40100       2.1694519     0.013096824
       3276.0000       291.27588       99534.338       8079.0038      0.89400010       2.7862500     -0.53550000       341.73200       2.5321844     0.014861474
       3281.0000       291.30562       99533.726       8067.3376      0.85275010       2.3850000      0.35725000       342.62700       2.8249844     0.019404879
       3286.0000       291.31848       99534.784       8042.2639      0.57900010      0.93050000      0.56175010       342.76600       2.5422454     0.012793546
       3291.0000       291.34977       99533.217       8046.9427      0.97275010       2.1560000     0.075750000       342.79600       2.4158217     0.012397449
       3296.0000       291.42371       99552.616       8090.9466    -0.087750000       3.1740000     -0.33250000       341.73100       2.3392472     0.018292887
       3301.0000       291.46282       99554.712       8120.2395      0.49800000       2.3607500     -0.34725000       341.74500       3.0967242     0.013449606
       3306.0000       291.54662       99524.840       8181.2565      0.74950000       2.1957500     -0.18075000       342.10800       2.3003073     0.017665019
       3311.0000       291.52135       99520.511       8199.7873      0.84525000       1.7247500     -0.23100000       342.20300       3.4471076     0.020522864
       3316.0000       291.36391       99534.520       8176.2591      0.37225000       2.3952500     -0.25150000       342.81800       2.4915502     0.020971422
       3321.0000       291.28474       99535.548       8168.4800      0.74075000       2.1640000     -0.19975000       342.23600       2.2093062     0.021909436
       3326.0000       291.16765       99548.387       8164.8477      0.43925000       2.3342500     -0.62475000       342.03700       3.0175984     0.019526494
       3332.0000       291.05390       99548.482       8116.3229      0.61825000       2.8455000     -0.20625000       341.98200       3.2809832     0.024712257
       3337.0000       291.01114       99517.985       8056.8886      0.76525000       2.2180000     -0.16525000       342.17200       3.2200644     0.013624728
       3342.0000       290.98498       99516.097       8008.2345       1.1065000       2.5047500     -0.31450000       342.30700       3.2392769     0.020571421
       3347.0000       290.94800       99534.480       7923.5385       1.5042500       2.9260000     -0.83950010       342.23400       2.3894625     0.014164457
       3352.0000       290.93532       99537.177       7864.7976       1.1090000       1.2492500      0.12475000       342.46400       3.8569640     0.023093273
       3357.0000       290.99502       99548.937       7828.9617      0.96550010       1.4892500      0.83375010       343.40000       4.3174839     0.022388998
       3362.0000       291.01075       99548.206       7799.4125       1.7517500       1.2320000      0.12625000       343.38000       2.8409670     0.022156164
       3367.0000       290.98679       99517.564       7760.6392      0.44675000       2.0242500     -0.11450000       342.82600       3.8668054     0.022528949
       3372.0000       291.00029       99515.440       7753.3749       1.8292500       2.0632500      0.25350000       342.25500       2.4731002     0.019889484
       3377.0000       291.01016       99532.695       7770.5110       1.3437500       1.7122500     -0.11750000       341.75700       3.0766596     0.016172766
       3382.0000       291.05793       99536.817       7803.7819      0.89100000      0.52100000      0.44025000       342.30300       3.6323190     0.017045562
       3387.0000       291.17039       99553.836       7876.5954      0.20950000       1.4795000      0.39950000       342.52900       2.3864598     0.014084296
       3392.0000       291.22702       99553.930       7922.7330    -0.011250000       1.2405000     -0.32925000       342.86500       2.9848318     0.020989177
       3397.0000       291.29045       99523.262       7986.5709      0.51450000      0.86300000     0.095750000       342.70800       4.4958335     0.025388348
       3402.0000       291.32345       99520.714       8019.0938      0.50450000      0.29325000      0.26575000       343.23600       2.9251138     0.020455983
       3407.0000       291.31324       99534.727       8026.0414       1.0465000      0.53500000   -0.0097500000       342.72400       4.4076721     0.022640227
       3412.0000       291.29976       99535.752       8023.0532       1.0277500       1.6667500     0.081750010       343.25100       2.4050004     0.014840250
       3417.0000       291.27603       99549.294       8000.2266      0.75425000      0.91775010      0.33550000       343.08300       3.1635917     0.023982311
       3423.0000       291.23353       99547.249       7969.8988      0.74950000       1.2695000      0.39500000       343.62400       2.9620612     0.022704732
       3428.0000       291.14842       99516.804       7911.4221       1.0415000       1.9297500     -0.11350000       342.13100       2.6094810     0.017100219
       3433.0000       291.13127       99516.924       7899.1449       1.0222500       2.0570000     -0.58650000       342.88400       2.9440766     0.022132320
       3438.0000       291.14348       99535.131       7913.4938      0.28650000       1.7075000      0.19800000       342.25200       2.4464754     0.018110152
       3443.0000       291.14979       99537.549       7907.5568      0.79225000       2.1022500    -0.067000000       342.70400       2.4471646     0.021974984
       3448.0000       291.19979       99549.479       7923.4117      0.91275010       2.0395000     -0.26250000       342.84500       2.3461976     0.019326710
       3453.0000       291.21332       99547.028       7913.8304      0.18700000       3.4585000     -0.24075000       341.77400       3.5338918     0.022813666
       3458.0000       291.20001       99516.354       7865.3649       1.6822500       2.8377500      0.11025000       342.51800       2.9895479     0.019004870
       3463.0000       291.19995       99516.193       7851.6304      0.98425010       2.7422500     0.081250000       342.18000       3.0049982     0.019554529
       3468.0000       291.21157       99534.510       7853.5014       2.0175000       1.4685000    0.0075000000       342.64300       3.1856795     0.023187104
       3473.0000       291.19519       99536.953       7847.0958       1.1110000       1.6842500     -0.32000000       342.42300       3.6607350     0.012739812
       3478.0000       291.18079       99543.776       7862.9648       1.0622500       3.0717500      0.13475000       342.49700       4.0729645     0.020465569
       3483.0000       291.12845       99549.635       7840.1694       1.4370000       3.3880000     -0.59900000       342.28600       2.9490844     0.012312694
       3488.0000       290.99272       99545.407       7768.2964       1.2240000       2.6802500    -0.093750010       342.74200       3.9053411     0.023541403
       3493.0000       290.97073       99543.974       7759.6488       1.3905000       3.7222500     -0.76750000       341.93700       3.1625309     0.013234532
       3498.0000       290.98572       99549.523       7761.6118      0.45650000       3.1480000      -1.0847500       342.15000       3.6728392     0.021098310
       3503.0000       290.99822       99552.891       7772.1571       1.1745000       3.7847500     0.037750000       342.90500       4.0142648     0.021977771
       3508.0000       291.08767       99554.696       7832.0099       1.8030000       2.5030000    -0.093750010       342.50700       2.4136402     0.019237105
       3514.0000       291.13889       99546.018       7870.8731       1.6905000       2.3830000     -0.52050000       342.02800       3.3239650     0.026136526
       3519.0000       291.13788       99535.323       7881.9364       1.0880000       2.7915000     -0.37625000       342.12500       2.5757507     0.012153775
       3524.0000       291.17711       99533.309       7912.3494      0.77800010       3.0467500    -0.078000000       341.82300       3.7257099     0.020348535
       3529.0000       291.25019       99520.999       7955.2045      0.84200010       2.5902500     -0.25525000       341.83100       2.8789252     0.012730505
       3534.0000       291.28161       99525.121       7993.2613      0.57425000       1.9957500     -0.18725000       341.68900       3.3667214     0.021799983
       3539.0000       291.28590       99554.977       8022.8460      0.15475000       2.2547500     -0.24525000       341.96100       2.5836190     0.014895912
       3544.0000       291.33456       99552.970       8078.9836      0.38900000       1.7675000      0.12750000       342.40200       2.3094579     0.010180984
       3549.0000       291.40085       99535.385       8164.1830    -0.051250000       1.5162500      0.65675000       343.23400       2.3567072     0.018546169
       3554.0000       291.42201       99533.321       8201.7014      -1.0090000       2.0265000      0.75525000       343.41900       2.7475075     0.012997775
       3559.0000       291.45207       99520.528       8252.0691    -0.085750010       2.2210000     -0.47425000       342.76300       2.5764513     0.013208501
       3564.0000       291.47338       99524.824       8245.8512      0.67475000       2.5985000     -0.53425000       341.94900       2.5025819     0.019322954
       3569.0000       291.46948       99554.628       8191.1135      0.76475010       2.7352500    -0.066750000       341.90300       2.7122483     0.019329004
       3574.0000       291.42158       99552.658       8126.7307      0.53775000       1.5365000     -0.22225000       342.53100       3.0283518     0.020016688
       3579.0000       291.37242       99535.825       8020.5776      0.27300000       3.2132500     -0.45325000       341.85300       3.5929621     0.016242696
       3584.0000       291.30531       99531.839       7957.1101      0.51375000       1.4820000      0.29875000       342.66000       3.3371471     0.023787084
       3589.0000       291.16314       99515.327       7895.2523     -0.93475000       2.2727500      0.13300000       342.68400       2.9196633     0.013423410
       3594.0000       291.07263       99519.304       7823.2425      0.54600000       2.1060000     -0.61425000       341.69300       2.1558813     0.011154821
       3599.0000       291.00720       99547.566       7770.0885      0.94700000       2.4607500      0.50750010       342.31300       5.7381017     0.028540262
       3605.0000       290.94723       99549.994       7689.8196       1.2827500       2.8507500     -0.26000000       341.97600       3.7051403     0.018655758
       3610.0000       290.89413       99548.445       7587.5180      0.71650000       3.1312500     -0.48025000       342.18600       2.8200025     0.018482336
       3615.0000       290.85448       99524.001       7555.2792     -0.52250000       2.7285000     -0.31025000       342.22700       2.0943195     0.014195335
       3620.0000       290.84277       99516.018       7536.4581       1.2415000       1.9482500     -0.19050000       342.80700       2.9911457     0.013870722
       3625.0000       290.84512       99522.351       7570.6241      0.50375000       2.0825000     -0.14150000       342.60400       2.8203640     0.014589151
       3630.0000       290.84407       99524.131       7571.3352      0.80475000       1.1522500     -0.18700000       343.06600       4.0750324     0.016671172
       3635.0000       290.85515       99540.272       7518.1230       1.1980000       1.6562500     -0.46275000       342.82500       3.9565980     0.022315040
       3640.0000       290.89359       99544.000       7534.0814       1.4525000       1.4680000     0.095750000       341.86200       3.4866926     0.025723921
       3645.0000       290.94433       99540.352       7576.9763      0.98000000       1.1597500      0.41850000       342.87400       3.2497555     0.028519950
       3650.0000       290.99865       99524.227       7620.4331      0.65150000       1.2832500     -0.31050000       341.81000       2.9456345     0.014400019
       3655.0000       291.03934       99522.460       7702.8898      0.91600010       1.1967500     -0.19750000       341.89700       5.7290239     0.026510639
       3660.0000       291.11167       99516.782       7874.0988      0.73400000       1.0872500     -0.22175000       341.69300       3.6944244     0.024073174
       3665.0000       291.09992       99540.815       7912.5069      0.73475000       1.3520000     0.085750010       342.31500       2.6954923     0.014048889
       3670.0000       291.09993       99548.617       7932.4800      0.53225000       1.4520000     -0.12675000       342.15000       2.0623002     0.022055405
       3675.0000       291.09986       99551.275       7872.9774      0.47375000       1.0280000    -0.048000000       342.42200       2.0710692     0.011839038
       3680.0000       291.09975       99549.017       7849.4365      0.63300000      0.85825000    -0.034500000       342.85200       2.3089503     0.010155096
       3685.0000       291.09963       99539.385       7834.2292      0.59325000      0.87175010     0.042750000       342.44100       3.7267501     0.014122997
       3691.0000       291.09718       99510.246       7818.8529      0.26000000      0.52100000     -0.21700000       341.79000       3.6348305     0.019193899
       3696.0000       291.14787       99516.866       7829.3351      0.55750000      0.69350000      0.21850000       342.60600       2.9259101     0.020579942
       3701.0000       291.15638       99519.221       7829.4709       1.1072500      0.65650000    -0.059000000       341.94400       2.8965373     0.011748694
       3706.0000       291.12747       99540.718       7777.6821       1.0227500       1.2795000    0.0082500000       342.43800       4.5941416     0.016438744
       3711.0000       291.14849       99544.986       7805.3851      0.75250010      0.83475010     -0.22625000       342.13100       2.2699432     0.017604512
       3716.0000       291.17783       99527.183       7928.0065       1.1130000      0.50925000      0.16050000       342.38100       2.2824130     0.012762318
       3721.0000       291.19890       99523.469       7972.5245      0.59675000      0.86825000      0.14500000       342.54700       4.6841177     0.026775410
       3726.0000       291.28052       99518.553       8061.4637      0.64100000       1.1292500     -0.18075000       342.30700       3.1607365     0.017991394
       3731.0000       291.31789       99518.018       8078.7340      0.20100000       1.2090000     -0.31975000       341.96100       3.2012856     0.013946030
       3736.0000       291.29955       99533.097       7952.1357      0.45325000       1.8630000     -0.17075000       342.25100       2.2747373     0.013185545
       3741.0000       291.29943       99537.705       7906.8779     -0.13600000       1.0580000      0.16150000       342.92000       2.2267992    0.0098346256
       3746.0000       291.31437       99540.189       7849.1371      0.66275000       1.5305000     -0.62575000       341.88900       2.2265275     0.011783560
       3751.0000       291.30321       99536.744       7853.1035      0.82525000       1.2830000     -0.35450000       342.47500       2.4728004     0.014146119
       3756.0000       291.29345       99516.658       7973.3077      0.56875000      0.70300000    0.0050000000       342.13700       6.0613093     0.041258337
       3761.0000       291.25116       99512.042       8011.8179      0.78625010       1.0075000     -0.12250000       342.17300       3.3749574     0.024895629
       3766.0000       291.14134       99512.042       8036.3957     -0.19075000       1.5190000      0.22900000       342.23900       3.1312403     0.020765671
       3771.0000       291.08303       99513.561       8058.0831      0.70800000       1.5597500     -0.18700000       342.41000       2.8763564    0.0098494676
       3776.0000       290.98974       99535.027       7992.2352       1.5285000      0.91700010      0.42050000       342.43000       2.0551074    0.0093380376
       3782.0000       290.97844       99539.027       8005.7258       1.3335000       1.7490000      0.21925000       341.95800       1.9801690     0.019468308
       3787.0000       291.07629       99528.224       8101.0799       1.2927500       1.4232500     -0.14875000       342.15100       2.0647138    0.0089851461
       3792.0000       291.11645       99523.820       8135.7720       1.1160000      0.33375000      0.13400000       342.86700       2.0318818    0.0090861667
       3797.0000       291.16459       99507.776       8162.3382       1.1907500      0.44175000     0.095250000       342.54500       2.3399658    0.0094885196
       3802.0000       291.22453       99506.954       8198.2725       1.1647500       1.0665000     -0.28450000       341.81500       3.3623769     0.023225186
       3807.0000       291.26375       99521.862       8216.1796      0.65900000      0.29125000    -0.086000000       342.13000       2.8116346     0.013258799
       3812.0000       291.31710       99527.824       8226.2594      0.47900000       1.1495000      0.29875000       343.10100       2.4795109     0.012316823
       3817.0000       291.40179       99542.760       8245.0470      0.92050000       1.4662500     -0.15350000       342.49200       2.5596044    0.0099670004
       3822.0000       291.48119       99543.597       8265.7344       1.1290000       1.4752500     -0.31675000       342.24700       2.0739323    0.0081164064
       3827.0000       291.56910       99526.608       8245.1850      0.95250000       1.0695000     -0.13750000       342.13900       2.0625418    0.0083335257
       3832.0000       291.62523       99523.403       8270.8889      0.59575000      0.89200000     0.057500000       343.14200       2.2500946    0.0095039611
       3837.0000       291.68874       99515.695       8366.2233      0.97150000       1.7095000   -0.0015000000       342.24400       2.0845631    0.0082766934
       3842.0000       291.72147       99518.939       8396.9045       1.1152500       2.1172500     -0.95600000       341.85600       2.0692528     0.010757825
       3847.0000       291.72592       99544.667       8429.2325      0.73600010       1.5210000      -1.1190000       342.14900       2.6926343     0.010491903
       3852.0000       291.69886       99549.882       8416.9051       1.3365000      0.80500010      0.22550000       342.28500       3.0669703     0.018986785
       3857.0000       291.65021       99551.134       8344.2388       1.1965000       2.6635000    -0.029750000       341.98100       2.3523778    0.0098973068
       3862.0000       291.58338       99545.827       8281.5756       1.0260000       2.1262500     -0.39675000       342.49500       3.8582746     0.026276748
       3867.0000       291.44875       99516.631       8195.8790      0.72075000       2.8365000     -0.38575000       342.40100       2.3210746     0.012046685
       3873.0000       291.34655       99509.593       8101.0688      0.89875010       1.9542500    -0.067500000       343.01800       2.8715691     0.017524413
       3878.0000       291.24889       99511.959       8004.6549      0.39800000       1.5747500      0.37650000       343.13700       3.4206614     0.015339213
       3883.0000       291.21759       99515.419       7941.1263      0.11600000       2.1375000     0.061500000       342.87600       3.1791432     0.014089672
       3888.0000       291.25436       99535.687       7886.7741      0.69700000       1.5947500     -0.68650000       342.42400       3.0047291     0.013365141
       3893.0000       291.24431       99540.243       7845.4491      0.72625010       2.0495000     0.092500000       343.10100       3.6813804     0.015837978
       3898.0000       291.27914       99538.225       7833.6973      0.48450000       2.6400000     -0.91075000       342.59300       5.5263351     0.034780450
       3903.0000       291.24034       99534.359       7807.2845      0.76300000       1.1747500      0.38150000       343.29100       5.0386171     0.024686958
       3908.0000       291.12826       99518.615       7784.8309      0.77450000       1.3777500      0.14400000       343.56500       3.0871966    0.0098565122
       3913.0000       291.05859       99518.053       7755.5066      0.43325000       1.2302500      0.17900000       344.06000       3.4357380     0.013739641
       3918.0000       290.97226       99520.280       7713.6833       1.0475000       3.4092500    -0.036000000       342.54600       3.5406083     0.020658000
       3923.0000       290.90835       99526.795       7693.6361      0.48775000       2.1925000     -0.65900000       342.11800       2.7438971    0.0098606540
       3928.0000       290.84830       99551.635       7672.3793      0.88900010       1.6555000    0.0040000000       342.53100       3.1198989    0.0099385021
       3933.0000       290.83073       99554.947       7673.0941      0.48800000       1.7547500      0.77800010       343.68900       3.4617758     0.014921461
       3938.0000       290.84373       99549.574       7703.4143     0.012750000       2.1537500    -0.028500000       342.65800       3.2115692     0.010024456
       3943.0000       290.85006       99543.132       7718.9984      0.44525000       1.5502500    -0.031250000       343.33900       2.8726719     0.021977885
       3948.0000       290.86540       99519.840       7725.3848       1.0765000       3.2880000     -0.56075000       342.47200       2.8608501     0.013970798
       3953.0000       290.92732       99514.957       7763.6739      0.12825000       2.1585000     -0.25225000       342.65700       2.4989911     0.010830448
       3958.0000       291.02391       99515.166       7809.8375      0.12075000       3.2387500      0.14100000       342.36100       2.6049767     0.011999909
       3964.0000       291.09646       99523.431       7884.7378      0.32925000       2.2985000      0.19475000       342.41300       3.3402016     0.025500309
       3969.0000       291.18240       99546.473       7977.3039      0.61375000       1.9792500      0.21225000       342.39800       2.4858780     0.011970308
       3974.0000       291.27332       99551.035       8071.3327    -0.072750000       1.7765000     -0.67775010       342.38200       3.1614108     0.013623905
       3979.0000       291.34997       99555.543       8196.0532       1.7017500       3.2645000    0.0080000000       342.16100       4.1966286     0.020549103
       3984.0000       291.39127       99547.431       8248.2610     -0.61500000       2.4655000     -0.62025000       342.26800       2.9826863     0.013496274
       3989.0000       291.48085       99518.372       8302.6529     -0.34575000       1.0652500      0.99475000       343.54900       2.2762222     0.011574006
       3994.0000       291.45674       99513.758       8287.6315      0.39000000       2.8427500      0.51525000       343.07100       2.7059034     0.018979355
       3999.0000       291.32373       99511.888       8188.6975       1.1572500       2.1545000     0.036250000       342.80800       3.4795119     0.021280599
       4004.0000       291.23580       99515.117       8120.3913       2.0080000       2.9127500     -0.13975000       343.06900       2.5305946     0.012239556
       4009.0000       291.09472       99535.680       8021.1776      0.63925000      0.61525010     0.025250000       342.66000       2.7671801     0.017605338
       4014.0000       291.05098       99540.988       7961.3365       1.2910000       1.5947500      0.85425000       342.69900       3.1004997     0.013884564
       4019.0000       291.04099       99543.317       7902.3230       1.2577500       1.5427500     -0.56400000       342.60700       2.2379326     0.010874977
       4024.0000       291.03821       99538.865       7869.2038      0.73900000       2.4412500     -0.64550000       342.86700       3.2942009     0.022771805
       4029.0000       291.11265       99526.368       7869.3978      0.26100000       2.4445000     -0.27350000       342.84500       2.6964904     0.011934185
       4034.0000       291.10550       99520.362       7850.1169     -0.42175000       2.0442500     -0.26300000       342.25800       3.0387396     0.014381229
       4039.0000       291.05418       99506.616       7827.7860       1.2942500       2.5252500     -0.15400000       342.62600       2.8381707     0.012858819
       4044.0000       291.03450       99508.835       7827.1497      0.93975000       1.7265000      0.75250010       343.10000       3.1554305     0.021467852
       4049.0000       290.99720       99523.694       7830.7995     -0.20900000       2.6617500     -0.67000000       342.99400       2.3085049     0.013567779
       4055.0000       290.98553       99530.879       7844.6929     0.073500000       2.8432500     -0.36200000       342.23800       2.4111403     0.020368770
       4060.0000       290.99978       99544.109       7878.4527     -0.26350000       2.1305000     -0.36600000       342.35700       3.2105041     0.011036106
       4065.0000       291.00017       99531.150       7898.4984     -0.66625010       2.5122500     -0.28075000       342.49000       2.6566497    0.0097878538
       4070.0000       291.00030       99525.112       7911.9880      0.23600000       3.2062500      0.20250000       342.51400       2.3002103     0.010430242
       4075.0000       290.99989       99510.076       7929.1251      0.38275000       1.6467500     -0.19050000       342.63800       2.9749731     0.019079105
       4080.0000       290.99975       99506.383       7936.2458      0.34500000       1.1865000     -0.25575000       342.97100       2.3859731     0.010832822
       4085.0000       290.98483       99525.303       7898.2587     -0.19975000       1.4652500      0.53850000       343.05200       2.2511276     0.018371462
       4090.0000       290.99341       99527.796       7909.0311       1.1845000       1.9915000     -0.16100000       342.60300       2.8002692     0.012207811
       4095.0000       291.01429       99525.345       7941.8107      0.29425000       1.9332500     -0.27400000       342.83600       3.1074448     0.014562287
       4100.0000       291.04207       99519.887       7991.9764      0.58100000       1.1345000     -0.98700000       342.62900       2.4491132    0.0090302654
       4105.0000       291.08365       99522.999       8036.5306      0.20600000       2.1660000      0.42450000       343.31200       2.6465221     0.010520743
       4110.0000       291.16261       99520.439       8122.6528      0.59725000       1.8167500      0.11950000       343.34100       2.7804287     0.010905759
       4115.0000       291.16914       99520.487       8151.0617     -0.23600000       1.5577500      -1.1627500       342.21500       2.4796927     0.011807336
       4120.0000       291.16181       99521.834       8154.5783     0.049000000       2.8245000      0.38000000       342.95100       2.9139758     0.010862443
       4125.0000       291.09975       99504.690       8132.1669      0.32100000       2.3080000     -0.73925010       343.07600       3.0938476     0.013766852
       4130.0000       291.05021       99500.859       8102.2234    -0.086500000       1.8112500     -0.26550000       342.44000       2.4019641    0.0091848106
       4135.0000       291.00068       99505.652       8056.2598      0.95875010       3.3910000     -0.50875000       342.31500       2.7889124     0.011039250
       4140.0000       290.93782       99525.750       7973.0314      0.55200000       2.1317500    -0.052500000       342.56700       2.8247898     0.014090636
       4146.0000       290.95859       99541.518       7950.0379     0.083500010       2.3027500     -0.12600000       343.03000       3.6730907     0.015279263
       4151.0000       290.94870       99543.801       7908.7112      0.57100000       2.8765000     -0.64200000       342.64500       2.7573344     0.010931769
       4156.0000       290.94131       99531.148       7855.8201      0.74350010       2.9370000     -0.73350010       342.29000       2.5978529     0.010187174
       4161.0000       290.95105       99523.917       7823.7875      0.89650010       3.4600000     -0.60950010       342.00100       2.8001929    0.0088171344
       4166.0000       290.95802       99505.583       7779.0413       1.0282500       2.2232500     -0.14525000       342.25500       3.2548488     0.014062163
       4171.0000       290.94822       99501.532       7749.4019      0.19025000       3.5647500      0.19800000       342.00500       2.3315228     0.012105571
       4176.0000       290.95649       99509.897       7746.0062       1.1175000       2.4137500     -0.21700000       342.04700       3.0232226     0.013321261
       4181.0000       290.95552       99515.033       7748.4057      0.96175000       2.8200000     -0.40775000       342.02200       2.7024080     0.013825088
       4186.0000       290.92466       99531.979       7759.6476      0.36975000       2.0885000     -0.27675000       342.37100       3.4990358     0.014604585
       4191.0000       290.89474       99538.389       7765.4078     -0.26200000       1.9275000     -0.22800000       342.76000       3.0004759     0.012803866
       4196.0000       290.86618       99539.995       7784.5978       1.1350000       2.7227500     -0.87175010       342.51700       2.8376866     0.013248452
       4201.0000       290.84616       99536.470       7797.3471       1.7667500       2.3255000      0.11325000       342.35300       3.9111743     0.027865847
       4206.0000       290.79544       99520.860       7793.7149      0.51175000       1.7187500     0.063250010       342.98000       2.3377027     0.011455099
       4211.0000       290.78749       99512.896       7800.1381       1.1635000      0.86450000      0.80675010       343.35400       2.1125747     0.010988392
       4216.0000       290.82003       99499.057       7816.1356       3.0955000       1.4580000     -0.56125000       342.68700       2.1600319    0.0094377631
       4221.0000       290.85108       99496.902       7829.1725       1.7507500       1.7567500     -0.17650000       342.91300       2.3181204     0.011705624
       4226.0000       290.90972       99508.977       7834.3739      0.71025000       2.0905000      0.18575000       342.49700       2.2923685    0.0098751825
       4231.0000       290.96001       99516.201       7855.5848       1.2547500      0.99850000      0.45425000       343.16200       2.2687806     0.011242247
       4237.0000       291.03276       99532.501       7901.1354       1.3710000       1.8855000      0.16625000       343.06600       2.0330977    0.0088328193
       4242.0000       291.06923       99539.414       7923.8714       2.4007500       1.7480000     -0.12800000       342.74000       2.0844802     0.012984489
       4247.0000       291.09561       99544.939       7960.0334       1.0870000       1.6900000      0.15625000       343.02100       2.0930666     0.011259613
       4252.0000       291.11221       99541.103       7969.8819       2.8772500      0.88200000     -0.10175000       342.57600       2.0212945     0.011618044
       4257.0000       291.11323       99523.963       7956.5402       1.8687500       1.5425000      0.46100000       342.68600       2.1316302     0.014607327
       4262.0000       291.09965       99517.513       7936.1012       1.7552500       2.0845000     -0.44650000       342.14800       2.0903726    0.0094032092
       4267.0000       291.06239       99502.160       7893.0518       1.9142500       2.4227500     -0.21925000       342.44600       2.1267611    0.0094662531
       4272.0000       291.04271       99501.710       7862.4727      0.99175010       1.0970000      0.24425000       343.41600       2.0577238     0.010687360
       4277.0000       291.01863       99520.966       7814.3580       2.6690000       1.5805000     -0.22950000       342.40700       2.0275694    0.0093203530
       4282.0000       290.98856       99528.607       7792.4174       2.6787500       1.8220000     -0.13825000       342.08900       2.0563260    0.0096573145
       4287.0000       290.96240       99539.903       7791.0864       2.0345000       1.8402500     -0.12300000       341.78400       2.0375122     0.011734096
       4292.0000       290.94242       99543.437       7786.6061       1.9505000       2.0005000     -0.34175000       342.01000       2.0164788    0.0085667016
       4297.0000       290.90480       99540.168       7795.9430       1.3815000       1.3695000     0.088250000       342.15400       1.9922627    0.0098813304
       4302.0000       290.88834       99534.015       7798.5412      0.57725000       1.5122500     0.072500010       342.44000       1.9971087    0.0099907877
       4307.0000       290.87424       99519.577       7777.4238       1.6842500       2.2405000    -0.070000000       342.93600       1.9763462     0.012248542
       4312.0000       290.90155       99512.110       7800.0200       2.2682500       2.6182500     -0.46000000       342.02400       1.9534294     0.021234876
       4317.0000       290.97425       99497.606       7851.7213       2.0312500       2.3105000     -0.38700000       342.10900       1.9839415     0.018055462
       4323.0000       291.02252       99497.730       7902.3964       1.2927500       1.8770000    -0.070500000       342.61900       1.9830304     0.013833783
       4328.0000       291.08726       99511.822       7971.7097       1.2587500       1.5615000      0.33875000       342.41200       1.9697480     0.011336501
       4333.0000       291.13139       99519.524       8028.6737       1.8485000       1.4575000      0.13125000       342.70600       1.9834123     0.010588974
       4338.0000       291.13175       99534.354       8065.3137       2.0640000       1.7367500     -0.27025000       341.93300       2.0517458    0.0091473142
       4343.0000       291.16805       99540.470       8122.7536       1.5162500       1.5707500     -0.31500000       341.98400       1.9812098     0.012209187
       4348.0000       291.28626       99543.629       8237.6863       1.3885000       2.2352500    -0.023250000       342.28600       1.9934570     0.020727220
       4353.0000       291.25490       99540.142       8249.9610       1.4767500       1.9010000      0.20325000       342.62300       1.9819983    0.0094354885
       4358.0000       291.13179       99528.966       8214.1672       2.1892500      0.88975010    -0.017000000       342.03400       1.9925835    0.0098872240
       4363.0000       291.06635       99521.441       8182.2143       1.1555000       1.0592500     -0.33900000       342.10500       1.9750762     0.014444449
       4368.0000       290.89214       99503.082       8057.9515       1.7517500       1.0047500    -0.049750000       342.37000       2.0032955     0.010526399
       4373.0000       290.85413       99501.960       8029.5046       1.3317500       1.6287500      0.97025010       342.72400       2.0054210     0.010591588
       4378.0000       290.93129       99512.092       8040.9812       1.0517500       1.0470000      0.35600000       342.96200       1.9830546     0.018038931
       4383.0000       290.96784       99518.452       8071.6444       1.6255000      0.45425000     0.014500000       342.68900       1.9923388    0.0092231435
       4388.0000       291.04189       99534.413       8175.0256      0.83650000       1.1150000      0.13525000       343.31000       2.0206758     0.011810607
       4393.0000       291.07584       99540.647       8199.2512      0.98300000       1.5902500      0.18525000       343.04200       2.0116944     0.011503276
       4398.0000       291.08831       99543.637       8209.0842       1.8350000       1.2210000      0.12375000       342.38400       2.0272736     0.011875337
       4403.0000       291.11823       99540.189       8208.2902       1.5012500       1.4017500      0.37975000       342.91400       2.0477845     0.013705455
       4408.0000       291.14144       99529.021       8145.2449      0.72250000       1.4172500      0.36375000       343.49200       2.0244859     0.017733349
       4414.0000       291.16576       99519.543       8127.7094       2.1172500       1.8680000     -0.35975000       342.42300       2.0507849    0.0092245340
       4419.0000       291.20235       99504.932       8140.8787       1.9502500       1.3202500     -0.21175000       342.65400       2.0334128    0.0097693959
       4424.0000       291.21353       99499.513       8135.8942       2.1730000       1.3462500     -0.67575000       342.59000       2.0545921     0.010164583
       4429.0000       291.20001       99497.195       8137.8210       2.5772500       1.9542500     -0.14675000       342.41700       2.0453060     0.010274310
       4434.0000       291.20001       99501.640       8117.4109       1.3500000       1.9222500      0.16950000       342.66100       2.0252397     0.012172045
       4439.0000       291.20018       99513.250       8076.2138      0.31300000       1.5770000      0.27900000       343.16000       2.0554878     0.011335290
       4444.0000       291.20011       99521.055       8060.3631       1.4332500       1.2562500     -0.29025000       342.79000       2.0461040     0.010549160
       4449.0000       291.19112       99535.770       8028.3136       1.2287500       1.9670000      0.17025000       342.64700       2.0419965     0.013557390
       4454.0000       291.20972       99541.133       8043.7203       1.4422500      0.95500000    -0.017500000       343.11400       1.9926903     0.012342822
       4459.0000       291.24518       99543.493       8100.1902       1.0287500       1.7427500     -0.40050000       342.56000       2.0064369     0.017248365
       4464.0000       291.26530       99538.920       8134.1619     0.025500000       1.1042500      0.21750000       343.36100       2.0111789     0.012594738
       4469.0000       291.29389       99529.278       8199.0456      0.73000000       2.0352500     -0.42375000       341.95500       1.9923451     0.011281490
       4474.0000       291.32422       99517.639       8203.5225      0.44375000       2.1622500    -0.013750000       342.31500       2.0394027     0.010993389
       4479.0000       291.38240       99492.718       8191.8248      0.66775010       2.2625000    -0.069250000       341.93100       2.0190027     0.011659364
       4484.0000       291.32795       99488.955       8131.0250      0.61275010       1.0940000     0.051250000       342.21800       2.0456327     0.010267108
       4489.0000       291.22753       99491.424       8005.7010      0.76300000       1.1300000     -0.16525000       342.12900       2.0493426    0.0093520498
       4494.0000       291.14055       99497.724       7932.4018      0.54750000       1.3847500      0.00000000       342.04600       2.0004348    0.0090029884
       4499.0000       290.94254       99519.427       7839.1534      0.40050000      0.65800010      0.54575000       343.04700       2.0198070     0.012567276
       4505.0000       290.87110       99530.267       7767.6926      0.79050000      0.10775000      0.43425000       343.86100       2.0183915     0.010870404
       4510.0000       290.88215       99537.138       7732.4766      0.66350000      0.66825000      0.11225000       343.22400       2.0498871    0.0089242062
       4515.0000       290.94659       99538.560       7744.0011      0.71875010      0.59075000      0.32950000       342.52900       1.9709220     0.010316322
       4520.0000       290.99574       99536.918       7754.3832      0.54700010      0.49825000    -0.058750000       341.95600       2.0175863    0.0092280427
       4525.0000       291.08639       99527.221       7815.0911      0.55725000      0.20300000     -0.21300000       341.90700       2.0270063     0.010540097
       4530.0000       291.15684       99520.252       7863.1871      0.61800000      0.70375000      0.48825000       342.35700       2.0502887     0.012539178
       4535.0000       291.21507       99508.806       7905.7632      0.27850000       1.3660000      0.18100000       343.03500       2.0550204    0.0090702939
       4540.0000       291.25613       99503.464       7935.2107       1.9365000       1.3260000      0.16800000       343.04200       1.9555797     0.010531167
       4545.0000       291.28491       99501.816       7958.2589       2.8050000       1.5812500      0.23625000       342.02900       2.0374025     0.011273025
       4550.0000       291.30626       99503.146       7973.0719       2.3710000       2.1485000    -0.065000010       342.19000       2.0376384     0.014268202
       4555.0000       291.31486       99508.529       8017.2578       2.0400000       2.5695000     -0.17550000       342.72000       2.0229422     0.017148222
       4560.0000       291.30031       99520.173       8064.9336       1.4437500       2.0897500     -0.14550000       341.80600       2.0405298     0.015295612
       4565.0000       291.28509       99531.828       8119.2148       1.3010000       1.6142500    -0.023000000       342.17100       2.0529960     0.012662472
       4570.0000       291.29353       99537.322       8140.3225       1.4392500      0.90150000      0.38625000       342.15400       2.0984317     0.010555474
       4575.0000       291.34496       99538.713       8091.0263       1.0305000      0.24750000      0.59625010       343.10600       2.0204260     0.010401272
       4580.0000       291.35595       99537.033       8064.2712       1.2507500      0.93900010    -0.046500000       342.61500       2.0169609     0.021718561
       4585.0000       291.35465       99531.659       8039.4015       1.0007500       1.4967500    0.0055000000       342.65700       2.0446552     0.011291939
       4590.0000       291.35661       99520.301       8004.1742       1.0465000       1.2117500      0.10450000       342.44100       2.0954674     0.010413610
       4596.0000       291.29624       99508.974       7993.3200      0.92100010      0.75175010     -0.36525000       341.99400       2.0550501     0.012481790
       4601.0000       291.28886       99503.276       8026.2798       1.0395000      0.72150000     -0.11775000       342.17200       2.0953623    0.0093886184
       4606.0000       291.33479       99497.103       8123.2487       1.2907500      0.50525000      0.18625000       342.27600       2.1309355     0.010435041
       4611.0000       291.35494       99498.589       8189.6594      0.69675000       1.2462500     -0.26025000       342.06800       2.0887835     0.021708575
       4616.0000       291.39031       99510.604       8324.2566       1.1257500      0.75050000     -0.18375000       342.23000       2.0275278     0.022571417
       4621.0000       291.40870       99516.589       8357.9355       1.0447500      0.39900000    0.0010000000       342.52000       2.1896496     0.011430404
       4626.0000       291.42813       99527.273       8321.9875       1.0910000      0.64775000   -0.0040000000       342.97000       2.1303266     0.012033459
       4631.0000       291.40567       99532.808       8268.9305      0.79650000      0.90700010      0.20075000       342.25200       2.1652427     0.011393166
       4636.0000       291.30458       99533.261       8084.7727      0.89175000      0.90550010     -0.60400000       342.28400       2.0919513    0.0099348535
       4641.0000       291.28722       99531.019       8010.8392       1.2015000       1.3792500     -0.17225000       342.41700       2.1122139    0.0095059792
       4646.0000       291.31622       99524.881       8001.2426       1.3390000       1.2627500    -0.038750000       342.87900       2.1305333     0.011671339
       4651.0000       291.29573       99519.764       7964.7071       2.1957500      0.59850000     0.020000000       342.25900       2.1664106     0.011106718
       4656.0000       291.31167       99508.761       7979.7530       1.2390000      0.41025000     0.077000010       342.14800       2.1178842     0.012013992
       4661.0000       291.30939       99502.938       7972.4202       1.3912500      0.77825000    -0.013500000       341.98500       2.2083376     0.012621317
       4666.0000       291.24718       99499.784       7931.8995       1.0672500      0.94550000    -0.041500000       341.96000       2.0468527     0.012227280
       4671.0000       291.18743       99499.052       7889.1380      0.91450010      0.80125000    -0.019500000       341.97700       2.1276150     0.014726098
       4676.0000       291.14785       99504.922       7854.0138       1.1192500      0.62900000    -0.059750000       341.98000       2.0990411    0.0090289947
       4681.0000       291.09620       99505.723       7811.1712       1.0340000      0.43600000   -0.0067500000       342.31500       2.0620712    0.0096429865
       4687.0000       290.95990       99502.194       7706.3168      0.77475010      0.62325000      0.28025000       342.60700       2.1016447     0.010890060
       4692.0000       290.92118       99506.069       7677.7713      0.76600000      0.52775000     0.029750000       342.07500       2.0786507     0.023289483
       4697.0000       290.93039       99512.446       7686.4887      0.80425010       1.0380000      0.18825000       342.14700       2.1104179     0.018649451
       4702.0000       290.94772       99516.887       7696.1567      0.97250000      0.81275000     -0.12200000       341.94000       2.1951297     0.013803374
       4707.0000       291.02072       99531.479       7745.4475       1.0652500      0.73625000     -0.10925000       342.50700       2.1306724     0.010838408
       4712.0000       291.07037       99533.570       7782.1953      0.94550000     -0.41750000      0.12025000       343.41000       2.0456131     0.010212780
       4717.0000       291.13277       99523.914       7821.9318       1.1740000     -0.19775000    0.0055000000       342.03200       2.1529495     0.010787294
       4722.0000       291.16876       99518.573       7851.4498       1.1457500      0.60050000     -0.17225000       342.12100       2.0300042     0.010735635
       4727.0000       291.16792       99510.310       7866.5640      0.83350000      0.52675000      0.49150000       343.22800       2.0966860     0.010550687
       4732.0000       291.21171       99502.325       7908.9488       1.5395000      0.61300000    -0.048000000       341.91500       2.1712760     0.010919657
       4737.0000       291.28841       99489.642       7956.6185      0.65175000       1.0452500     0.023750000       343.18800       2.1622938     0.010663191
       4742.0000       291.31475       99488.264       8006.9531       1.3112500       1.3595000      0.26675000       342.63600       2.1496773     0.010749680
       4747.0000       291.33909       99492.907       8088.2498       1.0095000       1.6172500    -0.092500000       342.07300       2.1001391    0.0097083227
       4752.0000       291.36555       99495.669       8150.9738      0.65075000       1.1527500     0.062000000       342.46500       2.0926929     0.011886717
       4757.0000       291.35598       99506.191       8227.1214       1.3035000       1.7107500      0.19800000       342.43600       2.1804448     0.012392280
       4762.0000       291.34618       99513.759       8246.5170       1.2045000       1.0527500      0.13850000       342.68600       2.1135944    0.0096895372
       4767.0000       291.37117       99517.675       8255.0959      0.68250000       1.4157500    -0.038250000       342.82300       2.1435232     0.011395472
       4772.0000       291.35313       99521.672       8217.6256       1.2590000       1.6935000     -0.10925000       342.53500       2.1669999     0.012954154
