MIRICO/SHELL project - Processed LDS file generated on
Sun Jul 09 19:24:15 2017
Time stamp for record start
05/10/2017  15:03:55.0001
Nb of points in the record
         945
Beam position index
       6.0000000
Beam angle (degrees)
       13.615000
Open Path length (m)
       58.300000
****************** Temporal data record ************************
Elapsedtime_sec Temp_K Press_Pa Humidity_ppmv WindX_m/s WindY_m/s WindZ_m/s Speedofsound_m/s CH4vmr_ppmv CH4vmrerror_ppmv  
      0.00000000       290.56830       99620.423       8012.8806    -0.015000000       2.5047500      0.27300000       343.34300       2.0229472     0.013045441
       5.0000131       290.52558       99620.483       8015.4748      0.15875000       4.6020000      0.27275000       342.39400       1.9799309     0.010917723
       9.9999860       290.59427       99620.371       8070.6581     -0.36550000       1.8175000      0.92200010       342.73700       1.9440169     0.012824790
       14.999999       290.61558       99623.236       8096.7202     -0.13350000       1.6992500      0.32175000       343.37400       2.0967317     0.013443470
       20.000012       290.64439       99621.514       8111.5752      0.14375000       3.1175000     -0.38925000       342.20500       1.9479810     0.016604543
       24.999985       290.76063       99615.882       8110.7212      0.12800000       3.8712500     -0.46100000       341.63800       2.0096746     0.015357006
       29.999998       290.77492       99611.128       8100.5951      0.71950000       2.7462500      0.21350000       341.89300       1.9685208     0.013614316
       35.000011       290.67968       99603.265       8064.3651     -0.10750000       2.0467500      0.46100000       342.96800       2.0140497     0.012048249
       39.999984       290.64968       99595.360       8052.8815     -0.13425000       3.4970000      0.13675000       342.40700       1.9875853     0.016344447
       45.999992       290.53325       99581.737       8036.8924      0.65200000       3.3920000     -0.26525000       342.12300       2.2310550     0.018573224
       51.000005       290.51991       99578.158       8040.8985     -0.21850000       1.8935000      0.55775000       343.15300       2.0395767     0.011636228
       55.999978       290.65763       99574.888       8080.9326     -0.25400000       2.0522500      0.28575000       343.20800       1.9445432     0.015231291
       60.999991       290.71691       99578.504       8109.9260       1.0882500       2.1012500      0.21575000       342.44900       1.9462753     0.013984752
       66.000004       290.76653       99597.307       8142.0576      0.88575010       2.6342500      0.31775000       342.43400       2.0249990     0.013455970
       70.999977       290.81575       99608.309       8171.3207      0.33050000       2.5910000      0.65475000       342.03400       2.0769223     0.014971063
       75.999990       290.82003       99622.234       8195.3680      0.30300000       2.0225000     0.062750000       342.05000       1.9890677     0.013119071
       81.000003       290.85108       99628.673       8224.8567     -0.14725000       1.5252500      0.24875000       342.53200       2.0102297     0.012627333
       85.999976       290.88019       99626.181       8245.2862     -0.27050000       3.3682500     -0.41325000       341.75800       1.9395175     0.028064902
       90.999989       290.95325       99626.081       8285.4555     -0.25625000       3.0170000      0.38475000       342.12700       2.0041119     0.012915132
       96.000002       291.10582       99624.082       8363.1781     0.087750000       2.4582500    -0.032750000       342.12500       1.9460392     0.015946028
       100.99998       291.17333       99619.941       8401.5872     -0.21825000       1.9592500     -0.49650000       342.05600       1.9557418     0.021375303
       105.99999       291.22271       99614.790       8435.6387      0.62775000       1.5532500      0.10025000       341.89000       1.9714391     0.020614226
       111.00000       291.27050       99609.677       8454.8427      0.89075010       1.7785000      0.36250000       342.01000       1.9517234     0.014916554
       115.99997       291.25807       99598.986       8444.0055     0.092750010       1.8260000    -0.059750000       343.25200       1.9709211     0.020448419
       120.99999       291.24827       99593.414       8423.3505      0.63950000       1.7950000     -0.53450000       342.00100       1.9944929     0.023041862
       126.00000       291.31317       99586.856       8397.9499      0.74900000       2.3137500     -0.61125000       341.76800       1.9567350     0.012255757
       131.00001       291.26760       99588.276       8358.5115      0.86150000       2.5737500     -0.11900000       341.65600       2.1611814     0.012964560
       136.99998       291.08364       99600.074       8285.3429      0.12650000       2.0345000      0.16475000       342.28000       2.0449788     0.020091493
       141.99999       290.95953       99607.463       8214.7612     -0.48500000      0.47750000      0.49975000       343.20400       1.9644529     0.012538499
       147.00001       290.74631       99622.642       8114.8977     -0.43025000       1.8137500     0.096000000       343.27200       2.1636926     0.018452145
       151.99998       290.64060       99629.663       8051.3225     -0.93350010       2.3540000      0.21400000       343.43400       2.0880878     0.018963536
       156.99999       290.60982       99629.721       7983.7230     -0.92750010       1.7477500     -0.35325000       341.51900       1.9563093     0.019052295
       162.00001       290.57677       99631.369       7942.4786     -0.62550000       1.5312500      0.19675000       342.76300       1.9445612     0.019928344
       166.99998       290.61325       99631.564       7950.6537      -2.2730000       1.9382500      0.17575000       342.10200       1.9952332     0.020364045
       171.99999       290.59965       99630.183       7930.5254      -1.5887500       3.4652500     0.069750000       342.64300       1.9394983     0.018894561
       177.00001       290.56314       99630.788       7904.3667     -0.66625010       2.6207500     0.084000010       342.04600       1.9868706     0.011118222
       181.99998       290.54325       99624.674       7884.6983    -0.059500000       1.3035000    -0.056500000       342.55700       1.9887274     0.018445276
       186.99999       290.53080       99612.003       7863.9958     -0.57975000       1.2115000     0.024750000       342.27900       1.9697413     0.018607085
       192.00000       290.48668       99601.635       7838.2094      -1.8025000       2.5340000     -0.73075000       341.35500       2.0400938     0.012278957
       196.99998       290.38363       99580.141       7777.9659     -0.53125000       3.6965000     -0.47450000       341.48400       1.9782505     0.023465356
       201.99999       290.38422       99575.333       7793.0888     -0.28975000       3.0540000      0.55700000       342.36900       2.0127121     0.019032854
       207.00000       290.42395       99580.158       7857.1951      -1.6760000       3.0642500    -0.059250000       341.75500       1.9852288     0.020576570
       211.99998       290.45139       99585.665       7896.5017      -1.5190000       2.9322500     -0.26750000       341.24900       1.9590894     0.019718249
       216.99999       290.55889       99605.155       7949.5355      -1.1260000       2.9140000    -0.065250000       341.32200       1.9412593     0.024783223
       223.00000       290.64829       99617.144       8075.0474     -0.87850000       2.5635000     -0.31425000       341.39800       1.9796033     0.022862052
       228.00001       290.68264       99624.338       8200.7500     -0.87575010       2.2267500     -0.40300000       341.69200       2.0398272     0.010241071
       232.99998       290.72299       99629.119       8296.9998     -0.36025000       2.4422500      0.40175000       342.05700       1.9996100     0.014160572
       238.00000       290.79771       99631.336       8475.1825     0.036000000       3.1572500     0.032250000       342.20000       1.9847811     0.013826369
       243.00001       290.82570       99631.162       8541.2214     0.083500010       2.1482500     -0.18750000       341.66900       2.0817560     0.019142207
       247.99998       290.80035       99629.220       8493.4573     -0.16525000       2.0445000     -0.18050000       342.09900       1.9732761     0.016601946
       253.00000       290.80046       99622.363       8495.7332      0.71675000       1.5977500      0.35825000       342.32300       2.0062119     0.011955096
       258.00001       290.78943       99610.029       8487.0202       1.4170000       3.3387500     -0.45475000       341.28500       2.0276933     0.015543556
       262.99998       290.80595       99599.515       8480.7431       1.3857500       3.3552500    -0.097500000       341.83600       1.9542021     0.021153193
       267.99999       290.84109       99579.934       8483.6430       1.3342500       2.6020000     0.084250000       341.60300       2.0832282     0.015210175
       273.00001       290.86127       99575.168       8464.6034       1.0450000       2.4542500     -0.25775000       341.52300       1.9216707     0.022512229
       277.99998       290.88816       99578.134       8407.7730       1.1712500       2.1495000      0.10150000       341.31600       1.9288443     0.014685879
       282.99999       290.91843       99581.138       8409.2102      0.72950010       1.2012500    -0.072750000       341.30500       1.9944587     0.023070862
       288.00001       290.94265       99591.100       8434.1158       1.2305000       1.6715000      0.36300000       341.88900       2.0041895     0.012143941
       292.99998       290.96264       99600.725       8445.8101      0.56375000       1.0902500      0.31325000       342.76600       1.9731972     0.021807110
       297.99999       291.02172       99614.087       8522.1394    -0.047750000       1.7925000     -0.53075000       341.33000       2.0459553     0.013668380
       303.00001       291.00283       99619.796       8501.6830  -0.00025000000       1.3160000     -0.21900000       342.17200       1.9614006     0.013944452
       307.99998       290.90516       99628.272       8391.6371     -0.57875000       2.1637500     -0.14975000       342.26500       1.9563374     0.021098326
       313.99999       290.87828       99626.343       8349.7132     -0.28450000       1.0807500     -0.34950000       341.92400       2.0173428     0.012690412
       319.00000       290.84888       99614.061       8307.4536     -0.70850000       1.5555000     -0.27050000       341.45200       2.1062871     0.012327437
       324.00001       290.82787       99603.306       8270.1302     -0.60150000       1.6387500     -0.23200000       341.31600       1.9565014     0.014963478
       328.99999       290.86487       99584.283       8275.6041    -0.085500000       1.8452500    -0.040250000       342.88400       1.9727096     0.018759124
       334.00000       290.83729       99579.806       8244.9077    -0.088250000       2.0310000     -0.30300000       341.31300       1.9503940     0.027240792
       339.00001       290.74118       99577.705       8167.8936  -0.00050000000       2.0272500     -0.14200000       341.90700       1.9937918     0.013619002
       343.99998       290.72833       99580.153       8144.0190     -0.57400000       1.3645000     -0.35200000       341.54700       1.9799002     0.020737532
       349.00000       290.72532       99593.788       8132.9127     -0.39175000       1.9365000     -0.20350000       341.37600       1.9141517     0.021409427
       354.00001       290.77122       99601.776       8159.3337     -0.33200000       2.2072500      0.22075000       342.16100       1.8898655     0.014684424
       358.99998       290.88456       99609.560       8218.6224     -0.36050000       1.1150000      0.28725000       343.55200       2.1093665     0.014206838
       364.00000       290.95515       99614.677       8275.0455      0.18700000       2.3650000      0.18500000       342.60600       2.1238929     0.012140782
       369.00001       291.06000       99622.473       8398.1272     -0.22750000       2.5285000     -0.34175000       341.72200       1.9578395     0.022718994
       373.99998       291.08372       99620.911       8394.8911     -0.21625000       1.9702500     -0.40425000       341.78900       1.9490910     0.016228511
       379.00000       291.05658       99613.397       8326.7423     0.028250000       1.6380000      0.14625000       342.07800       2.0743793     0.014044861
       384.00001       291.04790       99603.738       8292.4012     -0.13200000       2.0692500     -0.18750000       341.56500       1.9726698     0.024210477
       388.99998       291.00583       99585.983       8192.5115     -0.29900000       1.7585000      0.23200000       342.41700       2.0962401     0.012383632
       394.00000       290.97602       99577.877       8160.7709     -0.11475000       1.7490000     -0.33675000       342.05100       1.9699617     0.013469896
       399.00001       290.95462       99565.120       8167.9737      0.44100000       1.0867500      0.13650000       342.37800       2.0336399     0.011645845
       404.99998       290.93109       99573.413       8204.2693      0.64100000       1.2135000     -0.55650000       342.58500       2.0269283     0.012285139
       409.99999       290.89402       99594.897       8262.0469      0.48050000       1.7457500     -0.21300000       342.04300       1.9604750     0.011834309
       415.00000       290.88545       99605.038       8274.0041       1.2002500       1.8237500    -0.049500000       342.17600       1.9630561     0.016758323
       419.99997       290.89376       99623.189       8314.1905      0.53725000      0.58600000      0.33950000       343.22400       2.0014878     0.015246440
       424.99999       290.93057       99624.634       8251.6003      0.88550000       1.4230000     -0.37225000       342.20000       1.9649225     0.014257823
       430.00000       290.95096       99622.039       8199.9194      0.32750000       1.9572500     0.049750000       342.80500       1.9408073     0.013023510
       434.99997       291.01522       99614.305       8154.2993      0.24775000       2.0235000     -0.43725000       343.14400       2.0022679     0.013411617
       439.99999       291.01875       99606.620       8095.6753      0.49725000       2.0515000     -0.27050000       342.81100       2.0131823    0.0095190378
       445.00000       290.98530       99596.475       8028.6293      0.67425000       2.3027500     -0.50825000       342.31400       1.9404855     0.012392297
       450.00001       290.90132       99577.265       7935.6342       1.5545000       1.4940000     -0.45850000       341.92600       1.9893451     0.017676525
       454.99999       290.86070       99574.965       7914.5227       1.1652500       2.0900000     -0.11025000       342.24400       1.9727645     0.016502247
       460.00000       290.79340       99577.373       7903.9768       1.0957500      0.77825000      0.37350000       342.12800       1.9893066     0.016305355
       465.00001       290.76944       99596.521       7976.6509      0.60725000       1.2000000      0.23725000       344.26300       1.9989984     0.011260694
       469.99999       290.74917       99606.906       8020.2399      0.51075000       1.0102500     -0.30375000       341.65000       2.0070104     0.013442197
       475.00000       290.72954       99618.926       8076.1245      0.29550000       1.1245000     0.079000000       342.01600       1.9725563     0.015173812
       480.00001       290.69964       99623.426       8093.0951      0.46425000       1.3060000     -0.31475000       341.66300       2.0320583     0.013680616
       484.99998       290.67006       99614.392       8064.6671      0.30950000       1.3742500    -0.064250000       342.18600       1.9575224     0.021310305
       490.00000       290.65027       99610.492       8049.5525      0.14875000       1.5887500     -0.17325000       342.53300       1.9848242     0.014962602
       496.00001       290.60968       99602.382       7997.2433      0.33200000       1.1790000     -0.28925000       341.61600       1.9366278     0.018081858
       500.99998       290.59094       99598.703       7970.2375      0.20275000      0.95125000   -0.0015000000       341.78300       1.9553521     0.021776096
       505.99999       290.58541       99597.374       7957.9521      0.26100000      0.70450000     -0.38900000       342.01900       1.9942260    0.0096229529
       511.00000       290.59654       99599.603       7955.4817      0.14900000      0.36000000     0.038500000       342.31500       1.9756272     0.013097485
       515.99998       290.60626       99609.965       7936.7031      0.81450000      0.18550000      0.31200000       343.93300       1.9117778     0.014227593
       520.99999       290.64847       99611.818       7967.5507      0.39250000      0.40375000      0.40000000       343.67200       1.9280765    0.0087218848
       526.00000       290.75887       99612.913       8068.4708       1.1495000       1.1407500      0.31975000       343.16200       1.9605184     0.010248533
       530.99998       290.81714       99611.502       8125.3920      0.31025000       2.3045000      0.49125000       342.91900       1.9486971     0.014561161
       535.99999       290.83717       99603.420       8183.0112     -0.10100000       1.9922500     0.046000000       342.86300       1.9077140     0.019807190
       541.00000       290.90882       99594.317       8253.1454    -0.066500000       1.9230000     -0.54450010       342.45400       1.9600676     0.012541044
       545.99998       291.01607       99576.903       8343.4725     0.064750000       2.2665000      0.21850000       343.32300       1.9586045     0.011033756
       550.99999       291.06495       99572.463       8365.3752       1.6872500       3.8885000     -0.38450000       342.00800       1.9692574    0.0086930975
       556.00000       291.15107       99569.353       8381.8104       1.8190000       1.5552500      0.61500000       343.30200       1.9344951     0.012687486
       560.99997       291.17655       99573.076       8363.7930      0.47825000       2.1817500      0.18275000       343.32900       1.9357344     0.016331401
       565.99999       291.11760       99600.485       8254.3916       1.7382500       1.9612500      0.82575010       342.65600       1.9612579     0.013801878
       571.00000       291.04547       99609.691       8162.8077       1.6627500       1.9770000      0.21900000       342.63900       1.9007259     0.011318354
       576.00001       290.89329       99614.906       8045.4560       1.6795000       2.2852500     -0.62300000       341.61800       1.9323439     0.018951450
       580.99999       290.82603       99613.210       7972.6234       2.3107500       3.0217500     -0.71575000       342.33400       2.0021164     0.012393037
       586.99999       290.75244       99590.092       7894.2893      0.27175000       1.0232500      0.52850000       343.19100       2.9447458     0.016356149
       592.00001       290.72406       99580.802       7846.6700    -0.068000000       1.8165000     -0.57375000       342.46400       2.0433247     0.013172546
       596.99998       290.80762       99568.200       7852.3858      0.78850000       3.0185000     0.052250000       342.30300       2.9265740     0.012936152
       601.99999       290.81030       99567.495       7831.2186       1.0680000       3.1955000     -0.45100000       342.41400       3.1341826     0.013196332
       607.00001       290.76174       99579.338       7797.9147       1.0050000       2.6602500     -0.50025000       341.93900       2.1508976     0.012519037
       611.99998       290.74169       99588.104       7768.7877       1.4465000       2.7477500     -0.35050000       341.91700       2.5886294     0.013645484
       616.99999       290.69209       99610.214       7718.7874     -0.60350000       1.3707500      0.44275000       343.98900       2.4360725    0.0098712820
       622.00001       290.68961       99614.903       7713.4141     -0.90450010       2.5542500     0.084500010       342.62900       3.0870131     0.011464315
       626.99998       290.71067       99612.152       7712.5961     -0.44800000       1.7457500     -0.52925000       341.57100       3.2822491     0.012676979
       631.99999       290.75877       99605.158       7750.6994      -1.3867500       1.0042500       1.0445000       343.05400       2.5234648     0.013954138
       637.00000       290.87063       99576.706       7853.6471      -1.0860000       3.0372500     -0.28075000       342.01400       3.8583909     0.015230923
       641.99998       290.92709       99570.017       7926.5910     -0.79725000       2.8347500      0.18900000       342.97300       2.7253761    0.0089076396
       646.99999       290.93944       99569.401       7995.7748       1.3887500       2.0752500      0.18875000       342.72400       2.6888452    0.0098925340
       652.00000       291.02706       99574.618       8087.4760    -0.028500000       3.0680000     -0.79750000       341.98400       3.4029971     0.014188199
       656.99998       291.16609       99602.954       8219.3203    -0.095250000       3.3977500     0.045750000       343.05700       2.0685563     0.011115571
       661.99999       291.23179       99610.971       8282.9939     -0.52325000       2.4615000     -0.42375000       341.55700       4.0103916     0.015649492
       667.00000       291.38134       99616.152       8359.8203     -0.44525000       1.1940000      0.44725000       343.23500       2.0102974     0.011263659
       671.99998       291.38597       99611.547       8371.7155     -0.46600000       1.9467500      0.34775000       342.44900       2.7662472     0.012746218
       677.99998       291.17746       99582.673       8274.3041      0.20175000       3.2260000      0.23675000       342.78000       2.4000742     0.011975711
       683.00000       291.10351       99573.475       8213.5802      -1.5142500       3.6495000     0.059750000       342.23700       2.6521570     0.015582050
       688.00001       291.03653       99559.539       8133.6735      -1.0955000       2.3335000      0.34100000       341.68000       2.3689565     0.024151606
       692.99998       290.94573       99564.205       8063.6308     -0.53575000       1.5892500      0.23450000       342.50600       2.9307192     0.012634236
       698.00000       290.86093       99594.060       7977.9733     -0.34575000       1.8982500      0.27225000       342.38800       3.0252717     0.012655072
       703.00001       290.81675       99602.352       7925.6722     -0.96175000       1.8620000     0.055250000       342.81100       5.0896097     0.013716685
       707.99998       290.73255       99614.841       7896.9836      -1.2165000      0.89825000     -0.11000000       342.02600       2.6149419     0.011575973
       713.00000       290.72734       99612.865       7854.6426     -0.77225010       1.0662500     -0.54025000       341.48700       3.3260850     0.014320269
       718.00001       290.82865       99589.079       7816.1437     -0.82475010      0.90250000     -0.28125000       342.77600       2.5479295     0.011138417
       722.99998       290.87880       99578.630       7793.9448     -0.86750010       1.3245000      0.62475000       342.81400       3.5921293    0.0098028133
       727.99999       290.94064       99562.010       7757.3921    -0.033250000       1.5372500      0.16775000       343.85300       2.7880068     0.012924222
       733.00001       290.97441       99562.473       7760.4843     -0.40975000       1.3347500      0.10475000       342.85700       2.1945253     0.013592469
       737.99998       291.00014       99575.030       7814.4943     -0.74475000       1.5635000    -0.087250000       342.03900       3.2686957     0.011566980
       742.99999       291.01433       99584.826       7837.9962     -0.26625000       2.3027500     0.047000000       342.96400       3.0217650     0.014127632
       748.00001       291.01115       99611.883       7861.4069      -1.8025000       1.8517500    -0.083250000       342.00000       4.5330837     0.016705195
       752.99998       290.99482       99616.426       7888.6101     -0.80750010       1.8137500     -0.36800000       342.50600       3.8288682     0.016694739
       757.99999       290.98013       99609.831       7938.7926      -1.6277500       2.8057500     -0.66200010       343.03700       3.2813579     0.013884326
       763.00001       290.92802       99603.460       7920.6921     -0.83725010       2.9312500      0.50375000       343.19400       3.7462654     0.015705403
       769.00001       290.80731       99578.495       7866.3859     -0.24350000       1.4850000       1.2050000       344.05900       2.2944193     0.012291871
       773.99999       290.75586       99574.899       7818.1676     -0.76350000       1.8232500    -0.087500010       343.47300       2.6201595     0.012410670
       779.00000       290.70372       99576.302       7708.4939      0.11075000       2.5120000     -0.50425000       342.16000       2.6821769     0.013119852
       784.00001       290.66212       99583.694       7657.4295     -0.38900000       1.4157500      0.10100000       342.84500       2.6539231     0.029116709
       788.99999       290.66224       99607.576       7636.9431     0.050000000       1.5490000     0.022250000       343.34500       2.4526636     0.012094263
       794.00000       290.62371       99610.275       7618.3368     -0.15925000       1.9842500    0.0077500000       341.87300       2.5148929     0.013698847
       799.00001       290.56886       99610.083       7617.3634     -0.99450000       2.0370000      0.63325010       342.58700       2.1751881     0.012115522
       803.99998       290.50069       99601.892       7591.0012     -0.88375000       1.8677500     -0.14125000       341.57400       2.3923787     0.012534510
       809.00000       290.40658       99573.268       7564.0507     -0.65350000       1.7307500    -0.089750010       342.98700       3.9960376     0.014350505
       814.00001       290.35517       99569.695       7545.9809     -0.76425000       1.5872500      0.32500000       342.67300       4.2411908     0.013114919
       818.99998       290.29493       99572.383       7506.4665     -0.10700000       3.4055000     -0.40950000       342.47900       2.7942787     0.012598448
       824.00000       290.27245       99576.908       7500.8781      0.16100000       2.5570000     -0.26500000       342.53800       2.9977993     0.014105552
       829.00001       290.28198       99599.568       7514.1256     -0.37150000       1.4380000       1.1245000       343.52600       2.2263928     0.020772232
       833.99998       290.31934       99597.494       7553.4030     -0.66700010       2.2845000      0.13725000       342.54100       2.3407075     0.016305513
       839.00000       290.38371       99582.218       7619.1632     -0.80400000       1.0597500       1.0605000       343.26100       3.4878882     0.014239171
       844.00001       290.44221       99575.421       7666.3713     -0.65675000       1.3397500     -0.10750000       342.09300       3.2569952     0.018447636
       848.99998       290.55171       99555.658       7735.6856      -1.8452500       1.0485000    -0.011250000       342.03200       4.3997993     0.013848329
       854.99999       290.59970       99560.337       7802.4719     -0.51675000       2.1977500      0.72550000       342.34700       2.5259647     0.012674740
       860.00000       290.60676       99579.967       7842.7862     -0.89550010       2.0472500    -0.037250000       341.96700       4.8229181     0.015343295
       864.99998       290.61563       99588.103       7871.0687     -0.64250000       2.1135000      0.36850000       342.26400       4.7336971     0.014539911
       869.99999       290.60002       99604.520       7904.3333     -0.18025000       1.9892500    -0.034750000       342.52000       3.0340887     0.013760698
       875.00000       290.57068       99592.624       7889.8907     -0.52325000       1.5450000      0.45775000       343.70800       3.5904808     0.014752016
       879.99997       290.58793       99585.692       7902.9631     -0.48900000       2.9335000     0.093750010       342.94500       3.1196622     0.016481730
       884.99999       290.66032       99565.771       7956.4946      -1.0265000       3.6330000     -0.35225000       341.81800       4.7039588     0.020535638
       890.00000       290.69988       99560.992       7985.5553     -0.44250000       2.5990000     -0.35600000       342.64600       2.6645291     0.018283793
       895.00001       290.73938       99564.837       8008.9312      0.71325000       3.4307500     -0.42650000       341.45600       2.6114345     0.012093518
       899.99999       290.80712       99579.354       8028.0301       1.0597500       2.5137500     0.013750000       342.60100       5.0314628     0.015693780
       905.00000       290.84614       99586.603       8074.1406      0.64500000       3.2952500    -0.062500000       341.67400       2.7398107     0.012932622
       910.00001       290.84981       99604.533       8114.3825     -0.92800000       2.6430000    -0.030750000       342.45900       3.1519577     0.012555609
       914.99999       290.87071       99591.123       8223.1926     -0.73050000       2.7717500    -0.030750000       342.49400       5.3019247     0.015305636
       920.00000       290.90102       99585.060       8260.9843      0.23750000       1.6607500      0.44775000       342.29300       4.4603386     0.014834542
       925.00001       290.91563       99570.285       8216.6491     -0.46575000       2.4190000     -0.10450000       342.20900       3.5383177     0.020105404
       929.99998       290.94446       99566.712       8198.2965      0.59100000       1.5980000      0.15175000       342.23700       3.0026357     0.019593611
       935.00000       290.98507       99580.933       8090.8961      0.93175010       2.8352500     -0.69975000       342.46500       2.4052218     0.024727912
       940.00001       291.04333       99586.060       8080.0405      0.64250000       4.1767500     -0.15700000       341.49000       2.2039842     0.011235490
       945.99998       291.15705       99598.553       8178.0945      0.15575000       3.5942500      0.92275010       342.14900       3.0890887     0.016055918
       950.99999       291.21599       99598.835       8251.6679       1.2295000       2.1900000     -0.11550000       341.53200       3.2948126     0.015524439
       956.00000       291.29359       99575.457       8440.4378      0.49400000       3.1752500    0.0060000000       341.53100       2.6985950     0.021457337
       960.99998       291.32017       99572.043       8509.1294     -0.11400000       1.9507500   -0.0070000000       341.66400       5.1902055     0.030083467
       965.99999       291.26535       99577.083       8513.1376     -0.31775000       2.1085000    -0.029500000       341.63300       4.2995210     0.023707454
       971.00000       291.24516       99579.473       8480.7876     -0.43450000       1.9090000     -0.54200010       341.69200       2.2642231     0.022060150
       975.99998       291.25218       99602.185       8345.3117     -0.56025000       1.6585000      0.35175000       342.36100       3.2920754     0.021369757
       980.99999       291.20001       99605.170       8240.4647      -1.3060000       2.2060000     -0.97700010       341.83800       4.5897485     0.024135552
       986.00000       291.08590       99585.571       8086.7316     -0.48550000       2.2075000    0.0055000000       342.62200       3.4197205     0.021089420
       990.99998       291.03749       99578.718       7996.1209      0.67050000       1.9172500     -0.47900000       342.68800       2.8947370     0.015862567
       995.99999       290.94990       99563.459       7940.9610     0.018750000       2.1182500     -0.27450000       343.01000       2.8309026     0.024461204
       1001.0000       290.92466       99561.336       7894.6834     -0.84850000       3.9090000     0.060750000       342.34400       4.6807181     0.020228225
       1006.0000       291.03902       99581.009       7899.1494     -0.90625010       3.3540000     -0.77575000       342.64300       2.0170243     0.020864995
       1011.0000       291.06686       99587.803       7886.0968      -1.1717500       1.4737500    -0.087750000       343.00900       2.5660009     0.020313553
       1016.0000       291.05620       99598.337       7863.7648     -0.91175000       3.5227500     -0.34500000       342.68700       2.1376844     0.019849735
       1021.0000       291.05465       99598.498       7851.6619      -1.4950000       2.8567500      0.12225000       341.94000       2.7076946     0.026778036
       1026.0000       290.99535       99575.397       7836.1295      -1.1205000       2.8527500     -0.33400000       341.85500       2.5171192     0.025455494
       1031.0000       290.98770       99572.018       7838.7917      -2.0055000       1.5645000     -0.52275000       342.72200       2.5361816     0.020643076
       1037.0000       291.00964       99576.694       7861.5149      -1.7305000       3.5627500     -0.62725000       341.46500       3.2457095     0.026360959
       1042.0000       291.05734       99579.900       7883.4931      -1.2290000       1.1735000      0.37325000       343.08500       3.6591541     0.025698465
       1047.0000       291.19621       99603.371       7940.6921     -0.61875000       1.5365000     -0.11200000       342.20600       2.5060944     0.026368729
       1052.0000       291.22536       99604.491       7953.1979      -1.3097500       2.2240000      0.19200000       341.91900       2.8890623     0.033200946
       1057.0000       291.20011       99580.748       7921.3971      -1.3410000       1.7422500     -0.48475000       342.04100       2.7816287     0.031947391
       1062.0000       291.20653       99576.698       7933.6927      -1.3817500       1.4880000     -0.47925000       341.93900       5.0545002     0.025402030
       1067.0000       291.14822       99572.513       7935.2111      -1.3627500       1.2480000      0.46875000       342.87100       3.7834020     0.025523683
       1072.0000       291.13600       99573.436       7963.4423     -0.93575010       1.1965000      0.33750000       342.34800       3.7791313     0.028954479
       1077.0000       291.20839       99592.538       8077.5593      -2.5477500       1.4845000     -0.54800000       341.57900       3.5117383     0.025428596
       1082.0000       291.21036       99599.350       8101.0154     -0.84850000      0.18400000     -0.82225010       341.63500       3.3670090     0.032366944
       1087.0000       291.13674       99600.951       8069.4999      -2.6722500       1.6917500      -1.2765000       341.79400       2.7576083     0.023406405
       1092.0000       291.14467       99601.165       8065.0538      -2.9460000       2.2180000     -0.33950000       342.26100       4.5140476     0.028066266
       1097.0000       291.18223       99595.067       8028.8083      -2.8030000       1.7675000    -0.043000000       341.93300       4.0884813     0.028028067
       1102.0000       291.20607       99594.399       8002.8295      -1.3057500       1.2012500      0.26575000       342.58500       4.9040623     0.027381121
       1107.0000       291.30355       99595.887       8001.7303      -1.5257500       1.0535000     -0.40975000       341.47800       2.8137586     0.035447161
       1112.0000       291.32174       99594.857       7989.7654      -1.2887500      0.54350000     0.031000000       342.58300       2.5630443     0.023326013
       1117.0000       291.24909       99599.981       7922.2937      -1.6172500       1.4177500      0.15550000       342.90800       2.5410038     0.026561959
       1122.0000       291.24280       99595.600       7937.1237      -2.5952500       2.0950000     0.069000010       343.01300       5.3966297     0.035247853
       1128.0000       291.25417       99576.946       8030.1491      -2.2922500       1.5547500     -0.33625000       342.06800       2.6669943     0.026215334
       1133.0000       291.24438       99571.205       8079.4406     -0.41450000      0.97950010    -0.046250000       342.22000       3.4072767     0.034167004
       1138.0000       291.28955       99562.572       8193.4130      -2.0640000       1.5532500     -0.36550000       342.21000       3.9159645     0.030776560
       1143.0000       291.23436       99563.657       8205.3192      -2.9302500       2.2045000     -0.74000000       341.92100       3.3504175     0.029879399
       1148.0000       291.07250       99580.937       8134.9226      -2.1502500       1.6502500     -0.42725000       342.79900       5.0714620     0.029594303
       1153.0000       290.99833       99583.114       8101.4778      -1.0647500      0.98775010      0.59400000       342.26400       2.1120160     0.028548022
       1158.0000       290.91360       99581.822       8033.8728      -2.1010000       1.4710000     -0.47050000       342.73300       3.0724310     0.030568091
       1163.0000       290.85660       99580.573       7993.3927      -1.9125000       1.6572500     -0.12475000       342.40300       3.6227077     0.035377098
       1168.0000       290.83598       99567.128       7965.8426     -0.82250010       1.6025000     -0.10225000       342.45600       2.5657929     0.032823200
       1173.0000       290.84899       99569.427       7955.6599      -1.0470000       1.5092500      0.19300000       342.55400       2.4714876     0.025793716
       1178.0000       290.86331       99584.191       7948.4139      -2.0952500       1.4177500     -0.44525000       341.88000       3.8135986     0.033188126
       1183.0000       290.92246       99588.665       7959.9656      -1.5355000       1.4310000     -0.64975010       341.81300       4.4568091     0.035806404
       1188.0000       291.07412       99599.404       8005.0828      -1.7612500       1.5600000     0.026500000       342.17900       2.2639695     0.030941478
       1193.0000       291.15834       99596.737       8037.2973     -0.97475000       1.9490000      0.22675000       342.50700       4.5964769     0.029928073
       1198.0000       291.28555       99573.025       8090.5484     -0.89875010       1.3420000     -0.40300000       342.24800       3.3632938     0.025242259
       1203.0000       291.26760       99572.147       8097.0895      -1.1832500      0.97450010      0.15800000       342.51200       3.0723822     0.038327374
       1208.0000       291.13166       99578.440       8060.1124     -0.65050010       1.7940000     -0.47725000       341.51800       2.5751228     0.034134856
       1213.0000       291.06599       99580.604       8076.9332      -1.1460000      0.47175000   -0.0062500000       341.52700       4.6565991     0.039959633
       1219.0000       290.87882       99599.749       8094.5804     -0.88200000      0.33325000    -0.053250000       341.49600       2.1457145     0.034095014
       1224.0000       290.85305       99596.435       8110.8615     -0.80600010      0.44650000     0.059000000       342.35500       3.5437369     0.037797149
       1229.0000       290.94593       99573.573       8183.3342     -0.38125000      0.99575010      0.12225000       341.85700       4.0826988     0.035368982
       1234.0000       290.96589       99572.040       8184.3966     -0.75350000      0.97750000     -0.28125000       342.11300       5.2942635     0.039541687
       1239.0000       290.98514       99573.346       8124.4494     -0.77050010       1.3797500      0.31825000       342.38800       5.8420814     0.033582874
       1244.0000       291.03365       99575.970       8111.6417      -1.2077500      0.82025000     -0.20275000       342.05700       2.1834433     0.032306506
       1249.0000       291.10134       99593.905       8100.1656      0.30600000      0.62050000      0.47550000       342.95600       3.1101706     0.027167297
       1254.0000       291.12252       99591.686       8095.2975     -0.26700000      0.19375000      0.36425000       343.90900       3.3657467     0.027812426
       1259.0000       291.16141       99573.027       8105.5221     -0.17425000       1.0840000     -0.12200000       342.43500       4.0098957     0.032788097
       1264.0000       291.16341       99574.556       8113.6547     -0.48050000       1.0785000      0.21600000       343.31000       4.1073685     0.029093531
       1269.0000       291.11473       99578.814       8131.1468     -0.22300000      0.97725000    -0.049500000       343.73400       2.9385591     0.032287431
       1274.0000       291.06556       99581.580       8118.7444     0.085250010       1.7867500     0.065750000       342.70600       4.7970162     0.031742793
       1279.0000       291.00668       99599.777       8098.5331      0.65775000       1.4437500      0.57100000       343.19100       3.0588945     0.036516769
       1284.0000       290.96676       99596.729       8079.1023       1.4075000       1.6440000    -0.063500000       342.05900       2.6042809     0.036633723
       1289.0000       290.89387       99573.309       8026.3519      0.92500010       2.0100000     -0.25225000       342.51000       3.9398531     0.041288238
       1294.0000       290.87172       99571.794       8018.8118     -0.57350000       1.2852500    -0.012000000       343.67700       2.8056004     0.028851786
       1299.0000       290.89111       99573.199       8030.2504      -1.2030000      0.90050010      0.21225000       342.47900       2.1023943     0.035280478
       1304.0000       290.90958       99575.743       8056.8591     -0.78000000      0.97900000      0.82725010       343.36900       2.3883329     0.030161732
       1310.0000       290.94901       99594.284       8121.4783      -1.2342500       2.1192500     -0.44650000       342.76900       2.4899023     0.030504110
       1315.0000       290.96918       99590.442       8143.9835    -0.088500000      0.94350000      0.19700000       343.34200       4.1795083     0.034687350
       1320.0000       291.00034       99573.612       8170.8797     -0.26800000       2.3817500      0.25325000       343.20900       2.7532122     0.034204184
       1325.0000       291.01606       99572.573       8180.4967       1.5480000      0.49050000      0.62325000       343.91000       2.8269876     0.036567694
       1330.0000       291.04497       99573.042       8183.8174       1.6097500       1.4987500     -0.19675000       342.24200       4.1897280     0.034273950
       1335.0000       291.13015       99594.930       8190.7532       1.4645000      0.68150000      0.13625000       342.83500       2.9460072     0.027878318
       1340.0000       291.16218       99599.805       8193.9514       1.1537500       1.2672500     0.039500000       343.33000       2.0881577     0.036532289
       1345.0000       291.16958       99596.068       8190.2335      0.97025010       1.4000000      0.26175000       342.77300       2.8626180     0.041496537
       1350.0000       291.16996       99579.369       8175.6238     0.043000000      0.66975000      0.60800000       343.82100       2.5187530     0.033279166
       1355.0000       291.11508       99578.649       8148.6230      0.37350000       1.1832500    -0.013250000       344.12200       2.6707203     0.029793452
       1360.0000       290.99945       99572.958       8121.9972      0.22600000       1.9335000     -0.17550000       342.30700       4.7850968     0.035507908
       1365.0000       290.88402       99590.265       8031.5753      0.33100000       2.4437500     -0.58550000       341.89400       2.2359243     0.025127802
       1370.0000       290.82931       99594.097       7984.8875       1.7912500       2.6242500      0.32550000       342.43700       2.2713030     0.031549381
       1375.0000       290.86002       99575.294       7968.9999     -0.71125000       3.0300000     -0.22650000       342.75700       2.6504794     0.034271106
       1380.0000       290.85007       99572.903       7940.9222     0.026750000       3.4820000     -0.43825000       341.56200       2.5283023     0.033549677
       1385.0000       290.83973       99581.243       7938.0350     -0.20300000       2.3540000      0.11875000       342.31900       2.1113119     0.029523064
       1390.0000       290.84943       99580.259       7927.4125      0.21450000       2.6015000     -0.32925000       342.66900       3.5704412     0.029305072
       1396.0000       290.84299       99587.808       7892.9922     -0.42500000       1.9165000     -0.21650000       342.50400       2.3883623     0.028200533
       1401.0000       290.84436       99588.114       7866.2590      0.26925000       2.0970000     -0.17350000       342.94100       2.0616550     0.027776392
       1406.0000       290.88999       99564.347       7833.5424     -0.27950000       1.8395000      0.19025000       343.44500       2.0570194     0.027339888
       1411.0000       290.90910       99561.222       7819.8175     -0.47450000       1.1465000     -0.16275000       341.67700       1.9483318     0.029989594
       1416.0000       290.91424       99579.307       7815.0755     -0.34850000      0.44825000     -0.12850000       342.04700       1.9888772     0.026774914
       1421.0000       290.90328       99582.157       7810.5266      0.25600000       1.1107500     -0.21150000       341.81300       1.9861699     0.025624454
       1426.0000       290.86614       99586.392       7792.4206     0.041750000      0.35600000      0.22175000       342.80300       1.9714910     0.025346065
       1431.0000       290.84638       99587.933       7826.1161     0.034750000      0.21350000      0.30100000       343.37500       1.9190049     0.023957666
       1436.0000       290.80999       99568.906       7916.6836      0.30475000      0.27400000      0.10375000       342.19100       1.9911642     0.023323555
       1441.0000       290.79151       99566.788       7959.9251      0.97000000       1.5690000      0.13125000       342.14200       1.9389424     0.022704604
       1446.0000       290.82771       99586.088       8059.8834      0.94700000       1.2775000     -0.70375000       342.03500       1.9641062     0.019226544
       1451.0000       290.80468       99587.538       8076.8814      0.25350000       1.7952500   0.00075000000       342.81800       2.8973074     0.023664629
       1456.0000       290.71633       99582.023       7967.9380       1.1727500       1.2715000     -0.29975000       341.87400       3.3229533     0.014397255
       1461.0000       290.68701       99580.676       7926.6507      0.57700000       1.6400000     -0.33975000       342.40900       2.0502158     0.014349288
       1466.0000       290.62492       99564.797       7875.4128       1.1897500       1.7845000     -0.58075000       342.53400       2.0742607     0.015765332
       1471.0000       290.63048       99561.714       7850.1454       1.5685000      0.80950000      0.27600000       342.67700       2.2734940     0.018930620
       1476.0000       290.74405       99580.333       7860.7365       1.5917500       1.4057500     -0.55375000       342.65000       4.2019493     0.015492020
       1481.0000       290.81361       99582.823       7886.6023       1.4952500       1.5372500     -0.32900000       342.89900       4.4873113     0.020242992
       1487.0000       290.89972       99572.739       7909.4258     -0.40250000       1.3155000      0.28575000       343.76600       5.1671248     0.024423145
       1492.0000       290.97971       99575.505       7988.6738      0.15450000       1.6555000      0.21650000       342.68500       4.0891172     0.016306751
       1497.0000       291.08296       99578.408       8178.6739     -0.20250000       2.3285000     -0.15850000       342.22300       3.6459212     0.025125195
       1502.0000       291.12573       99580.148       8261.5465       1.0912500       4.9707500     -0.11950000       341.85200       3.1680746     0.018028991
       1507.0000       291.15171       99598.484       8334.9518     -0.18950000       3.1092500     -0.62775000       342.00600       3.3044959     0.019845815
       1512.0000       291.16463       99599.062       8381.4936    -0.030250000       3.0962500     -0.54475000       341.81300       3.2808442     0.021016295
       1517.0000       291.11796       99574.260       8340.0310     -0.39075000       3.0765000      0.20900000       341.81000       3.6392793     0.017481818
       1522.0000       291.08826       99572.202       8329.4547       1.0472500       3.2262500      0.40950000       342.03300       2.6341380     0.012890640
       1527.0000       291.04946       99580.721       8334.5829      -1.0855000       3.1720000     -0.38100000       341.92800       2.0208398     0.013422262
       1532.0000       291.04328       99579.763       8329.3531      0.15050000       2.0985000     -0.16375000       342.23300       2.7311284     0.025741306
       1537.0000       291.05676       99586.983       8326.2617      -1.2365000       2.7890000     0.025000000       341.97100       2.7063914     0.020798777
       1542.0000       291.04685       99587.614       8287.9637     -0.83400010      0.59625010     -0.13275000       342.32600       2.5880595     0.019889084
       1547.0000       291.05668       99569.051       8226.9626     -0.17025000       1.7050000    -0.016500000       342.61800       4.5294148     0.020575454
       1552.0000       291.05316       99566.826       8174.0575      0.11400000       2.4270000    -0.040500000       342.72700       2.1398764     0.018699787
       1557.0000       291.04375       99581.865       8096.0880      0.93575010       2.0295000      0.31025000       342.56500       3.8503371     0.020658917
       1562.0000       290.98661       99581.742       8021.1391      0.36600000       2.6562500     -0.51875000       342.11300       3.7274253     0.019619276
       1567.0000       290.86027       99574.148       7920.0916    -0.065000010       1.4207500      0.85325000       342.23500       2.4979212     0.019509258
       1572.0000       290.82795       99575.537       7890.5427     -0.58175000       1.0372500      0.58225000       343.24900       5.4865296     0.015268793
       1578.0000       290.79719       99572.875       7894.9383      0.28975000       1.5055000      0.29600000       342.68500       4.6417134     0.023330010
       1583.0000       290.78044       99574.819       7889.8088       1.3537500       2.8515000     -0.61350010       341.91000       2.6416502     0.030467243
       1588.0000       290.85571       99593.060       7940.2659       1.2937500       2.9027500     -0.44450000       341.61000       3.3879313     0.023733186
       1593.0000       290.86351       99592.295       7958.8851      0.19875000       1.5352500      0.69200000       342.62100       3.3371771     0.020171955
       1598.0000       290.80080       99572.970       7943.2366      0.34500000       1.7762500      0.23000000       343.15600       4.2348647     0.023854686
       1603.0000       290.78696       99573.395       7935.8126      0.66325000       1.3505000     -0.30850000       342.07000       4.1157857     0.021496674
       1608.0000       290.77795       99581.897       7930.6398      0.17000000       2.4807500     -0.65050010       342.24600       2.4488998     0.028533766
       1613.0000       290.81035       99579.324       7946.7014     -0.45800000       2.0210000     -0.45550000       342.17600       3.7453657     0.014949255
       1618.0000       290.92903       99579.975       7973.2533     -0.90300010       1.6327500      0.15325000       342.70800       2.5221611     0.023910373
       1623.0000       290.90332       99582.331       7969.4692     -0.63100000       1.9102500     0.040250000       341.53400       2.4500052     0.024793545
       1628.0000       290.84098       99573.505       7980.6752     -0.73325000       1.5340000    -0.068250000       341.67500       2.9622439     0.023698498
       1633.0000       290.77222       99574.049       7971.9252     -0.45150000       1.4062500   -0.0045000000       341.56100       4.3984065     0.024018196
       1638.0000       290.56954       99593.442       7913.4552     -0.54050000       1.0250000      0.45375000       342.21900       3.0388746     0.023715079
       1643.0000       290.47782       99592.731       7883.4242      0.98550000      0.84975000     -0.20525000       341.95400       3.0453686     0.025081934
       1648.0000       290.44735       99574.458       7865.9828     0.025750000      0.44225000      0.53000000       343.29000       4.3413338     0.017023554
       1653.0000       290.43030       99573.421       7858.9860       1.0237500       1.6022500     -0.14450000       343.43600       3.2888595     0.025272516
       1658.0000       290.44238       99575.475       7854.4204      0.35550000       1.1155000    -0.022250000       341.92600       3.0328104     0.028830156
       1663.0000       290.44821       99574.155       7851.4530   -0.0075000000       1.2530000     -0.18575000       342.08200       4.7413179     0.031176588
       1669.0000       290.50330       99579.546       7869.2967      0.84450010       2.0195000     -0.51125000       342.39100       3.8748371     0.037392502
       1674.0000       290.51456       99584.642       7878.1286       1.0822500       2.0692500      0.25050000       342.67600       2.6645454     0.032534713
       1679.0000       290.49119       99584.366       7875.3315       1.6425000       1.2705000     -0.10750000       341.98300       3.1031250     0.028705447
       1684.0000       290.51000       99586.207       7886.6259       1.0422500       1.1380000     -0.20125000       341.51300       3.5863545     0.032071333
       1689.0000       290.54662       99596.622       7914.7226       1.1785000      0.56650000     0.071750000       341.71800       5.0131044     0.033934883
       1694.0000       290.56667       99598.036       7925.2988      0.94675000      0.41375000      0.47300000       343.20300       6.1430367     0.046944837
       1699.0000       290.59462       99590.041       7919.4312      0.88625000       2.1512500     -0.19200000       341.89600       3.1784419     0.035330968
       1704.0000       290.62466       99588.935       7947.5414      0.58075000       1.5670000      0.16925000       342.21500       3.7163236     0.026050377
       1709.0000       290.62684       99593.318       7976.4126      0.66625010       2.1830000    0.0062500000       341.89200       3.7717843     0.026437256
       1714.0000       290.68523       99587.671       8030.8789      0.36975000       2.0287500      0.17250000       342.44100       4.2144805     0.037395531
       1719.0000       290.81214       99575.582       8137.3671      0.77625010       1.6632500     -0.30775000       341.57200       3.6588687     0.018214151
       1724.0000       290.82567       99571.427       8174.0688      0.37075000       1.1085000      0.10800000       342.26800       3.0314558     0.028477520
       1729.0000       290.82191       99562.004       8201.2178      0.71300010       1.2220000     0.070250000       342.17500       6.1149984     0.024720956
       1734.0000       290.78584       99564.309       8195.4063      0.31300000       1.4975000     0.049750000       342.55300       2.5209601     0.022124990
       1739.0000       290.64761       99582.481       8136.3491     -0.86900000       1.1830000     -0.20600000       343.06900       5.2691928     0.026047356
       1744.0000       290.60556       99581.935       8105.9679     -0.20875000       1.4292500     -0.14750000       342.24700       3.0776726     0.033459599
       1749.0000       290.60619       99574.447       8077.9069     -0.19325000       1.1985000    -0.092250000       342.19000       5.9694944     0.028249658
       1754.0000       290.57651       99576.307       8029.3510      0.13775000      0.83600000    0.0062500000       342.17100       3.0883266     0.040362566
       1760.0000       290.53716       99575.201       7950.1243     -0.42325000       1.3847500    -0.066250000       341.81400       3.6691423     0.032811394
       1765.0000       290.55957       99572.257       7927.2036     -0.32575000       1.4530000     0.061750000       342.35200       6.0338673     0.015056753
       1770.0000       290.58136       99575.221       7895.6015    -0.069250000       1.2352500      0.13675000       342.17900       6.0321303     0.030135449
       1775.0000       290.71622       99576.778       7958.2261      0.19650000       1.3037500     -0.13775000       342.65900       2.9723799     0.024327398
       1780.0000       290.80862       99574.628       7994.6522     -0.75350000       2.1505000    0.0072500000       342.85000       2.8658347     0.030003775
       1785.0000       290.85593       99581.366       7985.4830     -0.31000000       1.4947500     0.035750000       343.25600       2.9125981     0.025934219
       1790.0000       290.94412       99582.812       8042.4481     -0.15925000       1.7710000      0.48275000       343.26700       2.8805858     0.024320153
       1795.0000       291.04461       99579.314       8129.6705      0.68225000       1.9695000     0.062750000       343.19500       4.6993794     0.030457918
       1800.0000       291.14090       99562.115       8226.1255      0.18425000       3.2982500      0.47075000       342.75900       3.0083021     0.025531754
       1805.0000       291.25326       99564.861       8362.7825      0.75775000       4.0167500     -0.62925000       342.45700       3.0605298     0.030954007
       1810.0000       291.42413       99577.479       8601.5129      0.41425000       3.0112500      0.30900000       343.37500       4.5467853     0.033582558
       1815.0000       291.48440       99562.949       8657.7050      0.17025000       1.8162500      0.80725000       343.40400       3.9213437     0.027243574
       1820.0000       291.48129       99563.502       8663.9764      0.24400000       1.2307500      0.62775000       343.57600       4.4543143     0.026114612
       1825.0000       291.33887       99567.328       8513.6690      0.66725000       1.8122500      0.13650000       342.87500       2.7564672     0.022617870
       1830.0000       291.24975       99564.153       8413.1445       2.2762500       2.0080000      0.22825000       342.20800       3.8859070     0.025390533
       1835.0000       291.13027       99572.396       8295.9536       1.2580000      0.92800000      0.44900000       343.79200       2.2170987     0.020312817
       1840.0000       291.03855       99577.923       8205.2974      0.71950000       3.4070000     -0.15075000       342.32300       3.1710320     0.014286424
       1845.0000       290.97147       99578.533       8133.6326      0.95850000       3.1505000     -0.54375000       341.83500       2.3098188     0.027891531
       1851.0000       290.93432       99562.915       8069.2521       1.0055000       2.6687500     -0.24200000       342.18700       2.9767077     0.019044496
       1856.0000       290.95778       99570.556       8109.6571      0.76200000       2.2922500     -0.18550000       342.41000       3.5397074     0.027566344
       1861.0000       290.94736       99571.274       8099.4502      0.48850000       2.7645000      0.37000000       343.31300       3.0756181     0.027639665
       1866.0000       290.94137       99562.515       8095.2853       1.0285000       1.7957500     0.015000000       342.42500       3.0528995     0.033082411
       1871.0000       290.95121       99563.820       8093.0220      0.52425000       2.0252500      0.28950000       342.63500       2.8172562     0.033190627
       1876.0000       290.91493       99578.639       8021.2112       1.5137500       1.6400000    0.0050000000       342.39000       4.4478940     0.033913973
       1881.0000       290.93829       99577.158       8020.6553       1.3565000       2.9607500     -0.38825000       342.26600       3.6615291     0.026370755
       1886.0000       291.04264       99563.461       8106.9845     -0.30775000       2.8895000     0.015000000       343.01400       3.6907891     0.029617528
       1891.0000       291.11278       99564.751       8144.5424       1.1072500       3.1930000     -0.20475000       341.64500       3.1973828     0.029939440
       1896.0000       291.21403       99566.687       8192.4005       1.0240000       3.5780000     -0.48300000       341.91900       4.4398968     0.029036151
       1901.0000       291.27194       99563.953       8226.8271       1.4160000       2.9487500     -0.29500000       342.54800       4.2841529     0.034014549
       1906.0000       291.29085       99570.909       8205.2246      0.64450000       1.6702500     -0.13575000       342.89600       3.8678815     0.022456998
       1911.0000       291.30991       99577.670       8225.3152    -0.041250000       2.5322500     -0.45875000       342.73500       3.6339505     0.033336737
       1916.0000       291.28555       99576.282       8272.3466      0.30700000       2.3782500    -0.047000000       342.56000       3.4210611     0.031088375
       1921.0000       291.29668       99574.465       8318.7150     -0.78650000       2.9812500      0.38100000       342.98800       3.3441533     0.030314316
       1926.0000       291.34802       99582.027       8429.3663      0.81550000       2.5740000     -0.54925000       341.66100       3.9270720     0.030060243
       1931.0000       291.35665       99582.524       8456.3563     -0.11425000       1.8240000      0.71300010       342.78000       3.2305523     0.038575284
       1936.0000       291.34260       99564.502       8422.1424      0.29000000       1.6897500    -0.036750000       342.69700       4.0984995     0.027408397
       1942.0000       291.35464       99562.440       8404.8994      0.83175000       2.3815000    -0.030250000       342.51700       3.2600540     0.030616015
       1947.0000       291.36882       99578.658       8337.2956      0.85650000       1.5402500     -0.18225000       341.89200       3.4317252     0.034355584
       1952.0000       291.34482       99576.188       8298.2042      0.47600000      0.69325010      0.12800000       341.98300       2.6145243     0.037430807
       1957.0000       291.30494       99562.990       8287.2267     0.098500010      0.47300000      0.15250000       342.83700       4.6757798     0.035613744
       1962.0000       291.29462       99564.617       8276.0515    0.0030000000     0.054750000      0.33300000       343.07900       6.2265011     0.031622710
       1967.0000       291.24758       99565.627       8267.0335     0.072000000    -0.017750000      0.24175000       343.39300       5.7864835     0.039102526
       1972.0000       291.23512       99563.393       8248.3384     0.072250000    -0.018500000      0.18525000       342.92500       2.7669427     0.030316006
       1977.0000       291.30793       99572.621       8241.4248     -0.86000000    -0.064000000      0.10425000       342.88100       3.0286363     0.028359397
       1982.0000       291.30967       99578.794       8224.2893     0.066500000       1.9777500     -0.43750000       342.47300       3.7806554     0.046134994
       1987.0000       291.27465       99577.102       8184.8047     -0.32750000      0.92250000      0.36800000       342.96700       4.5847443     0.038177852
       1992.0000       291.24071       99574.061       8157.8829     -0.90875010       1.3030000     -0.34550000       342.13100       7.1100982     0.031724250
       1997.0000       291.16607       99575.946       8136.3318      -1.3502500      0.85300000     -0.31350000       341.92200       4.8034586     0.042533107
       2002.0000       291.12967       99576.205       8120.9976     -0.39400000      0.95925000      0.62400000       343.22500       6.3818865     0.032059307
       2007.0000       291.07937       99565.617       8098.9622     -0.65275000       1.4010000     -0.22075000       342.27800       4.2535037     0.035310040
       2012.0000       291.09100       99562.819       8099.3994     -0.36800000       2.0112500     -0.12175000       342.03700       3.7393253     0.053344278
       2017.0000       291.17593       99570.896       8126.8175     -0.59275000      0.94875000     -0.31000000       342.43500       6.2092797     0.038039278
       2022.0000       291.21558       99571.117       8138.8631     -0.21925000       1.2770000     -0.14425000       341.55400       4.5710485     0.039153693
       2028.0000       291.28673       99562.669       8148.7825     -0.29975000      0.82450000     -0.11675000       341.65600       7.0501490     0.036382395
       2033.0000       291.33041       99565.597       8179.2779    0.0015000000       1.0372500     -0.14725000       342.12100       7.7450491     0.044332563
       2038.0000       291.36399       99578.563       8235.2357     -0.18425000       1.2345000    -0.072000000       342.17400       2.8742287     0.043913819
       2043.0000       291.35158       99575.096       8242.6916     -0.48675000      0.83175000    -0.020000000       343.19900       4.0609172     0.042891586
       2048.0000       291.31448       99563.107       8253.0967     -0.33650000      0.69125000      0.52325000       343.79100       4.6063162     0.037829864
       2053.0000       291.28844       99565.256       8240.0837      -1.1835000      0.66625010     -0.43850000       342.94800       5.1853582     0.044180962
       2058.0000       291.21236       99567.259       8177.3334     -0.32550000       1.1425000      0.10825000       342.21700       3.3008337     0.034812042
       2063.0000       291.16881       99562.297       8126.9571     -0.52100000       1.3930000      0.48150000       343.46900       5.9013376     0.041252899
       2068.0000       291.12335       99563.513       8062.0016     -0.52100000      0.80325000      0.61350010       343.53300       4.7050037     0.040539074
       2073.0000       291.15254       99568.509       8035.7043     -0.32750000       2.0002500     -0.31050000       342.06400       2.7544167     0.033840747
       2078.0000       291.20555       99567.521       8010.9891     -0.23300000       1.5477500      0.12525000       341.87200       2.6771831     0.048948600
       2083.0000       291.28484       99562.555       7999.0701    -0.042750000       1.9902500     -0.23375000       341.71400       5.1173472     0.037913269
       2088.0000       291.48428       99563.068       8038.6914     -0.29275000       1.6292500     -0.23450000       341.82800       3.8818144     0.036820595
       2093.0000       291.56593       99568.052       8034.8838      0.43475000       1.9102500     -0.12300000       341.77100       5.2795402     0.026715680
       2098.0000       291.63246       99564.947       7999.9895      0.22950000       1.7020000      0.15975000       342.35600       2.7955736     0.044122659
       2103.0000       291.61105       99563.208       7987.6841    -0.099000010       1.9452500     -0.26050000       341.55600       5.0095117     0.036858091
       2108.0000       291.49682       99576.036       7978.2383      0.10050000       1.1817500     -0.11225000       342.20200       2.6858068     0.036030344
       2113.0000       291.40524       99578.510       7966.0732      0.30250000       1.9122500      0.47850000       342.72800       4.5838108     0.035828566
       2119.0000       291.20118       99564.760       7956.8156      0.85275010       2.0270000     -0.20350000       341.87400       2.7360895     0.028820725
       2124.0000       291.12734       99561.489       7949.0587      0.16600000       1.4782500     0.078250010       342.48900       7.9372154     0.050676018
       2129.0000       291.09500       99565.073       7935.3090      0.23225000       1.1935000      0.24175000       342.82500       5.2852050     0.052442332
       2134.0000       291.07226       99566.126       7930.9705      0.76525000       2.0797500     -0.41150000       342.29200       4.3024565     0.047273195
       2139.0000       291.08214       99564.598       7927.2640      0.65825000       1.4047500    -0.043250000       342.99300       6.7073273     0.039344415
       2144.0000       291.11936       99565.470       7945.9385    -0.013000000       1.7742500     -0.14650000       341.88200       3.9944445     0.049185200
       2149.0000       291.19176       99571.536       7985.7844      0.76150010      0.90450010      0.65175000       343.08300       3.6208200     0.037041188
       2154.0000       291.23117       99570.785       7997.9469      0.50425000       1.4912500     -0.14050000       341.99500       7.9677064     0.053963748
       2159.0000       291.33473       99564.922       8041.8694      0.26075000       1.7147500     -0.17550000       341.56300       2.5727505     0.043538057
       2164.0000       291.29994       99564.850       8003.4461      0.31725000       1.6467500     -0.55375000       341.55700       9.3985081     0.050234460
       2169.0000       291.17944       99565.564       7898.2765      0.51550000       1.4622500     -0.19625000       341.60000       4.2058408     0.046155418
       2174.0000       291.08163       99564.590       7844.0725      0.34825000       1.4475000     -0.30800000       342.47200       4.4730782     0.043406101
       2179.0000       290.90467       99565.008       7756.2696      0.26000000      0.71825000      0.30350000       342.38000       6.0262438     0.032025578
       2184.0000       290.81201       99565.989       7727.5859      0.42750000       1.2977500     0.071250010       342.07900       3.1078235     0.044421570
       2189.0000       290.74746       99567.519       7751.4599      0.17900000       1.8735000     0.026000000       342.26100       2.6423000     0.039032727
       2194.0000       290.70541       99562.884       7746.2992     -0.10625000      0.96850000      0.51225000       342.64200       2.7651319     0.033270706
       2199.0000       290.69717       99554.275       7745.6720     0.072250000       2.4252500      0.28500000       343.72400       3.4905282     0.043919306
       2204.0000       290.68584       99555.031       7750.4547       1.1665000      0.51700000     -0.31975000       342.13000       2.7967579     0.037887785
       2210.0000       290.70089       99554.015       7768.1610       1.2695000      0.69925000      0.12575000       342.95000       5.0393869     0.034149165
       2215.0000       290.70112       99555.407       7739.5180      0.82175000      0.69450000     0.085750010       342.20300       3.2306146     0.036936225
       2220.0000       290.70664       99565.236       7704.3718       1.8170000       1.1527500      0.13450000       342.93500       3.7664377     0.031664712
       2225.0000       290.66928       99578.181       7610.5262       2.0142500       1.3215000     -0.26575000       341.60100       2.9219839     0.027332441
       2230.0000       290.64893       99577.779       7557.2425       1.6235000       1.2802500     -0.32900000       342.02700       3.3914151     0.029930101
       2235.0000       290.61489       99563.368       7538.6382       1.2040000       1.2610000     -0.34900000       341.90000       7.9325095     0.032483683
       2240.0000       290.59385       99564.156       7519.9412       1.1302500       1.1060000    -0.076250000       341.65900       5.8121660     0.037785955
       2245.0000       290.58516       99567.416       7511.9858       1.1672500      0.26050000      0.20200000       343.37200       3.2798436     0.027622019
       2250.0000       290.58120       99565.254       7515.0400       1.1625000      0.76800000      0.10525000       342.34300       3.9550423     0.026277510
       2255.0000       290.64623       99560.384       7550.9873      0.82225010       1.3465000     0.032000000       342.26500       2.1910747     0.021668625
       2260.0000       290.74401       99566.663       7605.9734       1.7100000       1.7967500     -0.23650000       341.68000       3.1340538     0.027458062
       2265.0000       290.87138       99561.354       7658.7303       1.6422500       1.3065000    -0.047500000       341.75000       4.1612425     0.026417799
       2270.0000       290.96470       99554.117       7710.4647       1.0507500       1.5517500     -0.33725000       341.84100       5.1435501     0.033669700
       2275.0000       291.06080       99558.390       7774.7179      0.34550000      0.66050000     0.048500000       342.39500       2.8543805     0.025849177
       2280.0000       291.07504       99557.877       7788.0243      0.89425000      0.72175000     0.061500000       342.49100       2.2591025     0.027418193
       2285.0000       290.96497       99537.252       7747.8655      0.88275000       1.6165000    -0.068250000       341.83000       2.0576054     0.012056962
       2290.0000       290.94367       99531.486       7748.6873       1.3820000      0.88775000    -0.057500000       342.91500       2.1443173     0.010743650
       2295.0000       290.93461       99533.109       7749.8220      0.85525010     -0.20625000      0.46825000       341.92000       2.0893038     0.015448816
       2301.0000       290.88403       99545.615       7714.5890      0.79825000      0.55300000      0.13650000       342.76100       2.0318939     0.018622418
       2306.0000       290.91738       99561.565       7733.3037       1.9760000     0.018000000      0.10600000       342.73400       2.1075847     0.016577732
       2311.0000       290.95781       99563.914       7761.6440      0.80000000      0.58575000      0.22975000       343.12300       1.9799972     0.013305062
       2316.0000       290.97903       99544.368       7796.2114       1.2930000      0.14225000      0.26675000       342.29200       2.1593407     0.021514424
       2321.0000       291.00047       99542.796       7808.4631      0.58050000     0.082000000      0.32850000       342.95800       2.1641827     0.040490514
       2326.0000       291.06683       99551.199       7844.2245       2.2895000      0.22100000     0.079500000       342.51800       2.0894500     0.013520285
       2331.0000       291.11532       99550.251       7854.3603       2.3447500     0.022750000     -0.17025000       341.98800       1.9995632     0.016112369
       2336.0000       291.16258       99552.078       7820.3515       2.2832500      0.62650000     -0.28725000       341.73900       2.2321958     0.025857646
       2341.0000       291.15968       99556.955       7789.9281       1.5462500     -0.28725000      0.33750000       342.24700       1.9563028     0.011917893
       2346.0000       291.14938       99557.712       7768.4341       1.1315000       1.5482500      0.18500000       342.12300       1.9700070     0.012713305
       2351.0000       291.10500       99554.652       7723.8217      0.92325000     -0.19675000      0.30175000       343.40000       2.2112933     0.029630224
       2356.0000       290.94955       99552.691       7629.2417       1.2227500      0.36700000     0.056000000       342.58300       2.0451444     0.017467590
       2361.0000       290.87141       99555.664       7581.0207       1.5905000       1.1662500      0.44725000       343.30600       2.1181554     0.013269860
       2366.0000       290.81846       99557.562       7543.9510       2.5882500       1.8252500    -0.095750000       341.95000       2.2336648     0.012633892
       2371.0000       290.78134       99554.522       7516.7573       2.0410000       1.6652500     -0.17175000       341.98100       2.0836158     0.016176583
       2376.0000       290.77180       99552.842       7500.2096       2.3592500       1.3227500     -0.30200000       341.95400       2.0013986     0.013790751
       2381.0000       290.79416       99555.805       7524.1036       2.1270000      0.15450000    -0.047000000       342.37400       1.9921154     0.010468875
       2386.0000       290.86602       99557.500       7591.0082       3.5845000      0.74275000    -0.052500000       341.94600       1.9429791     0.013380120
       2392.0000       290.91406       99553.896       7643.2012       2.3765000     -0.93800000     -0.19525000       342.63200       2.0361598     0.012508410
       2397.0000       290.97640       99554.852       7730.2178       2.2752500    -0.062250000     -0.11075000       342.74200       2.0530061     0.017716545
       2402.0000       291.02315       99556.599       7777.8395       4.4175000       2.2975000     -0.13225000       342.85900       1.9506309     0.011405493
       2407.0000       291.03858       99552.005       7777.1839       6.1467500       2.1442500     -0.24750000       342.35300       1.9219780     0.012150172
       2412.0000       291.05870       99548.361       7793.7022       3.0042500       3.3517500      0.32850000       342.67000       1.9491228     0.013932469
       2417.0000       291.08233       99547.833       7810.8524       3.9670000       4.9487500     -0.76800000       342.04900       2.4488619     0.010095436
       2422.0000       291.11224       99551.211       7829.5847       3.4172500       4.5160000     -0.20500000       342.40000       2.4284530     0.012216706
       2427.0000       291.11041       99553.785       7847.5497       1.9015000       3.7977500     -0.69850000       342.79200       2.1727139     0.013241049
       2432.0000       291.15840       99555.195       7862.9702      0.75500010       3.0547500    -0.063250010       342.71900       2.2372850     0.011394719
       2437.0000       291.25804       99564.656       7867.0638       1.1380000       2.5487500     -0.49125000       342.65800       2.8582855     0.021486897
       2442.0000       291.32833       99567.436       7896.7187      0.58875000       2.4952500     -0.72525000       342.18500       3.3836741     0.030465720
       2447.0000       291.40363       99559.328       7932.6601      0.94275000       1.4912500     -0.18275000       342.39500       3.5048431     0.032539036
       2452.0000       291.48388       99559.015       7979.2008      0.57750000       1.3580000     0.055750000       342.62700       3.4112121     0.032122999
       2457.0000       291.62338       99567.995       8127.0140     -0.77525000       1.9425000     -0.28525000       343.03000       3.2687844     0.034990807
       2462.0000       291.62401       99565.833       8115.8764     0.028000000       2.2490000     0.012250000       342.94100       2.3375856     0.025986097
       2467.0000       291.56417       99554.554       8012.6112     -0.69375000       3.6360000     -0.28425000       342.20400       3.0529171     0.034241289
       2472.0000       291.49005       99554.315       7927.2098     -0.96325000       2.4195000       1.0375000       342.53200       3.7400411     0.014388530
       2477.0000       291.28661       99558.439       7732.3240      -1.4332500       3.6092500      0.19250000       342.42400       3.9847306     0.027931019
       2483.0000       291.11234       99553.115       7579.7840     -0.98775010       3.2052500      0.58300000       342.74000       3.2643222     0.038897909
       2488.0000       290.97652       99548.775       7498.8460     -0.45700000       2.2085000     0.069750000       342.80200       3.1041609     0.031934914
       2493.0000       290.88841       99551.461       7414.6526      -3.9565000       3.2415000       1.0747500       342.78400       2.6516233     0.020302244
       2498.0000       290.80175       99552.036       7314.7268       1.1960000       1.8857500      0.24475000       343.34500       3.3366795     0.039423626
       2503.0000       290.75995       99548.044       7260.2619     -0.11400000       1.4430000     -0.17175000       343.23000       2.9970104     0.035569472
       2508.0000       290.76628       99548.722       7228.9789       1.4745000       2.8490000      0.26025000       342.91100       2.2325735     0.039362280
       2513.0000       290.81457       99552.664       7232.7616       1.1660000       3.7040000     -0.50625000       341.96200       6.1469284     0.019836072
       2518.0000       290.92364       99551.588       7283.9629      0.90000000       3.9765000     -0.11050000       342.46600       3.0060269     0.017491737
       2523.0000       290.98389       99547.555       7316.2178      0.77025000       2.3360000      0.33700000       343.29200       2.9875217     0.022207216
       2528.0000       291.07542       99548.612       7370.1447       1.2482500       2.6992500      -1.1035000       342.44500       3.6923919     0.028419932
       2533.0000       291.14998       99552.685       7423.5738      0.93250010       2.1487500     -0.20450000       343.01700       3.3029083     0.028502133
       2538.0000       291.18575       99551.067       7465.9079       2.7762500       2.0277500      0.30275000       343.06300       3.4239123     0.047810417
       2543.0000       291.22585       99548.727       7524.1916      0.62950000       2.8215000      0.29875000       342.79600       6.5610121     0.035694414
       2548.0000       291.29883       99554.067       7602.2896       1.5472500       2.0935000      0.10975000       342.78400       3.0484973     0.013486834
       2553.0000       291.32589       99558.418       7680.0307     -0.33750000       3.6882500     -0.13825000       342.48100       2.4716461     0.013988028
       2558.0000       291.31123       99554.265       7790.0008      0.87500010       3.4480000     -0.47475000       342.37600       3.3121902     0.014514196
       2563.0000       291.29504       99554.502       7827.2780       1.2177500      0.91925010      0.56500000       343.11000       2.3860278     0.014481937
       2568.0000       291.29424       99565.929       7860.4348       1.2367500       1.0817500      0.32675000       342.83800       3.9074218     0.020553079
       2574.0000       291.20633       99567.914       7825.1148       1.2247500      0.88575010      0.35550000       343.42500       2.8836788     0.030342790
       2579.0000       291.05933       99559.093       7699.2812       1.6045000       3.6552500     -0.27450000       342.50500       2.8316106     0.014073466
       2584.0000       290.98756       99559.791       7645.0744       2.2430000       2.1402500     -0.56200000       342.86900       3.7099826     0.014960231
       2589.0000       290.91731       99567.625       7594.3534      0.61725000       2.3815000      0.27575000       342.57100       2.2487842     0.015521957
       2594.0000       290.82742       99564.061       7544.6152       1.1592500       1.4307500    -0.068500000       342.59300       2.1721625     0.038452445
       2599.0000       290.77090       99554.111       7510.2290      0.94625000       1.0672500      0.58750000       343.52900       3.2852958     0.028281817
       2604.0000       290.69271       99554.862       7479.9986       2.8035000       2.8445000     -0.10150000       342.40800       3.7028725     0.014189777
       2609.0000       290.56411       99556.826       7440.9713       2.2125000       2.3042500     -0.16050000       342.00000       2.0862888    0.0089323110
       2614.0000       290.47248       99552.014       7419.9236       2.2765000       1.2277500     -0.18675000       342.62200       2.1056971     0.023732833
       2619.0000       290.39684       99549.324       7413.2727       2.2540000       1.8055000      0.14175000       343.05600       2.0869022     0.011624695
       2624.0000       290.36446       99552.347       7425.7210       2.9737500       1.9577500     -0.20100000       341.75800       3.0360847     0.012927211
       2629.0000       290.34094       99550.506       7453.4262       1.6735000      0.72200010     -0.10125000       342.60300       3.1888450     0.022401949
       2634.0000       290.33853       99548.399       7471.2234       2.3412500       2.2102500     -0.65575000       342.26500       3.5136719     0.035624549
       2639.0000       290.38482       99555.035       7500.4279       1.4967500       2.3272500     0.068500000       342.65000       3.0541161     0.027234954
       2644.0000       290.43306       99559.141       7541.1747      0.89225010       2.0705000      0.41025000       342.38000       2.5531592     0.013709820
       2649.0000       290.48274       99554.115       7567.6932       2.9060000       3.0097500     -0.23625000       342.40700       3.8849798     0.015042036
       2654.0000       290.54079       99554.846       7630.1825       2.0565000       1.7592500      0.24150000       342.90800       5.5741016     0.020451732
       2660.0000       290.66160       99568.724       7753.2071       2.2005000       2.0605000     -0.18725000       342.84400       3.1568439     0.017365915
       2665.0000       290.69914       99565.001       7828.5859       1.3830000       2.4197500     -0.70150010       342.68200       2.0868378     0.011507445
       2670.0000       290.71169       99548.066       7923.7513       1.7187500       3.0632500     -0.53450000       341.82100       2.2368735     0.010130344
       2675.0000       290.66996       99558.414       7894.6092      0.93450000       2.0280000    -0.076250000       342.52300       4.9758225     0.015840975
       2680.0000       290.64992       99556.775       7876.9418       1.4797500       2.5600000     -0.64350000       342.04300       2.5765842     0.016743141
       2685.0000       290.58487       99547.638       7790.2229       1.9007500       2.5965000      0.14025000       342.38700       2.0515311     0.014413606
       2690.0000       290.58130       99549.443       7732.1121       1.0530000       1.9582500     -0.71700000       342.35500       2.0133121     0.012808877
       2695.0000       290.61459       99552.455       7689.4720    -0.024250000       2.1475000      0.11650000       343.14700       2.1511236     0.013073383
       2700.0000       290.69125       99550.179       7672.6456       1.3207500       2.5570000     -0.23800000       342.53600       2.0236204    0.0082069853
       2705.0000       290.75299       99546.277       7655.7383       1.3062500       2.1885000      0.32025000       342.99700       2.4034406     0.013452392
       2710.0000       290.84475       99550.240       7632.2459      0.13375000       1.9340000    -0.044000000       342.44800       2.0507983     0.013650084
       2715.0000       290.97742       99549.892       7688.8861       1.7882500       1.8352500     0.089500000       342.23000       2.0589171     0.017316400
       2720.0000       291.05980       99548.525       7739.6239       2.0155000       2.3755000     -0.60025000       342.12000       2.1129734     0.012347797
       2725.0000       291.15636       99561.481       7852.7626      0.98525010       1.8142500     -0.38000000       342.21800       2.0399695     0.014445985
       2730.0000       291.21911       99567.877       7915.7145       1.3587500       1.2410000      0.52075000       342.51600       2.0253597     0.017095806
       2735.0000       291.21471       99560.216       7941.6513       1.4237500       1.8280000     -0.11700000       342.01600       2.4854924     0.013586173
       2740.0000       291.20601       99558.970       7963.6300       1.7895000       1.8122500    -0.084500010       342.02700       2.4120502     0.012694405
       2745.0000       291.18502       99560.195       7968.7776      0.84150000       1.0650000      0.10075000       342.85300       2.1000502     0.014359641
       2751.0000       291.14315       99566.791       7934.7652       1.7297500       1.6427500      0.51125000       342.54400       2.0731831     0.013480781
       2756.0000       291.14405       99550.068       7981.3583      0.84675000      0.88925000     -0.33300000       342.22100       2.0351490     0.014735531
       2761.0000       291.14513       99548.477       7988.9232      0.71175000       1.8712500     0.099250000       342.65300       3.5201279     0.013166371
       2766.0000       291.20419       99553.609       7995.6896      0.82125000       1.7025000      0.30025000       342.81800       3.2737552     0.010517717
       2771.0000       291.21205       99549.667       7993.3017       1.7087500       1.6095000     0.053750000       342.42800       4.2686438     0.015144459
       2776.0000       291.19437       99548.655       7964.2304       1.5732500       1.5485000     -0.48200000       342.44500       4.9764238     0.017936922
       2781.0000       291.15217       99551.548       7926.5404      0.96425000       1.0827500      0.24350000       342.77700       3.2601603     0.036356372
       2786.0000       291.05809       99542.879       7883.1081      0.22675000       1.0855000      0.21200000       342.72400       3.0150231     0.011814984
       2791.0000       290.98822       99542.683       7841.4047    -0.037250000       1.1680000      0.26300000       343.16200       3.2626842     0.019771036
       2796.0000       290.87211       99564.869       7774.6652      0.48950000       1.6777500     -0.27000000       343.34400       2.4832021     0.011254342
       2801.0000       290.82575       99569.146       7725.4144      0.72750000       1.7482500     -0.41025000       342.75800       3.9393141     0.020072303
       2806.0000       290.85823       99554.724       7689.3956       1.2105000       1.8462500     -0.32975000       342.42500       4.6056086     0.039938541
       2811.0000       290.84830       99553.915       7657.9667      0.45425000       1.6162500     -0.24200000       343.20500       3.3308879     0.028480543
       2816.0000       290.85665       99559.075       7624.1233      0.83725010       2.0165000      0.13950000       342.81300       3.1552505     0.014002765
       2821.0000       290.85539       99554.966       7607.3621       1.7492500       1.9012500     -0.41550000       343.24100       2.7654367     0.026354649
       2826.0000       290.82417       99547.891       7613.2206       3.4960000       2.2832500      0.41925000       342.80500       2.9347260     0.020584179
       2831.0000       290.79454       99549.927       7611.2301       1.8617500       3.1442500    -0.052000000       341.65900       2.8485047     0.015216590
       2836.0000       290.76688       99551.824       7615.2604      0.81825010       2.1025000      0.27850000       342.56600       3.7016479     0.017087410
       2842.0000       290.74286       99548.533       7621.1427       1.3780000       1.7500000     -0.16075000       342.66900       4.0387521     0.022268574
       2847.0000       290.69296       99558.070       7622.1648       1.8815000       2.4522500     -0.47900000       341.70500       4.3385382     0.014373828
       2852.0000       290.69035       99557.328       7626.1247      0.82725010       1.6107500    -0.044500000       342.53900       3.4021052     0.025751308
       2857.0000       290.72557       99532.615       7627.5759      0.86925010       1.3580000      0.49175000       342.20500       2.7086137     0.012582800
       2862.0000       290.75916       99531.053       7644.6987       1.3147500       1.2235000      0.25475000       342.97900       2.5126516     0.010750653
       2867.0000       290.84662       99551.181       7681.1322       2.0907500       2.3497500    -0.078250010       342.13400       2.6744590     0.016441013
       2872.0000       290.86907       99552.035       7696.4013       1.5810000       2.0970000    -0.051750000       342.19000       2.1999145     0.011294424
       2877.0000       290.87169       99553.455       7725.1702      0.59150000      0.85275010     0.026500000       342.49200       2.0565791     0.015206414
       2882.0000       290.85382       99551.856       7727.3231       1.1035000      0.92375000     -0.39575000       343.34800       2.0388082     0.014327645
       2887.0000       290.75426       99527.418       7680.9175       1.0107500       1.0242500    -0.013000000       343.14400       2.0857446     0.014802485
       2892.0000       290.73168       99526.519       7676.1732       1.5167500       1.2685000     0.040000000       342.45500       3.2542210     0.014206908
       2897.0000       290.74340       99549.713       7685.5408       1.6472500       2.0960000     -0.46575000       342.26500       2.5767730     0.014017797
       2902.0000       290.74712       99553.693       7691.1778       1.5967500       2.8307500    -0.091000010       342.59300       2.7095695     0.014812559
       2907.0000       290.79533       99554.505       7724.8774       1.6232500       1.2712500      0.13550000       343.13700       2.3367511     0.016791212
       2912.0000       290.81133       99557.746       7732.9493       2.1770000      0.93725000     -0.37475000       342.94800       2.2416391     0.012858369
       2917.0000       290.81320       99553.353       7718.8812       1.8905000       1.4297500     -0.33250000       341.96300       3.5079807     0.014351064
       2922.0000       290.79970       99548.417       7714.1469      0.89525000      0.95675000     -0.19550000       342.98300       2.0914026     0.014057116
       2927.0000       290.72309       99542.770       7681.7039       1.4565000      0.73375000    -0.058000000       343.10300       3.5881992     0.018605701
       2933.0000       290.75363       99546.387       7706.3208       1.7760000      0.68025000     0.085500000       342.80200       2.0434662    0.0096014451
       2938.0000       290.83792       99550.908       7773.1990       1.2310000       2.2527500     -0.39375000       342.38000       2.1551888     0.013533965
       2943.0000       290.86788       99549.943       7798.0046       2.1747500       1.0087500    -0.011750000       343.82300       3.2370796     0.015090514
       2948.0000       290.97810       99554.795       7833.9071       2.0690000       1.6725000     -0.41600000       342.97400       3.1713621     0.013781390
       2953.0000       290.96777       99557.462       7861.5917       1.8620000       1.3850000    -0.044000000       343.12800       3.8119128     0.016605251
       2958.0000       290.82785       99548.938       7861.3256       1.0390000       1.3152500      0.17125000       343.49700       2.3339575     0.020656126
       2963.0000       290.75858       99548.820       7860.1729       1.9180000       1.6745000     -0.20975000       342.97900       3.3803824     0.036528553
       2968.0000       290.65971       99563.654       7871.0923       1.6392500       2.4207500    -0.052250000       342.90900       2.7141918     0.024774413
       2973.0000       290.61248       99561.431       7868.3853       1.3412500       1.8755000     -0.21975000       343.19100       3.1043450     0.014427672
       2978.0000       290.60143       99543.471       7841.9022      0.91700010       2.1155000     -0.18000000       343.38400       5.3840354     0.059391471
       2983.0000       290.58780       99544.075       7818.8794       3.2680000       1.2950000     0.013750000       342.06400       5.5031128     0.045924419
       2988.0000       290.58913       99551.990       7797.9143       1.3067500      0.93500010     -0.20450000       342.98700       3.9091841     0.035702527
       2993.0000       290.60550       99549.383       7780.0432       2.2517500       2.6312500     -0.24550000       342.65700       2.3698296     0.023285459
       2998.0000       290.63115       99552.287       7740.0099       2.0617500       2.6277500     0.035750000       342.51300       5.8491766     0.021984135
       3003.0000       290.66721       99551.458       7734.6308       2.9210000       2.4252500     -0.19800000       342.17900       4.0529153     0.058108841
       3008.0000       290.73006       99531.535       7752.7258       1.6900000       1.5385000   -0.0095000010       342.85000       3.9727196     0.042516016
       3013.0000       290.77977       99532.869       7771.9758       1.6525000     -0.25350000      0.53550000       343.39200       3.4363262     0.035918390
       3018.0000       290.81736       99559.568       7796.7086      0.99250010       1.7170000     -0.12875000       343.74600       4.1033750     0.015807029
       3024.0000       290.89904       99555.581       7855.8031       2.5152500       2.6605000      -1.2442500       342.80300       2.9948260     0.044429199
       3029.0000       291.02932       99539.210       7934.7289       2.1357500       1.7312500    -0.057500000       342.83800       6.2014300     0.054512667
       3034.0000       291.00544       99540.060       7976.9249       1.6907500      0.66450010      0.53650000       343.23000       2.7870943     0.023413441
       3039.0000       290.91908       99533.414       8026.4864       1.7397500      0.94475010    -0.072000000       342.80400       4.3373968     0.041409018
       3044.0000       290.86177       99532.848       8053.5360       1.4230000      0.64125000     0.079500000       343.14900       2.0890899     0.012722958
       3049.0000       290.67908       99553.396       8044.4814       1.9647500      0.97900000     -0.31375000       343.39100       3.4559991     0.035530743
       3054.0000       290.65298       99553.133       8050.7323       2.0465000       1.5360000     -0.24475000       342.54400       3.9112634     0.027267055
       3059.0000       290.73618       99532.149       8063.1452       2.7120000       1.2210000     0.039500000       342.39800       3.4636695     0.026311351
       3064.0000       290.77549       99533.541       8067.4573      0.98125000       2.5850000     -0.72800000       342.21900       3.0198942     0.022347824
       3069.0000       290.85714       99546.528       8071.5019       2.2330000       1.4505000      0.11675000       342.11900       3.5459870     0.018510258
       3074.0000       290.86956       99545.730       8046.9242       2.3195000       2.1762500     0.024750000       342.30200       3.7151352     0.014354797
       3079.0000       290.85614       99546.391       8006.6947       2.2385000       1.3167500    0.0047500000       342.33600       2.7993553     0.013841858
       3084.0000       290.84741       99545.686       7973.3697       1.7705000       1.6745000     -0.10950000       342.05300       2.9980097     0.021813412
       3089.0000       290.77914       99531.310       7904.8769       1.2730000      0.86275010      0.39475000       342.83700       3.6233669     0.034564726
       3094.0000       290.80535       99535.521       7892.7046       1.2385000      0.87575010    -0.012500000       343.16900       4.5079060     0.030723598
       3099.0000       290.87318       99559.920       7895.1722       2.1570000      0.60750000      0.24725000       342.45100       2.9863548     0.018586646
       3104.0000       290.94966       99555.960       7944.0484       1.5090000       2.2415000     -0.51375000       342.85900       3.6561225     0.015350179
       3109.0000       291.09587       99539.269       8054.7412       2.1167500       2.0395000     -0.44900000       342.74300       4.3555607     0.016793297
       3115.0000       291.16802       99540.336       8117.3128       1.8400000       1.6055000     -0.10950000       342.75300       4.2493996     0.014818915
       3120.0000       291.21136       99531.524       8182.8738       1.1442500       1.6317500     -0.16675000       342.89600       3.3979192     0.018356730
       3125.0000       291.20001       99557.214       8238.5299      0.29050000      0.93250010      0.68025000       343.78100       5.2534219     0.019630033
       3130.0000       291.20001       99565.464       8266.6980       1.7117500       2.9080000       1.0082500       343.49400       4.1894498     0.049635055
       3135.0000       291.21540       99546.647       8321.0628       1.4982500       3.4240000    -0.051500000       342.69000       4.5489634     0.015918839
       3140.0000       291.20681       99543.254       8334.2827       1.5380000       3.7385000     -0.37825000       342.05900       2.6588922     0.029985738
       3145.0000       291.18587       99543.542       8312.0489     -0.32950000       2.6760000      0.41750000       343.21200       2.3719546     0.025212039
       3150.0000       291.14432       99544.539       8226.9049     0.068250000       1.1280000      0.64125000       343.21000       2.6010298     0.015391544
       3155.0000       291.14561       99543.768       8186.7016       1.0452500       1.8705000      0.67550000       343.31300       2.1536734     0.024640896
       3160.0000       291.14428       99552.580       8143.3090      0.11725000       2.5067500     -0.16325000       342.59500       2.9338431     0.038595021
       3165.0000       291.18530       99535.588       8081.7608      0.39425000       2.3472500      0.37625000       343.31100       3.8535996     0.018949814
       3170.0000       291.20679       99531.777       8038.5602      0.73100000       1.9267500      0.34650000       343.19200       2.8359147     0.018327838
       3175.0000       291.20020       99545.284       7985.5499      0.83625010       2.1167500      0.27700000       342.80200       3.2347017     0.027250242
       3180.0000       291.20017       99546.468       7948.4166       2.3245000       1.9830000     -0.57100000       342.93500       4.8973245     0.033279192
       3185.0000       291.20018       99545.393       7942.9333       1.5850000       3.1612500      0.78700010       342.86300       3.4182329     0.030161743
       3190.0000       291.20030       99546.699       7934.2308       1.1207500       3.3245000     -0.18825000       342.46800       4.2143407     0.015953886
       3195.0000       291.20042       99545.533       7928.3271      0.10475000       2.4382500      0.86850010       343.21200       3.1487826     0.020616659
       3201.0000       291.19970       99532.244       7925.3414      0.83425000       1.6550000      0.30350000       342.64200       3.0143095     0.014496306
       3206.0000       291.18582       99550.292       7894.1682     -0.16750000       2.0507500     -0.40250000       341.89900       2.6618391     0.027658230
       3211.0000       291.19706       99552.833       7898.2929       1.8057500       2.0612500      0.14300000       342.49300       2.5580697     0.026623285
       3216.0000       291.22064       99543.607       7910.1525       1.4982500       1.7085000    -0.051750000       342.58000       2.2209809     0.035234731
       3221.0000       291.25204       99544.619       7937.6215     0.080000010       2.1170000     0.010500000       342.64200       3.7832778     0.025523863
       3226.0000       291.33860       99543.461       8022.8467      0.69000010       2.6100000     -0.37350000       342.47300       3.1094059     0.024563436
       3231.0000       291.36571       99543.848       8068.3781      0.98800000       1.6012500      0.13425000       342.82200       2.4413397     0.013281243
       3236.0000       291.35687       99564.817       8093.5664       1.6427500       2.2990000     -0.40825000       342.59000       3.3367389     0.044559196
       3241.0000       291.35525       99564.748       8124.7643      0.83350000       1.0762500      0.24925000       343.39400       2.2221554     0.030076965
       3246.0000       291.32397       99539.098       8155.2779       1.9502500       2.7940000     -0.96375010       342.55200       2.2170146     0.029710859
       3251.0000       291.29365       99532.559       8162.5540       1.8290000       2.9105000      0.60275000       342.72700       4.5296568     0.047110029
       3256.0000       291.25176       99522.795       8160.3916       2.5655000       3.4185000     -0.80625000       342.48600       2.1580687     0.031630778
       3261.0000       291.24298       99521.642       8156.6231       1.5055000       2.4007500   -0.0087500000       342.53000       3.3046471     0.042052761
       3266.0000       291.24345       99551.228       8126.1962      0.79750000       3.7407500     -0.29075000       342.81200       7.0184972     0.077334190
       3271.0000       291.24477       99554.985       8102.8564       1.9400000       2.6662500     -0.35575000       342.27500       2.7937193     0.048264280
       3276.0000       291.27588       99534.338       8079.0038       1.0667500       2.5537500    -0.030000000       342.15800       2.4218578     0.046148895
       3281.0000       291.30562       99533.726       8067.3376      0.91925010       2.1635000     -0.32775000       342.75100       2.7363978     0.044099821
       3286.0000       291.31848       99534.784       8042.2639       1.3615000       1.6045000      0.36325000       342.44400       2.7707264     0.038496505
       3292.0000       291.35759       99533.374       8050.2425     -0.20000000       1.4535000     -0.20800000       342.96500       3.4137225     0.016694995
       3297.0000       291.43253       99553.836       8096.6001     -0.11150000       3.2282500    -0.081250000       341.72300       2.5961203     0.034446419
       3302.0000       291.46914       99553.930       8126.4056      0.46175000       2.4152500     -0.25450000       341.71800       2.1862347     0.032439606
       3307.0000       291.54661       99523.262       8186.7850      0.73975000       1.9255000     -0.36950000       341.77500       3.2228977     0.048029509
       3312.0000       291.50873       99520.714       8200.7485      0.88650010       1.2877500      0.47700000       342.60000       4.1123137     0.040642053
       3317.0000       291.34808       99534.727       8175.1355     -0.14475000       2.2950000     -0.28300000       342.57800       2.7917333     0.045723418
       3322.0000       291.26891       99535.752       8166.2790      0.10875000       2.1500000    0.0060000000       342.27100       2.6177043     0.041225590
       3327.0000       291.14621       99549.294       8158.3129      0.45625000       1.9630000     -0.17625000       342.01500       4.6394243     0.065741706
       3332.0000       291.05390       99548.482       8116.3229      0.62100010       3.0682500     0.018750000       342.03100       3.8251686     0.048395911
       3337.0000       291.01114       99517.985       8056.8886      0.70375000       2.0612500     -0.53850000       342.05700       3.9074140     0.051071195
       3342.0000       290.98498       99516.097       8008.2345       1.2350000       2.2275000     -0.52425000       342.31500       3.3081094     0.054104347
       3347.0000       290.94800       99534.480       7923.5385       1.3897500       2.8790000      -1.0160000       342.26600       2.3588148     0.049516001
       3352.0000       290.93532       99537.177       7864.7976      0.91575000       1.3527500      0.22200000       342.71400       2.7162157     0.055741441
       3357.0000       290.99502       99548.937       7828.9617      0.60225000       1.6285000     0.015750000       343.41200       3.4673506     0.059865630
       3362.0000       291.01075       99548.206       7799.4125       1.9185000       1.2850000      0.48300000       343.11500       3.2342768     0.051690175
       3367.0000       290.98679       99517.564       7760.6392       1.4057500       2.0390000      0.21200000       342.38000       3.0998652     0.058858490
       3372.0000       291.00029       99515.440       7753.3749       1.9067500       1.2330000    -0.012250000       342.67900       2.7789258     0.051922540
       3377.0000       291.01016       99532.695       7770.5110       1.3262500       1.7300000      0.10900000       342.40300       2.6905819     0.057732918
       3383.0000       291.07058       99537.660       7812.6264      0.81925000      0.57500000      0.51300000       342.42000       4.1192783     0.058510525
       3388.0000       291.18272       99554.656       7886.0304      0.29900000       1.0385000      0.21150000       342.54500       4.2331868     0.058865773
       3393.0000       291.23684       99552.747       7931.6472      0.53825000       1.5235000     -0.43300000       342.93900       3.9075885     0.061570074
       3398.0000       291.29909       99522.040       7994.6000      0.61000000      0.93775000      0.34450000       342.97400       2.9346918     0.044885967
       3403.0000       291.32700       99521.273       8023.3045      0.45350000      0.50350000      0.27875000       343.39500       7.1298304     0.084411099
       3408.0000       291.31153       99534.933       8026.5722       1.3017500       1.3127500     0.031750000       342.57100       4.2984987     0.058626591
       3413.0000       291.29558       99535.956       8020.7641       1.4737500       1.3880000     -0.21800000       343.36700       2.6636829     0.060530061
       3418.0000       291.27024       99549.846       7996.0280       1.0852500       1.0862500     0.054500000       343.52600       3.0603422     0.059452968
       3423.0000       291.23353       99547.249       7969.8988       1.2175000       1.4127500      0.32250000       343.47800       4.7836794     0.055601522
       3428.0000       291.14842       99516.804       7911.4221      0.98975000       1.8242500     -0.87975000       342.28200       2.2246126     0.060550663
       3433.0000       291.13127       99516.924       7899.1449      0.79275010       1.4512500     -0.29550000       343.28500       2.3283858     0.057709940
       3438.0000       291.14348       99535.131       7913.4938      0.81825010       1.8745000    -0.088750000       342.39900       2.6804541     0.055829971
       3443.0000       291.14979       99537.549       7907.5568      0.71550010       2.0822500     0.092250000       342.87200       2.2198753     0.052860481
       3448.0000       291.19979       99549.479       7923.4117      0.49325000       1.7375000    -0.010500000       343.03800       2.4324647     0.055571367
       3453.0000       291.21332       99547.028       7913.8304      0.74850000       3.8065000      0.31825000       342.45400       4.5761069     0.060763041
       3458.0000       291.20001       99516.354       7865.3649       2.1962500       3.5435000    -0.080250000       341.80400       3.5531591     0.059203038
       3463.0000       291.19995       99516.193       7851.6304       1.4287500       2.9147500     -0.37950000       342.07300       2.8959463     0.049190873
       3468.0000       291.21157       99534.510       7853.5014       1.2945000       1.3895000      0.61950000       342.85800       4.6126102     0.055462013
       3474.0000       291.19039       99537.306       7846.0366      0.38450000       1.8182500      0.32725000       342.63400       4.9415762     0.026795386
       3479.0000       291.17232       99545.148       7859.8030       1.0377500       3.0210000      0.27450000       342.39400       4.0771169     0.047625205
       3484.0000       291.11499       99550.507       7833.5203       1.2585000       2.9417500     -0.34100000       342.54800       2.4450415     0.041561594
       3489.0000       290.98524       99545.025       7765.0516      0.80475000       3.0725000     -0.46775000       341.74500       4.8824221     0.057958864
       3494.0000       290.97096       99543.831       7760.1906       1.2957500       4.1535000      -1.2937500       342.09400       3.6452509     0.058181772
       3499.0000       290.98625       99550.295       7762.3308     -0.34075000       3.9620000    -0.076250000       342.26000       5.3948809     0.059755229
       3504.0000       291.00367       99553.416       7776.3540       1.2115000       3.5600000     -0.51375000       342.64100       2.3514275     0.030858594
       3509.0000       291.09744       99553.625       7839.0503       1.1225000       3.3940000     -0.10875000       343.10700       2.2404763     0.049309621
       3514.0000       291.13889       99546.018       7870.8731      0.96675000       3.0217500      0.33125000       342.27100       4.8638132     0.070854209
       3519.0000       291.13788       99535.323       7881.9364      0.49775000       1.8522500      0.67775010       342.93100       3.3984213     0.053516300
       3524.0000       291.17711       99533.309       7912.3494      0.74850000       3.1505000     -0.18875000       341.91900       3.6115975     0.046621194
       3529.0000       291.25019       99520.999       7955.2045      0.69925000       2.4227500     -0.17725000       341.75900       4.0691876     0.050406753
       3534.0000       291.28161       99525.121       7993.2613      0.50850000       1.8895000     -0.22525000       341.69400       5.1733462     0.053131599
       3539.0000       291.28590       99554.977       8022.8460    -0.018250000       2.2775000     -0.30025000       342.00400       2.5388552     0.013988689
       3544.0000       291.33456       99552.970       8078.9836      0.52500000       1.2855000     0.097250010       342.41300       2.3525131     0.041783922
       3549.0000       291.40085       99535.385       8164.1830     -0.14125000       1.1600000      0.44225000       342.75200       3.3579908     0.047151528
       3554.0000       291.42201       99533.321       8201.7014     -0.70200000       2.4232500      0.59375000       342.24600       3.4446397     0.041195477
       3559.0000       291.45207       99520.528       8252.0691     -0.18175000       2.2655000     -0.50925000       342.60400       2.5245937     0.039599441
       3565.0000       291.47611       99526.755       8240.4555      0.95400010       2.4720000     -0.75600000       342.21600       2.9669982     0.042913195
       3570.0000       291.46190       99555.034       8180.0430       1.0322500       2.7730000    -0.034250000       342.15600       4.4562157     0.056581214
       3575.0000       291.40857       99539.114       8076.5250      0.52275000       1.7712500      0.36625000       342.92400       3.5674153     0.051162426
       3580.0000       291.36095       99535.016       8007.3072    -0.018250000       2.8200000     -0.60500000       341.73200       3.8069967     0.052171327
       3585.0000       291.24440       99519.245       7953.3873      0.50025000       1.6447500      0.26725000       342.69900       2.7751767     0.038172678
       3590.0000       291.14405       99515.334       7880.7929      0.54725000       1.8245000     -0.15250000       342.82500       2.4180053     0.036326596
       3595.0000       291.05600       99521.283       7808.9240     -0.14400000       1.7527500      0.19750000       342.25800       2.1737095     0.014185808
       3600.0000       290.99601       99548.593       7757.3963      0.40925000       2.5575000     -0.39775000       342.06600       6.2260034     0.073357401
       3605.0000       290.94723       99549.994       7689.8196      0.56625000       2.9190000   -0.0032500000       342.37500       4.1014137     0.055262082
       3610.0000       290.89413       99548.445       7587.5180      0.35625000       2.8465000     -0.75325010       341.67700       2.9493019     0.052183693
       3615.0000       290.85448       99524.001       7555.2792     -0.10225000       2.8857500     -0.40425000       342.19700       2.1269610     0.026153629
       3620.0000       290.84277       99516.018       7536.4581      0.85350010       1.3055000     -0.21425000       342.39500       4.0929553     0.044192644
       3625.0000       290.84512       99522.351       7570.6241      0.48000000       2.1185000      0.14000000       342.73400       2.5620220     0.038238484
       3630.0000       290.84407       99524.131       7571.3352       1.0177500       1.4645000      0.19825000       343.09400       2.5690841     0.038407189
       3635.0000       290.85515       99540.272       7518.1230      0.59975000       1.6642500      0.21275000       342.56900       2.5873646     0.042358508
       3640.0000       290.89359       99544.000       7534.0814       1.4210000       1.7575000     0.088750000       342.05000       3.8866920     0.054574307
       3645.0000       290.94433       99540.352       7576.9763      0.69575010       1.5340000     -0.27700000       342.26000       5.7675101     0.071211566
       3650.0000       290.99865       99524.227       7620.4331      0.95225010       1.0977500     -0.23000000       341.93200       3.6017049     0.052967295
       3656.0000       291.07939       99515.980       7807.4139      0.71625010       1.1035000     -0.18250000       341.78900       4.7326561     0.042206785
       3661.0000       291.11724       99517.736       7886.8648      0.98050000       1.1702500     -0.12275000       341.73000       4.4317111     0.060386416
       3666.0000       291.09991       99542.889       7918.9996      0.50575000       1.5085000      0.10425000       341.94600       2.9769593     0.047594642
       3671.0000       291.09995       99549.407       7932.7277      0.52750000       1.4192500     -0.17150000       342.18800       2.3324038     0.027820850
       3676.0000       291.09984       99551.413       7867.6023      0.32800000      0.99575010     0.019750000       342.62800       2.2782056     0.045300799
       3681.0000       291.09972       99547.681       7845.7285      0.69100000      0.76800000    -0.092000010       342.82800       2.4084896     0.033757877
       3686.0000       291.08565       99517.265       7831.1813      0.70125000      0.63350000     -0.12875000       342.08200       5.7375393     0.059305463
       3691.0000       291.09718       99510.246       7818.8529      0.22625000      0.54700010     -0.16725000       341.81400       3.1416977     0.043266489
       3696.0000       291.14787       99516.866       7829.3351      0.27050000      0.89450000     0.076750000       342.55400       4.2805216     0.058717900
       3701.0000       291.15638       99519.221       7829.4709       1.1187500      0.59875010     -0.12425000       341.98800       3.0899457     0.044654772
       3706.0000       291.12747       99540.718       7777.6821      0.95750000       1.2030000     -0.19875000       342.10000       4.2047064     0.055433270
       3711.0000       291.14849       99544.986       7805.3851      0.69500010      0.75075010     -0.26750000       342.06100       2.6887932     0.050057112
       3716.0000       291.17783       99527.183       7928.0065      0.97725000      0.76350000      0.14825000       342.83400       3.6375686     0.053252556
       3721.0000       291.19890       99523.469       7972.5245      0.59125000      0.82075010      0.12925000       342.84700       5.3280758     0.063856048
       3726.0000       291.28052       99518.553       8061.4637      0.68650000       1.0017500     -0.10150000       342.35400       3.0198357     0.048136663
       3731.0000       291.31789       99518.018       8078.7340      0.24450000       1.2702500     -0.17050000       341.89500       2.8198517     0.046312368
       3736.0000       291.29955       99533.097       7952.1357      0.38900000       1.4635000      0.18950000       342.65300       2.7049422     0.041711460
       3741.0000       291.29943       99537.705       7906.8779      0.22350000      0.86650000      0.29875000       343.05200       3.2106044     0.046392140
       3747.0000       291.31314       99539.901       7846.3473      0.61525010       1.5957500     -0.49125000       341.90900       2.5254336     0.041009664
       3752.0000       291.29947       99535.454       7859.2661      0.57975000       1.5875000     -0.21300000       342.34500       2.9973137     0.050346807
       3757.0000       291.28698       99515.322       7982.5623      0.55925000      0.97475000     0.050000000       342.14000       9.1072674      0.13441603
       3762.0000       291.23973       99511.737       8017.1854      0.41275000       1.3852500     -0.14725000       342.03700       2.9058871     0.043716150
       3767.0000       291.12869       99511.951       8042.3579     -0.23000000       1.6422500     0.037250000       342.04700       3.2582244     0.046145700
       3772.0000       291.07285       99514.456       8059.9966      0.87650010       1.3002500     -0.19325000       342.43400       2.9671331     0.042433563
       3777.0000       290.98281       99536.451       7991.0543       1.2525000      0.86700000      0.35625000       342.38300       2.2188850     0.031930431
       3782.0000       290.97844       99539.027       8005.7258       1.1542500       1.8717500     -0.23050000       342.04900       2.0206636     0.024895810
       3787.0000       291.07629       99528.224       8101.0799       1.1672500       1.5207500     -0.26800000       342.11200       2.1839743     0.017801589
       3792.0000       291.11645       99523.820       8135.7720       1.1455000      0.94575010     0.096500000       343.18700       2.1090058     0.015812996
       3797.0000       291.16459       99507.776       8162.3382       1.5652500      0.39950000      0.59800000       343.03000       3.1205445     0.041282131
       3802.0000       291.22453       99506.954       8198.2725       1.0952500      0.99150000     -0.29575000       341.81600       4.8778815     0.053373326
       3807.0000       291.26375       99521.862       8216.1796      0.94925000      0.41975000      0.27175000       342.26700       4.0386215     0.036756040
       3812.0000       291.31710       99527.824       8226.2594      0.67325000      0.63425000      0.32675000       343.25600       2.7341273     0.015297836
       3817.0000       291.40179       99542.760       8245.0470       1.1527500       1.6435000    -0.031750000       342.40400       3.8690165     0.028702403
       3822.0000       291.48119       99543.597       8265.7344      0.97775010       1.2645000     -0.26450000       342.00300       2.3343750     0.032937911
       3827.0000       291.56910       99526.608       8245.1850       1.2832500      0.72525000    -0.078250010       342.09300       2.1502541     0.024064420
       3833.0000       291.63501       99523.054       8278.8788      0.19375000       1.4620000     0.087500010       342.72400       2.5432747     0.021258395
       3838.0000       291.69730       99515.743       8373.9044       1.0812500       1.5902500     -0.13475000       342.27900       2.1929376     0.015027899
       3843.0000       291.72500       99520.489       8400.7168       1.1297500       1.7102500     0.034250000       342.04900       2.3696797     0.014962918
       3848.0000       291.72252       99546.223       8429.5479       1.1940000       1.9437500       1.2380000       342.71600       2.9676690     0.015754360
       3853.0000       291.69044       99550.157       8410.2760       1.1507500       1.0667500     0.086500000       342.44800       2.8902073     0.017233558
       3858.0000       291.63881       99550.664       8332.6651       1.2300000       2.5017500     0.072000000       342.07200       2.8073952     0.028203068
       3863.0000       291.56706       99543.878       8267.6155       1.7185000       1.6750000     -0.45000000       342.70900       3.1289401     0.030940943
       3868.0000       291.43054       99514.709       8180.3170      0.69750010       2.4637500     -0.68025000       342.43800       2.9791852     0.019670493
       3873.0000       291.34655       99509.593       8101.0688      0.68700000       2.0925000    -0.047500000       343.13100       3.2716696     0.034179675
       3878.0000       291.24889       99511.959       8004.6549    -0.077000010       1.3712500     0.022000000       343.42200       3.8903505     0.037158700
       3883.0000       291.21759       99515.419       7941.1263      0.62425010       1.5375000     0.079500000       342.65000       5.2321429     0.042866337
       3888.0000       291.25436       99535.687       7886.7741      0.23025000       1.5262500     -0.38425000       342.54900       3.2349208     0.040631787
       3893.0000       291.24431       99540.243       7845.4491      0.57550000       1.7977500     -0.20200000       342.67200       5.9355168     0.067609404
       3898.0000       291.27914       99538.225       7833.6973       1.2805000       2.8815000     -0.78200010       342.69800       5.0680171     0.054670218
       3903.0000       291.24034       99534.359       7807.2845      0.99575010       1.0365000    -0.030500000       343.61500       3.4555649     0.018189750
       3908.0000       291.12826       99518.615       7784.8309       1.2382500       1.2585000      0.58700000       343.76900       3.2684215     0.029125416
       3913.0000       291.05859       99518.053       7755.5066       1.1380000       1.5550000      0.52125000       343.56500       4.4138014     0.037755251
       3918.0000       290.97226       99520.280       7713.6833      0.69075010       3.0605000     -0.47950000       342.54300       3.7947664     0.021404180
       3924.0000       290.89702       99528.715       7690.6063      0.87550000       2.1712500     -0.65850000       342.04200       3.4085745     0.036897096
       3929.0000       290.84278       99552.898       7671.2918      0.99175010       1.4382500     -0.13950000       342.80300       3.9523718     0.037063788
       3934.0000       290.83022       99554.708       7675.0829     0.038750000       2.3642500      0.19375000       342.32100       4.3502942     0.046914502
       3939.0000       290.84400       99548.682       7706.4352      0.15450000       1.9867500    -0.047250000       342.31700       3.9448157     0.041252954
       3944.0000       290.85281       99541.248       7722.2604      0.62175010       1.9437500     -0.22500000       342.47400       4.0178105     0.037344176
       3949.0000       290.87582       99518.372       7731.8958       1.1357500       2.6342500      0.40175000       342.67900       3.2439374     0.035928986
       3954.0000       290.94266       99514.717       7773.0597      0.74100010       2.8367500      0.21325000       342.55700       3.5667692     0.039447373
       3959.0000       291.03592       99515.906       7820.6894      0.61650000       3.3125000     -0.10250000       342.92100       4.7759562     0.041662025
       3964.0000       291.09646       99523.431       7884.7378       1.1382500       2.4417500      0.58425000       342.63400       6.1515536     0.047646020
       3969.0000       291.18240       99546.473       7977.3039      0.46150000       2.1770000    -0.031000000       342.54600       3.9498337     0.040049326
       3974.0000       291.27332       99551.035       8071.3327     -0.23225000       1.8115000      0.52825000       343.06200       3.1342913     0.028723343
       3979.0000       291.34997       99555.543       8196.0532      0.96550010       2.5660000     -0.24400000       342.33600       5.1418040     0.039586277
       3984.0000       291.39127       99547.431       8248.2610     -0.28250000       2.4622500   -0.0047500000       342.82400       2.5619676     0.027841985
       3989.0000       291.48085       99518.372       8302.6529     -0.18700000       1.6352500      0.72200010       343.47600       3.1055080     0.025693274
       3994.0000       291.45674       99513.758       8287.6315     0.077500000       3.5767500     -0.24600000       342.07900       2.9024302     0.039450622
       3999.0000       291.32373       99511.888       8188.6975      0.51725000       2.3575000     -0.36725000       342.54500       3.8917819     0.039395465
       4004.0000       291.23580       99515.117       8120.3913       1.0822500       2.4630000    -0.093000000       342.86000       2.7110383     0.016006255
       4009.0000       291.09472       99535.680       8021.1776       1.7935000       1.9545000     -0.44525000       342.67900       2.6297988     0.018751626
       4015.0000       291.04669       99541.597       7950.6982       1.4197500       1.0347500      0.64175000       342.75900       3.3957779     0.027423095
       4020.0000       291.03843       99542.826       7894.2441       1.4457500       1.5940000    -0.091250000       342.72400       2.4543110     0.026895918
       4025.0000       291.10012       99531.234       7885.3588       1.1720000       2.1817500     -0.87050000       342.73300       5.1586092     0.056876996
       4030.0000       291.11325       99525.160       7865.4793      0.63575010       2.6510000    -0.057250000       342.84300       3.0938500     0.029865720
       4035.0000       291.06992       99510.161       7835.2896      0.54300000       2.2235000     -0.14050000       342.67000       2.9903374     0.023870454
       4040.0000       291.05024       99506.469       7826.8825      0.53500000       2.9412500      0.14100000       342.94900       3.1458176     0.029868647
       4045.0000       291.03057       99510.165       7828.1852      0.20350000       2.6055000      0.19575000       343.37300       2.6868214     0.029494060
       4050.0000       290.99400       99524.884       7832.2077      0.17425000       2.5200000     -0.44675000       343.00100       2.7498916     0.031450267
       4055.0000       290.98553       99530.879       7844.6929     -0.42325000       2.9157500     -0.49275000       342.22000       2.9409026     0.035399075
       4060.0000       290.99978       99544.109       7878.4527     -0.58725010       1.7450000      0.33325000       342.88300       5.3627050     0.058663615
       4065.0000       291.00017       99531.150       7898.4984     -0.39000000       2.6382500      0.29500000       342.61900       3.6419020     0.043260155
       4070.0000       291.00030       99525.112       7911.9880       1.0262500       2.9795000     -0.11150000       342.53900       2.7328213     0.038713171
       4075.0000       290.99989       99510.076       7929.1251     -0.10675000       1.5660000      0.14575000       342.75200       4.4775364     0.040538444
       4080.0000       290.99975       99506.383       7936.2458     -0.53900000       1.4725000      0.34300000       343.25600       3.1217729     0.035327113
       4085.0000       290.98483       99525.303       7898.2587      0.40425000       1.4762500     -0.13250000       343.29300       2.3548746     0.038345865
       4090.0000       290.99341       99527.796       7909.0311       1.1635000       1.5700000    -0.018500000       342.52000       3.0110270     0.044713305
       4095.0000       291.01429       99525.345       7941.8107      0.37850000       1.4617500     -0.35750000       342.43500       3.0437205     0.039902698
       4100.0000       291.04207       99519.887       7991.9764      0.78750000       1.0000000      0.75100000       343.19400       2.3714422     0.041437490
       4106.0000       291.13822       99523.663       8084.3283     -0.19650000       2.1532500      0.19125000       343.49300       3.2188700     0.050104927
       4111.0000       291.16621       99519.633       8130.1666      0.32550000       2.8430000     -0.43100000       342.66000       4.2050269     0.045614042
       4116.0000       291.16967       99521.051       8153.4266     -0.82325010       1.9925000      0.53075000       342.74400       3.2116521     0.015840357
       4121.0000       291.15734       99521.662       8152.7894      -1.2475000       1.7900000      0.74175010       343.40200       4.3584427     0.048613908
       4126.0000       291.08984       99503.234       8127.4673      0.53950000       1.5472500      -1.0747500       342.46500       3.6691593     0.047159268
       4131.0000       291.04030       99501.127       8094.3072      0.53175000       1.8947500     -0.28675000       342.66900       3.3049125     0.045670379
       4136.0000       290.96165       99519.365       8010.6028    -0.051500000       3.7287500     -0.59325000       341.97200       3.0070553     0.043924208
       4141.0000       290.93435       99527.230       7964.8981      0.56400000       2.0860000      0.16425000       342.68100       2.6337718     0.040157381
       4146.0000       290.95859       99541.518       7950.0379       1.0215000       3.2802500     -0.87925000       342.47300       2.4933460     0.040225477
       4151.0000       290.94870       99543.801       7908.7112      0.55550000       2.9097500      0.34275000       342.91600       3.4586326     0.045212733
       4156.0000       290.94131       99531.148       7855.8201    -0.073750000       2.3582500      0.44900000       342.57100       2.9236317     0.047365357
       4161.0000       290.95105       99523.917       7823.7875       1.6010000       2.7287500     -0.22150000       342.44500       2.6349403     0.045310058
       4166.0000       290.95802       99505.583       7779.0413      0.82100000       2.7095000     -0.19525000       342.29300       3.6336968     0.048703184
       4171.0000       290.94822       99501.532       7749.4019      0.55525000       3.6822500     -0.15850000       341.99700       3.1205236     0.050234971
       4176.0000       290.95649       99509.897       7746.0062      0.54375000       2.6715000      0.17050000       342.66900       3.8767402     0.052731759
       4181.0000       290.95552       99515.033       7748.4057       1.2022500       2.5362500    -0.066250000       342.10200       3.5390603     0.052888822
       4186.0000       290.92466       99531.979       7759.6476      0.89225010       1.7592500    0.0020000000       342.61900       4.2498537     0.057868733
       4191.0000       290.89474       99538.389       7765.4078      0.57150000       2.1952500      0.11850000       343.25000       4.1375989     0.054835807
       4197.0000       290.86218       99539.690       7787.5340       1.0905000       2.3487500    -0.071500000       342.74500       3.3188246     0.048915282
       4202.0000       290.84215       99535.164       7799.3183       1.2967500       2.4160000     -0.47100000       342.47900       2.5262247     0.043374481
       4207.0000       290.79182       99519.156       7794.6348      0.57600000       1.7822500      0.18525000       342.99200       2.4776238     0.037752797
       4212.0000       290.78895       99511.470       7801.9714       2.1550000      0.79725000      0.13100000       342.83800       2.4452148     0.037406131
       4217.0000       290.82526       99498.035       7818.7061       3.1072500       1.7865000     -0.28600000       342.90200       2.3061591     0.038252385
       4222.0000       290.85877       99497.358       7831.8349       1.9057500       2.3747500      -1.2702500       342.98800       2.3938407     0.038526037
       4227.0000       290.91974       99510.311       7837.9757       1.0067500       2.1202500     -0.19325000       342.41100       2.3705633     0.029042817
       4232.0000       290.97013       99517.811       7860.7905      0.79800000      0.68275000      0.69600000       343.14000       2.5967488     0.046856990
       4237.0000       291.03276       99532.501       7901.1354       1.1937500       1.9587500     0.021000000       343.18800       2.3494941     0.029492962
       4242.0000       291.06923       99539.414       7923.8714       2.5697500       1.6312500     -0.11450000       342.76900       2.3189261     0.040266170
       4247.0000       291.09561       99544.939       7960.0334      0.83325000       1.1177500      0.37700000       343.17500       2.2908153     0.041113679
       4252.0000       291.11221       99541.103       7969.8819       2.3665000       2.3600000      0.21350000       342.81800       2.3087824     0.038752149
       4257.0000       291.11323       99523.963       7956.5402       2.7625000       2.4152500    -0.061500000       341.99700       2.3029872     0.036550847
       4262.0000       291.09965       99517.513       7936.1012       1.7212500       2.0345000     -0.20250000       342.10800       2.1744876     0.042927803
       4267.0000       291.06239       99502.160       7893.0518       1.0692500       2.0247500      0.38550000       342.97100       2.3091199     0.037821522
       4272.0000       291.04271       99501.710       7862.4727       1.2765000      0.78150000      0.43150000       343.31300       2.2076205     0.029377450
       4277.0000       291.01863       99520.966       7814.3580       2.3807500       2.0982500     0.028250000       342.06000       2.0918345     0.013059293
       4282.0000       290.98856       99528.607       7792.4174       2.2387500       1.8372500     -0.15525000       341.94000       2.2186710     0.022179249
       4288.0000       290.95840       99541.010       7789.7398       2.0220000       1.9637500     -0.15725000       341.83700       2.2605075     0.017703216
       4293.0000       290.93843       99543.544       7786.3851       1.5262500       1.7275000     -0.41550000       342.19100       2.2930256     0.030008913
       4298.0000       290.90048       99539.236       7796.5656      0.89750000       1.7685000     0.039000000       342.60400       2.0005781     0.015156305
       4303.0000       290.88658       99532.336       7798.9074       1.4155000       1.9017500     -0.19225000       342.35700       2.0983667     0.014613277
       4308.0000       290.87774       99517.985       7780.3629       1.5050000       2.5375000     -0.80000000       342.21100       2.0837063     0.014686178
       4313.0000       290.90997       99510.765       7806.9156       2.0437500       2.7355000     -0.46475000       342.14100       2.0285802     0.015409763
       4318.0000       290.98223       99496.867       7859.3611       2.0867500       2.0810000     -0.34425000       341.77700       2.0167480     0.026704592
       4323.0000       291.02252       99497.730       7902.3964       1.4702500       1.6090000     -0.42725000       342.60000       2.0843984     0.014976572
       4328.0000       291.08726       99511.822       7971.7097      0.86200000       1.2650000     0.066500000       342.37200       2.0833139     0.015048767
       4333.0000       291.13139       99519.524       8028.6737       1.5505000       1.9157500     -0.17200000       342.80200       2.3494772     0.023791557
       4338.0000       291.13175       99534.354       8065.3137       2.2467500       1.9940000     0.056500000       341.99700       2.2285901     0.017039891
       4343.0000       291.16805       99540.470       8122.7536       1.7955000       2.0172500     -0.39225000       341.87200       2.1644830     0.024481874
       4348.0000       291.28626       99543.629       8237.6863       2.2197500       1.8657500     -0.29550000       342.40400       2.3200960     0.019539375
       4353.0000       291.25490       99540.142       8249.9610       1.7522500       1.6420000     -0.44175000       341.85000       2.1366374     0.016305891
       4358.0000       291.13179       99528.966       8214.1672       1.5690000       1.1685000     -0.14700000       342.15700       2.1636070     0.014781278
       4363.0000       291.06635       99521.441       8182.2143       1.2832500       1.7285000    -0.042000000       342.27700       2.2288984     0.014173850
       4368.0000       290.89214       99503.082       8057.9515       1.5957500       1.2752500     -0.13450000       342.58600       2.1821970     0.017043160
       4373.0000       290.85413       99501.960       8029.5046       1.4945000       2.0277500      0.56000000       342.47600       2.1242818     0.015624983
       4379.0000       290.93759       99513.161       8044.9418      0.91375010      0.47375000      0.50500000       342.69800       2.2961526     0.026059641
       4384.0000       290.97666       99520.029       8081.0439       1.6205000      0.90250000     -0.18975000       342.80200       2.0674435     0.021416347
       4389.0000       291.04972       99535.966       8181.6739      0.63275000       1.2250000     0.051000000       343.01100       2.2691959     0.019974228
       4394.0000       291.08107       99541.435       8201.3861      0.98450010       1.2045000      0.13500000       343.12700       2.3342670     0.017798300
       4399.0000       291.09429       99543.341       8210.5470       1.4692500       1.5880000      0.21150000       342.38100       2.2405838     0.019891283
       4404.0000       291.12422       99538.910       8205.6940       1.6925000       1.4490000      0.38700000       342.83200       2.3804560     0.017937948
       4409.0000       291.14546       99527.580       8140.9952       1.0450000       1.5462500     0.077750000       342.91100       2.3197778     0.018907835
       4414.0000       291.16576       99519.543       8127.7094       1.9670000       1.7487500      0.21150000       342.47900       2.3748151     0.022031575
       4419.0000       291.20235       99504.932       8140.8787       1.4162500       1.0902500      0.41175000       342.64800       2.2518752     0.018606454
       4424.0000       291.21353       99499.513       8135.8942       2.4387500       1.3812500     -0.38425000       342.14700       2.2651537     0.018295260
       4429.0000       291.20001       99497.195       8137.8210       2.6607500       1.9895000    0.0020000000       341.88300       2.3766947     0.019339655
       4434.0000       291.20001       99501.640       8117.4109      0.80750010       2.0952500     -0.19450000       342.64900       2.1509934     0.023790926
       4439.0000       291.20018       99513.250       8076.2138      0.70800000       1.8450000    -0.085500000       343.25700       2.2186950     0.014958806
       4444.0000       291.20011       99521.055       8060.3631       1.3472500       1.0790000    -0.031500000       342.62200       2.1960505     0.017141247
       4449.0000       291.19112       99535.770       8028.3136       1.1987500       1.8725000     -0.12700000       342.86200       2.0284602     0.033822760
       4454.0000       291.20972       99541.133       8043.7203       1.8070000       1.8050000    -0.081500000       342.84700       2.2809344     0.018589682
       4459.0000       291.24518       99543.493       8100.1902       1.4762500       1.9135000      0.96475010       342.63500       2.1838566     0.014436025
       4465.0000       291.26935       99537.396       8141.3842     -0.13925000      0.86575000      0.47425000       343.58500       2.3310892     0.019531000
       4470.0000       291.29996       99527.252       8202.0500      0.44150000       2.0325000      0.10725000       342.35300       2.0457639     0.038897647
       4475.0000       291.38953       99501.271       8213.8044      0.61775000       1.9147500     -0.22425000       341.77000       2.2315011     0.016152555
       4480.0000       291.37555       99491.350       8182.6137      0.49800000       2.1560000     -0.12075000       342.02900       2.3867534     0.019247528
       4485.0000       291.27938       99490.803       8066.6131      0.27275000       1.1520000     0.019000000       342.22200       2.1338453     0.015199286
       4490.0000       291.21210       99492.193       7990.7860      0.61650000       1.2305000    -0.094500010       342.03700       2.2046515     0.020125701
       4495.0000       291.12019       99499.721       7918.1273      0.37025000       1.5355000     -0.19550000       341.82000       2.2664683     0.013139263
       4500.0000       290.92565       99521.478       7825.5149      0.35100000      0.59925000      0.31550000       342.91200       2.2856896     0.017590891
       4505.0000       290.87110       99530.267       7767.6926      0.76925000      0.23000000     0.045500000       343.72000       2.2608775     0.018620989
       4510.0000       290.88215       99537.138       7732.4766      0.32975000      0.27800000      0.46575000       343.47000       2.2860597     0.017716620
       4515.0000       290.94659       99538.560       7744.0011      0.55850010      0.85175000     0.010750000       342.64500       2.1331651     0.032108564
       4520.0000       290.99574       99536.918       7754.3832      0.42100000      0.48500000     -0.18900000       341.86500       2.1252067     0.031041786
       4525.0000       291.08639       99527.221       7815.0911      0.69825010      0.53075000     -0.30350000       341.88600       2.0898844     0.021620664
       4530.0000       291.15684       99520.252       7863.1871      0.57725000      0.78450010      0.41875000       342.64300       2.3958196     0.019822252
       4535.0000       291.21507       99508.806       7905.7632      0.86100010       1.1112500      0.25425000       342.81600       2.2737671     0.017842928
       4540.0000       291.25613       99503.464       7935.2107       1.2017500      0.91100010     -0.19025000       343.08600       2.3029144     0.026862808
       4545.0000       291.28491       99501.816       7958.2589       2.2147500      0.89925000     -0.14775000       342.10900       2.3583171     0.024314910
       4550.0000       291.30626       99503.146       7973.0719       2.1617500       2.0190000     -0.27550000       341.83100       2.2218302     0.026900344
       4556.0000       291.30024       99514.579       8041.4756       2.0707500       2.2587500     -0.36125000       341.96100       2.3025159     0.027293370
       4561.0000       291.30032       99521.572       8070.2621       1.5850000       1.9760000    -0.087000000       341.82200       2.1429501     0.032812954
       4566.0000       291.28577       99533.235       8125.8923       1.6422500       1.4687500     -0.18200000       342.44000       2.5171358     0.021485588
       4571.0000       291.29673       99537.959       8140.8590      0.83625010       1.1012500      0.16500000       342.53500       2.4537055     0.016847394
       4576.0000       291.34814       99538.672       8085.5278       1.3615000      0.70800000    -0.089750010       342.73600       2.1351726     0.029860467
       4581.0000       291.35667       99536.254       8059.1444      0.96950010      0.85175000      0.28375000       342.89900       2.2154955     0.017476428
       4586.0000       291.35687       99525.958       8015.5752      0.75750010       1.3602500      0.14475000       342.77100       2.4475654     0.020877055
       4591.0000       291.35525       99518.877       8003.0995       1.0540000       1.2305000     -0.16525000       342.02900       2.4977529     0.020259365
       4596.0000       291.29624       99508.974       7993.3200      0.93525000      0.94100000     -0.16750000       341.87200       2.6161061     0.016675806
       4601.0000       291.28886       99503.276       8026.2798      0.93675010      0.63300000    -0.013000000       342.46100       2.5480830     0.020167574
       4606.0000       291.33479       99497.103       8123.2487       1.1720000      0.56375000     -0.17475000       341.91800       2.6016385     0.019812134
       4611.0000       291.35494       99498.589       8189.6594      0.68675010       1.1577500     -0.40175000       342.05300       2.5880865     0.024780291
       4616.0000       291.39031       99510.604       8324.2566      0.96250000      0.77625010     0.068250000       342.35800       2.4730828     0.024988809
       4621.0000       291.40870       99516.589       8357.9355       1.0150000      0.30650000    -0.071750000       342.86300       2.5878000     0.019204658
       4626.0000       291.42813       99527.273       8321.9875      0.80150000      0.96800010    -0.099250000       342.11100       2.5869914     0.024926117
       4631.0000       291.40567       99532.808       8268.9305      0.75675000      0.82050000     -0.10600000       342.36600       2.5199108     0.020387410
       4636.0000       291.30458       99533.261       8084.7727      0.63950000       1.1662500     -0.14150000       342.51300       2.7364179     0.028611056
       4641.0000       291.28722       99531.019       8010.8392       1.0465000       1.2082500     0.086500000       342.18800       2.2438968     0.015618876
       4647.0000       291.31212       99523.955       7992.8547       1.4970000       1.0582500     0.029250000       342.93400       2.4649180     0.018349690
       4652.0000       291.29164       99518.594       7959.0193       1.9737500      0.68675010     -0.28325000       342.45800       2.5046547     0.023511241
       4657.0000       291.31320       99507.391       7979.5144       1.3585000      0.46675000    -0.096750010       341.89500       2.6746264     0.020734200
       4662.0000       291.30596       99502.082       7969.1135       1.2645000      0.74075000     -0.34150000       341.92000       2.6928117     0.019074609
       4667.0000       291.23524       99499.440       7923.5579       1.1832500       1.0210000    -0.080500010       341.93200       2.5686740     0.020260127
       4672.0000       291.17547       99499.202       7880.2710       1.0812500      0.94000010     0.044750000       341.96800       2.5981106     0.018266893
       4677.0000       291.13859       99505.181       7846.1824       1.0687500      0.65025000    -0.085750010       341.98800       2.6404752     0.023009532
       4682.0000       291.08427       99505.735       7801.5025       1.0762500      0.88175000     0.022500000       342.37300       2.3233895     0.016743093
       4687.0000       290.95990       99502.194       7706.3168      0.83450000      0.50800000      0.14900000       342.73500       2.6059546     0.020221373
       4692.0000       290.92118       99506.069       7677.7713      0.42425000      0.93000010      0.13075000       342.71900       2.4611284     0.033120038
       4697.0000       290.93039       99512.446       7686.4887      0.80575000      0.78475000     0.090750000       342.27200       2.4784295     0.017336301
       4702.0000       290.94772       99516.887       7696.1567      0.93550000      0.92700000     -0.19800000       342.12300       2.6258362     0.025083226
       4707.0000       291.02072       99531.479       7745.4475       1.0147500      0.71625010     -0.27925000       342.21900       2.4336389     0.016067258
       4712.0000       291.07037       99533.570       7782.1953       1.0777500     -0.31275000      0.29525000       343.54300       2.3275238     0.017616051
       4717.0000       291.13277       99523.914       7821.9318       1.1772500     -0.23475000     0.016000000       341.90800       2.5448780     0.029376278
       4722.0000       291.16876       99518.573       7851.4498       1.0715000      0.50050000     -0.15475000       342.23700       2.6119681     0.020978486
       4727.0000       291.16792       99510.310       7866.5640      0.99275000      0.57975000      0.31300000       342.60200       2.3814412     0.017797974
       4732.0000       291.21171       99502.325       7908.9488       1.7967500      0.79175000    -0.015000000       341.94600       2.4880737     0.017429271
       4738.0000       291.29467       99488.964       7965.9302      0.50475000       1.1877500      0.57525000       343.72100       2.5765119     0.017739612
       4743.0000       291.31853       99488.591       8018.1514       1.2400000       1.4102500     -0.14125000       342.30200       2.6642909     0.022099320
       4748.0000       291.34539       99493.265       8101.3564       1.2127500       1.3895000     -0.20450000       342.24800       2.6973481     0.030291503
       4753.0000       291.36934       99496.514       8162.6701      0.75950000       1.0222500    -0.045750000       342.86100       2.7172987     0.028046826
       4758.0000       291.35401       99507.802       8233.3047       1.7430000       1.5922500     0.067500000       342.11800       2.6946489     0.022697286
       4763.0000       291.34423       99515.125       8246.9420       1.5370000       1.2007500      0.18400000       342.37300       2.6298741     0.021295684
       4768.0000       291.36961       99518.469       8250.8546      0.86550000       1.7595000     0.053500000       342.99400       2.6341896     0.023220275
       4773.0000       291.34645       99522.479       8205.2650       1.6267500       1.8490000     0.031000000       342.57100       2.6123730     0.030074237
