MIRICO/SHELL project - Processed LDS file generated on
Sun Jul 09 18:12:38 2017
Time stamp for record start
05/10/2017  15:03:55.0001
Nb of points in the record
         945
Beam position index
       7.0000000
Beam angle (degrees)
       19.305000
Open Path length (m)
       33.730000
****************** Temporal data record ************************
Elapsedtime_sec Temp_K Press_Pa Humidity_ppmv WindX_m/s WindY_m/s WindZ_m/s Speedofsound_m/s CH4vmr_ppmv CH4vmrerror_ppmv  
      0.00000000       290.56830       99620.423       8012.8806    -0.029750000       4.3390000     -0.70950000       342.11500       1.8808868     0.019186123
       6.0000077       290.58608       99620.341       8058.3745     -0.16975000       3.9365000      0.46025000       342.42000       1.7979184     0.033053504
       10.999981       290.59757       99620.379       8073.6127     -0.51700000       2.0552500      0.34725000       342.94100       1.9210551     0.014829507
       15.999994       290.62036       99623.093       8100.5923    -0.082250010       1.6300000     0.097250010       343.10600       1.8698307     0.027057270
       21.000007       290.65163       99620.868       8113.1915     0.055500000       1.8467500      0.97375010       342.64200       1.8535810     0.025592620
       25.999980       290.76742       99615.029       8109.3027      0.16600000       3.6550000     0.013250000       341.90900       1.8667432     0.029408045
       30.999993       290.77188       99610.031       8097.6654      0.72250000       2.4547500      0.62350000       342.24200       1.8618067     0.017511289
       36.000006       290.67368       99601.683       8061.4664      0.44975000       3.0430000      0.74350010       342.87000       1.8022732     0.032338608
       40.999979       290.64367       99593.780       8051.4861     0.078000000       3.2632500      0.37800000       342.43600       1.8765288     0.023659937
       45.999992       290.53325       99581.737       8036.8924       1.1392500       2.2355000      0.13175000       342.24700       1.9485205     0.024763835
       51.000005       290.51991       99578.158       8040.8985     0.032750000       1.5947500      0.42600000       343.31600       1.9321398     0.022802426
       55.999978       290.65763       99574.888       8080.9326     -0.25000000       2.4942500      0.72875010       342.80400       1.8888370     0.024864529
       60.999991       290.71691       99578.504       8109.9260       1.0037500       2.0842500      0.47900000       343.58100       1.8672054     0.024471658
       66.000004       290.76653       99597.307       8142.0576      0.65825000       2.8302500    -0.059750000       341.50800       1.8343780     0.034836518
       70.999977       290.81575       99608.309       8171.3207      0.37050000       2.1672500      0.42625000       342.24000       1.8621190     0.027982988
       75.999990       290.82003       99622.234       8195.3680      0.45075000       1.8047500     0.061000000       342.17300       1.9242971     0.037491680
       81.000003       290.85108       99628.673       8224.8567      0.18300000       1.0360000      0.22100000       342.75200       1.9395391     0.026059108
       85.999976       290.88019       99626.181       8245.2862     -0.50850000       2.8762500     0.026000000       342.04400       1.8571695     0.029792330
       90.999989       290.95325       99626.081       8285.4555    -0.057500000       3.0377500     -0.14500000       341.34800       1.8643407     0.025818899
       96.999997       291.12132       99623.351       8371.8997     -0.18350000       1.8195000      0.18500000       342.41200       1.9008417     0.017647243
       102.00001       291.18384       99618.968       8407.7034      0.14950000       2.1372500      0.22350000       341.81000       2.0399930     0.023576789
       106.99998       291.23428       99613.862       8440.9741      0.40600000       1.2402500     -0.11750000       341.96600       1.8493607     0.027967966
       112.00000       291.27705       99608.513       8456.4370      0.69625000       2.0792500    -0.088000010       341.55600       1.9313207     0.024539570
       117.00001       291.25611       99597.673       8440.7224    -0.050500000       1.6557500     -0.13050000       343.10000       1.9145668     0.017323249
       121.99998       291.24631       99592.596       8417.9483      0.46750000       2.3742500     -0.69250010       342.23300       1.7858997     0.032588124
       127.00000       291.30898       99586.745       8391.2355      0.46125000       2.1062500     -0.48575000       342.32900       1.9183021     0.022328706
       132.00001       291.25110       99589.152       8348.8746       1.1472500       2.8045000     -0.43950000       341.52300       1.8471559     0.022261551
       136.99998       291.08364       99600.074       8285.3429      0.60625000       1.8125000    -0.041750000       342.36400       1.9048150     0.020270341
       141.99999       290.95953       99607.463       8214.7612     -0.50425000       1.3200000      0.59575000       342.75800       1.8612091     0.025477016
       147.00001       290.74631       99622.642       8114.8977      0.26550000       1.9347500      0.20650000       343.35000       1.8497798     0.029868780
       151.99998       290.64060       99629.663       8051.3225     -0.32450000       2.2122500      0.00000000       343.10000       1.8940044     0.034139673
       156.99999       290.60982       99629.721       7983.7230     -0.68175010       1.3410000     -0.43800000       341.38800       1.8562540     0.027072139
       162.00001       290.57677       99631.369       7942.4786      -1.2092500       2.4597500      0.26275000       342.76100       1.9053912     0.035135940
       166.99998       290.61325       99631.564       7950.6537      -1.9470000       2.9235000      0.30975000       342.13900       1.9239077     0.022334306
       171.99999       290.59965       99630.183       7930.5254     -0.97225000       4.1045000    -0.020750000       341.56000       1.8440379     0.029933517
       177.00001       290.56314       99630.788       7904.3667    -0.048500000       2.4295000      0.69025000       342.44900       1.9659843     0.036410352
       181.99998       290.54325       99624.674       7884.6983    -0.032500000       1.1402500    -0.012250000       342.80500       1.8478005     0.033345554
       187.99999       290.52297       99610.026       7858.9181      -1.3002500       1.8745000     0.081250000       342.16800       1.8341898     0.027445470
       193.00000       290.47636       99599.417       7832.9333      -1.8762500       2.6492500       1.0172500       342.18800       1.8972893     0.024565842
       198.00001       290.38068       99578.568       7778.3086      -1.4540000       2.8035000       1.0517500       342.08600       1.7745293     0.041058848
       202.99999       290.38894       99575.288       7800.1421     -0.22875000       1.6862500      0.39200000       342.54100       1.8868709     0.029409990
       208.00000       290.42746       99580.865       7864.0906      -1.0807500       3.3902500     -0.19350000       341.59200       1.8302931     0.032905810
       213.00001       290.45983       99587.359       7905.8193      -1.2310000       2.7215000     -0.20275000       341.30500       1.8371334     0.029244262
       217.99998       290.57502       99607.397       7968.2313     -0.86575000       2.8155000    -0.034250000       341.33400       1.8734089     0.040940584
       223.00000       290.64829       99617.144       8075.0474      -1.0340000       3.2695000     -0.29750000       341.58900       1.8774471     0.029049057
       228.00001       290.68264       99624.338       8200.7500      -1.1400000       2.5240000     -0.22950000       341.59500       1.9391458     0.030920947
       232.99998       290.72299       99629.119       8296.9998      0.70775000       2.3475000    -0.042250000       341.77400       1.8874208     0.032210661
       238.00000       290.79771       99631.336       8475.1825      -1.0287500       2.7710000     -0.23725000       342.12300       1.7987585     0.031903125
       243.00001       290.82570       99631.162       8541.2214     0.051750000       2.3005000     -0.25825000       341.60300       1.8523843     0.032213878
       247.99998       290.80035       99629.220       8493.4573   -0.0092500000       2.2477500     -0.25650000       341.86400       1.8613883     0.031645090
       253.00000       290.80046       99622.363       8495.7332     -0.21475000       1.6577500      0.40425000       342.42400       1.8793485     0.026851280
       258.00001       290.78943       99610.029       8487.0202       1.1200000       3.3622500     -0.53025000       341.29500       2.0643458     0.028390286
       262.99998       290.80595       99599.515       8480.7431       1.2902500       3.1842500    -0.017250000       341.35600       1.9096509     0.025645615
       267.99999       290.84109       99579.934       8483.6430      0.46875000       2.8652500      0.14450000       341.89800       1.8912754     0.033337043
       273.00001       290.86127       99575.168       8464.6034       1.3127500       2.1015000     -0.13700000       341.67200       1.9065308     0.027015731
       278.99998       290.89422       99578.435       8406.4279      0.26650000       2.1057500     -0.41350000       341.35900       1.9146868     0.028948788
       283.99999       290.92448       99582.189       8411.9511      0.43925000       1.3497500     -0.23925000       341.37800       1.9400835     0.014997984
       289.00000       290.94667       99592.927       8435.8582       1.1435000       1.6047500      0.53575000       341.54100       1.9515212     0.021975243
       293.99997       290.96660       99602.797       8449.0446      0.67400000       1.4630000    0.0042500000       342.73700       1.8471278     0.030010330
       298.99999       291.02090       99615.427       8521.4780     0.025750000       1.7165000     -0.16925000       341.34100       1.8563901     0.025282240
       304.00000       290.99462       99620.642       8492.4577     -0.31050000       1.2857500     0.067750010       342.34000       1.8688979     0.029765513
       309.00001       290.89945       99628.564       8383.6791      -1.4735000       2.0477500     -0.37600000       341.64100       1.8098191     0.031793884
       313.99999       290.87828       99626.343       8349.7132     -0.41800000       1.5385000      0.17000000       342.83200       1.9017354     0.025967851
       319.00000       290.84888       99614.061       8307.4536     -0.88400010       1.8185000     -0.14350000       341.46800       1.8991313     0.029395947
       324.00001       290.82787       99603.306       8270.1302     -0.64250000       1.7017500     -0.21750000       341.51500       1.8189460     0.033941791
       328.99999       290.86487       99584.283       8275.6041     -0.52150010       1.8037500   -0.0097500000       341.62100       1.9257189     0.021263330
       334.00000       290.83729       99579.806       8244.9077     -0.10875000       1.7627500     -0.40075000       341.35600       1.9194663     0.015374410
       339.00001       290.74118       99577.705       8167.8936    -0.040000000       1.9082500     -0.46775000       341.77600       1.9538574     0.016590905
       343.99998       290.72833       99580.153       8144.0190     -0.34100000       1.1617500     -0.70250000       341.39900       1.9181545     0.016206285
       349.00000       290.72532       99593.788       8132.9127     -0.71225010       1.8715000     -0.18100000       341.49500       1.8558197     0.032222176
       354.00001       290.77122       99601.776       8159.3337     -0.45275000       2.5187500     -0.13050000       341.52000       1.9175416     0.017749931
       358.99998       290.88456       99609.560       8218.6224     -0.35450000      0.69050000      0.48825000       343.28300       1.8685160     0.022902513
       364.99999       290.96937       99615.557       8288.0343     0.054000000       2.0510000     -0.14700000       341.70100       1.9208790     0.022252013
       370.00000       291.06775       99622.563       8401.5718     -0.33875000       2.4310000     -0.16050000       341.67800       1.8550965     0.015612325
       374.99998       291.05460       99618.455       8344.4175     -0.53675000       2.0597500      0.32275000       342.13000       1.9641073     0.015075305
       379.99999       291.05584       99611.762       8320.9609      0.16900000       1.5900000     0.077500000       342.36300       1.9072115     0.028340714
       385.00000       291.02965       99594.237       8236.3168      0.19575000       1.9602500     -0.10400000       341.72800       1.8821981     0.027991490
       389.99998       290.99988       99584.165       8184.1213     0.052000000       1.3667500     -0.27175000       342.34400       1.8540196     0.034750594
       394.99999       290.97034       99567.469       8161.5285     -0.74975000       1.6000000    -0.049250000       342.40500       1.9361536     0.017129337
       400.00000       290.95069       99565.517       8171.8070    -0.025500000      0.89275000      0.25850000       342.40000       1.9038060     0.025273569
       404.99998       290.93109       99573.413       8204.2693      0.23650000       1.5970000     -0.47675000       342.30300       1.8821382     0.024473655
       409.99999       290.89402       99594.897       8262.0469      0.79150000       1.5200000    -0.056750000       342.27600       1.8122733     0.028552904
       415.00000       290.88545       99605.038       8274.0041       1.1065000       1.6017500     -0.18800000       342.27600       1.9609390     0.025025298
       419.99997       290.89376       99623.189       8314.1905      0.82925000      0.73025010      0.16925000       343.26100       1.8739476     0.028335744
       424.99999       290.93057       99624.634       8251.6003      0.89775000       1.3510000      0.13050000       342.88500       1.8294998     0.029439979
       430.00000       290.95096       99622.039       8199.9194      0.31450000       2.1972500     -0.29600000       342.18500       1.8012452     0.038025102
       434.99997       291.01522       99614.305       8154.2993      0.65175000       2.7202500     -0.19625000       342.53800       1.9525332     0.024840431
       439.99999       291.01875       99606.620       8095.6753      0.40075000       1.8647500     -0.16600000       342.48000       1.8634495     0.024564182
       445.00000       290.98530       99596.475       8028.6293      0.92700000       2.2315000     -0.32050000       342.77700       1.9057178     0.015672111
       450.00001       290.90132       99577.265       7935.6342       1.3645000       1.7962500      0.26125000       342.70800       1.8136347     0.020599692
       455.99998       290.83387       99574.925       7906.1689      0.76575010       1.7425000      0.59775000       342.96200       1.7951553     0.023161035
       460.99999       290.78453       99578.613       7906.5745      0.95550010      0.75700000      0.29325000       342.29500       1.8701794     0.022203683
       466.00001       290.76537       99598.808       7986.0192      0.27700000       1.2805000     0.040500000       343.35900       1.9015430     0.029187913
       470.99998       290.74515       99608.668       8027.9834      0.51550000      0.81550000     -0.41025000       341.61400       1.9736983     0.015034732
       475.99999       290.72357       99620.321       8081.5079      0.45700000      0.83125000      0.17275000       341.96800       1.8981701     0.011750034
       481.00001       290.69364       99623.584       8093.5110      0.46100000       1.4892500     -0.17125000       341.74500       1.8549040     0.026529994
       485.99998       290.66610       99613.610       8062.2454      0.67850010       1.7120000     -0.59500000       342.39900       1.7876119     0.024855633
       490.99999       290.64631       99609.715       8045.6289      0.21200000       1.2312500     -0.23975000       342.64400       1.7745813     0.025333025
       496.00001       290.60968       99602.382       7997.2433      0.34000000       1.1820000     -0.20750000       342.00900       1.9045846     0.027061847
       500.99998       290.59094       99598.703       7970.2375      0.34750000      0.93475000     -0.10525000       342.07500       1.7770015     0.024214161
       505.99999       290.58541       99597.374       7957.9521      0.30375000      0.75200000     -0.26875000       341.95900       1.8871479     0.014298965
       511.00000       290.59654       99599.603       7955.4817      0.15625000      0.14425000     0.068250000       342.38400       1.7499746     0.024478146
       515.99998       290.60626       99609.965       7936.7031       1.3325000      0.32375000    0.0090000010       343.16500       1.7792247     0.021577054
       520.99999       290.64847       99611.818       7967.5507      0.52100000      0.47525000      0.49375000       342.93400       1.8039324     0.019541152
       526.00000       290.75887       99612.913       8068.4708       1.1872500       1.4607500     -0.17725000       342.90600       1.8000854     0.014717351
       530.99998       290.81714       99611.502       8125.3920  -0.00050000000       2.3682500     -0.40475000       342.63300       1.8364530     0.031126962
       535.99999       290.83717       99603.420       8183.0112      0.16675000       2.2970000     0.054000000       342.78500       1.8018452     0.035402193
       541.00000       290.90882       99594.317       8253.1454      0.30375000       2.4347500     -0.91875000       342.49400       1.9083455     0.037586842
       547.00001       291.02684       99575.611       8350.0883     -0.21175000       2.3840000      0.24250000       343.32500       1.8706030     0.029750399
       551.99998       291.07323       99572.180       8366.3937       1.1792500       3.1555000     -0.79100000       342.10000       1.7849109     0.023663431
       557.00000       291.16020       99569.501       8381.6474       1.0697500       1.2355000      0.39650000       343.17000       1.7833506     0.028530837
       562.00001       291.17560       99574.715       8355.0354      0.66875000       1.7365000    -0.085500000       343.09500       1.8519381     0.038184443
       566.99998       291.10514       99602.819       8236.3882       2.0140000       1.7735000      0.50825000       342.75600       1.8715772     0.038109485
       572.00000       291.02809       99610.794       8144.0323       1.2317500       2.1837500      0.25275000       343.53700       1.9732042     0.031264681
       577.00001       290.87787       99615.158       8029.5972       2.3532500       1.7465000     -0.35100000       342.88200       1.8754622     0.036711289
       581.99998       290.81553       99611.984       7959.9806       1.7877500       3.2285000     -0.38600000       342.30600       1.9464707     0.039558506
       586.99999       290.75244       99590.092       7894.2893       1.0505000       1.0122500      0.70500000       343.31400       2.0998438     0.038731914
       592.00001       290.72406       99580.802       7846.6700      0.76775000       2.5197500      0.24700000       342.56700       2.1550727     0.029214050
       596.99998       290.80762       99568.200       7852.3858      0.15425000       3.9647500      0.19350000       342.26600       4.2093703     0.036663665
       601.99999       290.81030       99567.495       7831.2186       1.1982500       3.0702500     -0.19650000       342.56300       3.4327962     0.017993907
       607.00001       290.76174       99579.338       7797.9147      0.81600000       2.5590000      0.10450000       342.51000       2.9207909     0.026686757
       611.99998       290.74169       99588.104       7768.7877       1.5017500       2.6230000    -0.077000010       342.38600       3.0594952     0.016166064
       616.99999       290.69209       99610.214       7718.7874     -0.62600000       1.3812500    -0.070750010       343.81100       5.7163890     0.033946700
       622.00001       290.68961       99614.903       7713.4141      -1.9522500       1.5887500     -0.61600010       342.64300       4.3831196     0.028904141
       626.99998       290.71067       99612.152       7712.5961     0.029750000       1.9192500     -0.30675000       341.63000       7.7684811     0.040213551
       631.99999       290.75877       99605.158       7750.6994      -1.8315000      0.46450000      0.46700000       343.52800       5.5596832     0.031394645
       638.00000       290.88292       99574.765       7868.1257      -1.9300000       1.6407500     -0.19225000       342.47700       2.7278846     0.016783859
       643.00001       290.93688       99569.584       7941.3418      -1.4207500       2.8172500      0.37350000       342.95400       2.9697088     0.023686175
       647.99999       290.95497       99569.844       8013.3397       1.2560000       1.8795000    -0.017500000       342.66300       3.0252786     0.032631743
       653.00000       291.04757       99576.561       8106.9927      0.41975000       3.2082500      0.27300000       342.18700       2.3287944     0.034909881
       658.00001       291.18021       99605.048       8233.9523     -0.23925000       2.8402500    -0.028000000       342.87700       2.1572305     0.026173732
       662.99998       291.24346       99611.838       8292.8694     -0.17000000       2.1065000     -0.46925000       341.49700       3.5272829     0.037571731
       668.00000       291.38915       99615.920       8366.2088     -0.57600000       1.2392500      0.42725000       343.17400       2.0103001     0.030672504
       673.00001       291.37656       99609.593       8368.0758     -0.37175000       1.8745000      0.10600000       342.50900       3.1672214     0.018218961
       677.99998       291.17746       99582.673       8274.3041     -0.18625000       2.9610000    -0.015000000       341.68300       4.9226271     0.018307403
       683.00000       291.10351       99573.475       8213.5802      -1.4050000       3.0867500      0.27225000       341.73300       2.6126090     0.025096073
       688.00001       291.03653       99559.539       8133.6735     -0.49350000       2.1565000      0.43025000       341.85900       2.7864089     0.030005511
       692.99998       290.94573       99564.205       8063.6308    -0.020000000       2.4512500      0.66025000       343.05500       7.7306735     0.032453195
       698.00000       290.86093       99594.060       7977.9733     -0.76850000       2.1987500    -0.028500000       343.31400       6.0819445     0.044600376
       703.00001       290.81675       99602.352       7925.6722     -0.72450010       1.6950000      0.28150000       341.89500       2.7573353     0.029367764
       707.99998       290.73255       99614.841       7896.9836     -0.28525000      0.86700000      0.21325000       342.18200       3.0232560     0.034430818
       713.00000       290.72734       99612.865       7854.6426     -0.83875010       1.0157500     -0.54925000       341.52900       3.1006126     0.017618386
       718.00001       290.82865       99589.079       7816.1437      -1.0922500      0.98175010     -0.18075000       342.21700       3.2186558     0.025541225
       722.99998       290.87880       99578.630       7793.9448    -0.052000000       1.2405000      0.51475000       343.06700       3.2431589     0.029543336
       728.99999       290.94839       99561.399       7756.0610      0.89150010       1.2645000     -0.26350000       342.31600       3.6011229     0.024458389
       734.00000       290.97966       99563.620       7764.0343     -0.67900000      0.74325000    -0.065750000       343.11000       3.6534012     0.037107403
       738.99997       291.00398       99576.696       7819.3158     -0.81175010       1.8780000    -0.013000000       341.99500       2.3238263     0.028111796
       743.99999       291.01565       99587.225       7842.5130     -0.55800000       2.5817500     -0.13025000       342.59200       4.4228254     0.020016315
       749.00000       291.00887       99613.479       7866.8807      -1.5795000       1.6407500     -0.78450010       341.99900       2.1860771     0.016808999
       754.00001       290.99007       99616.302       7893.9983      -1.7882500       1.5350000    -0.079750000       342.77400       3.7101076     0.016103333
       758.99999       290.97168       99608.950       7937.5665      -1.1550000       3.1230000      0.18575000       343.22500       4.1450806     0.016116447
       764.00000       290.91464       99601.596       7913.4917     -0.14125000       2.3522500      0.19825000       343.26800       6.7100353     0.024703230
       769.00001       290.80731       99578.495       7866.3859      -1.3695000       1.4087500      0.36350000       343.90700       3.2546339     0.015589770
       773.99999       290.75586       99574.899       7818.1676      0.24950000       1.5870000      0.30100000       343.79800       2.9308344     0.033995170
       779.00000       290.70372       99576.302       7708.4939      0.21125000       2.6060000     -0.18400000       341.55100       6.9098947     0.021998099
       784.00001       290.66212       99583.694       7657.4295      0.76175000       1.6157500     0.049000000       343.19300       4.2442540     0.016862486
       788.99999       290.66224       99607.576       7636.9431     -0.39500000       1.3670000     -0.15075000       343.63100       5.6567626     0.020065394
       794.00000       290.62371       99610.275       7618.3368     -0.64125000       1.5765000     -0.65175000       341.74600       4.3606893     0.032978382
       799.00001       290.56886       99610.083       7617.3634      -1.0025000       2.4722500     0.022000000       342.87100       2.5015671     0.016634558
       803.99998       290.50069       99601.892       7591.0012     -0.63250010       1.6972500     -0.31700000       341.57500       5.1280617     0.026142431
       809.00000       290.40658       99573.268       7564.0507     -0.65100000       1.1420000     0.084500010       343.11000       6.0086147     0.020460376
       814.00001       290.35517       99569.695       7545.9809     0.051250000       1.9700000    -0.021000000       342.77500       6.0052507     0.030686171
       819.99998       290.28842       99572.886       7504.0173      0.32100000       3.1945000    -0.057750000       342.24400       5.2111555     0.018954089
       824.99999       290.27022       99594.845       7497.2939    -0.088750000       1.9822500     -0.34225000       342.45800       4.1163374     0.021428653
       830.00000       290.28744       99599.862       7520.3548      -1.0975000      0.51800000     0.050500000       343.52200       1.8368177     0.017984157
       834.99998       290.34580       99586.777       7584.1640      -1.3140000       1.9322500     -0.66275000       342.62800       2.8016874     0.022230327
       839.99999       290.39442       99580.957       7628.2952     -0.66575000       1.9630000      0.75050000       343.61700       4.8084918     0.041572071
       845.00000       290.50006       99560.405       7687.0687      -1.3667500       1.0417500     -0.13350000       341.80700       2.7848856     0.037170924
       849.99998       290.56217       99555.455       7747.3349      -1.9312500      0.73775010      0.61500000       341.77800       4.2499873     0.041171082
       854.99999       290.59970       99560.337       7802.4719      -1.5272500       1.4077500     -0.46825000       342.35700       2.0476806     0.016575833
       860.00000       290.60676       99579.967       7842.7862      -1.8072500       1.2977500     -0.20375000       342.03200       2.1268015     0.013517559
       864.99998       290.61563       99588.103       7871.0687     -0.53425000       1.8210000     0.095750000       342.40900       2.4685660     0.038149186
       869.99999       290.60002       99604.520       7904.3333     -0.56250000       1.8935000      0.50400000       343.04800       3.1894264     0.019522923
       875.00000       290.57068       99592.624       7889.8907     -0.30125000       1.9107500      0.16350000       343.17100       2.9071548     0.015494645
       879.99997       290.58793       99585.692       7902.9631     -0.62925000       3.1585000    -0.054000000       342.53000       3.4684788     0.022409916
       884.99999       290.66032       99565.771       7956.4946     -0.76425000       3.8692500     -0.25450000       341.92300       4.1790543     0.019532545
       890.00000       290.69988       99560.992       7985.5553     -0.91675000       2.2767500     -0.12725000       342.49000       4.7516218     0.037428043
       895.00001       290.73938       99564.837       8008.9312       1.3530000       3.0317500     -0.20225000       341.53600       3.0471665     0.021653810
       899.99999       290.80712       99579.354       8028.0301      0.13600000       2.6892500      0.71650000       342.81200       2.2880414     0.019219588
       905.00000       290.84614       99586.603       8074.1406      0.32575000       3.3647500     -0.67725000       341.69300       6.4543504     0.035125758
       911.00001       290.85380       99604.664       8123.4447      -1.2277500       2.6690000     -0.31050000       342.50500       2.2550839     0.035530517
       915.99998       290.87678       99589.901       8234.1063     -0.89400010       2.7452500      0.28175000       342.57600       5.2366627     0.027415656
       920.99999       290.90707       99583.861       8263.4992      0.33675000       2.3217500     -0.46225000       342.10400       11.981197     0.040443897
       926.00001       290.92041       99568.979       8213.7469    0.0037500000       2.5255000     -0.54075000       342.14300       2.4682705     0.019361258
       930.99998       290.95171       99566.883       8193.4683    -0.025500000       1.3612500      0.28350000       342.39400       3.8889728     0.035494448
       935.99999       290.99574       99582.057       8084.3247       2.0677500       2.4825000     -0.47300000       342.88000       3.0480611     0.037612457
       941.00001       291.05647       99586.937       8084.4905      0.25700000       5.2275000     -0.19200000       341.59300       3.6172019     0.033284072
       945.99998       291.15705       99598.553       8178.0945      0.46625000       2.5150000     -0.21425000       342.14200       5.0495148     0.021776554
       950.99999       291.21599       99598.835       8251.6679      0.97125010       1.7747500     0.043250000       341.62200       2.6685197     0.019397690
       956.00000       291.29359       99575.457       8440.4378      0.62275000       2.5390000     -0.34575000       341.67000       3.2351613     0.019868288
       960.99998       291.32017       99572.043       8509.1294     -0.62850000       1.9240000     -0.43200000       341.76300       13.237064     0.064439033
       965.99999       291.26535       99577.083       8513.1376     -0.26050000       2.4612500     -0.32500000       341.62200       5.7750110     0.034977924
       971.00000       291.24516       99579.473       8480.7876     -0.35150000       1.7990000    -0.053500000       341.65300       2.0089618     0.023082977
       975.99998       291.25218       99602.185       8345.3117      -1.2460000       2.8272500     0.043500000       341.95000       6.1429711     0.032195923
       980.99999       291.20001       99605.170       8240.4647     -0.93075010       2.0640000     -0.91700010       341.92300       3.0679093     0.022244170
       986.00000       291.08590       99585.571       8086.7316     -0.60050000       1.9892500      0.33950000       342.51000       2.7928931     0.025169770
       990.99998       291.03749       99578.718       7996.1209      0.13400000       1.9060000     -0.43475000       342.28500       4.8177085     0.031930417
       996.99998       290.94085       99562.333       7929.9438      0.24900000       1.8377500    -0.016000000       343.06700       3.7567176     0.024508951
       1002.0000       290.92561       99561.963       7888.0550     -0.27325000       4.0180000    -0.075500000       342.62600       3.6956731     0.033240497
       1007.0000       291.04664       99582.576       7896.6850     -0.52125000       4.0807500     -0.19450000       342.27800       2.1964771     0.036941548
       1012.0000       291.06936       99588.850       7883.2718     -0.78450010       2.3275000     0.093000000       342.95300       2.4752893     0.030512447
       1017.0000       291.05688       99598.961       7860.9658      -1.9010000       3.0182500      0.31800000       342.80200       2.5500914     0.023820000
       1022.0000       291.05286       99597.642       7849.8096      -1.2712500       3.4760000     -0.14400000       341.55300       1.9501715     0.018998145
       1027.0000       290.99185       99574.229       7835.7231      -1.3647500       3.6315000    -0.085000000       341.46700       2.6543291     0.031558943
       1032.0000       290.98911       99572.080       7840.7331      -1.6795000       1.1175000     0.073750000       342.84100       3.4292651     0.018652036
       1037.0000       291.00964       99576.694       7861.5149     -0.44475000       3.8022500     -0.38225000       341.65300       2.8945503     0.043430465
       1042.0000       291.05734       99579.900       7883.4931     -0.36875000       1.3907500      0.25100000       343.06800       2.9918147     0.038553641
       1047.0000       291.19621       99603.371       7940.6921      -1.2702500       2.9877500     -0.43125000       342.14500       2.4374090     0.030168304
       1052.0000       291.22536       99604.491       7953.1979      -1.6012500       1.7900000     -0.37400000       342.01900       5.8231984     0.036031608
       1057.0000       291.20011       99580.748       7921.3971      -1.9057500       1.6850000     -0.46100000       341.42700       4.1837765     0.020348681
       1062.0000       291.20653       99576.698       7933.6927      -1.3407500       2.0785000     -0.33275000       341.79000       2.7601231     0.031941356
       1067.0000       291.14822       99572.513       7935.2111      -1.3480000       1.4760000      0.21725000       341.91600       4.5256530     0.039227861
       1072.0000       291.13600       99573.436       7963.4423      -1.0357500       1.6185000      0.61625000       343.07300       1.9920680     0.035764264
       1077.0000       291.20839       99592.538       8077.5593      -2.6037500       1.2115000      0.52600000       342.02500       4.3429036     0.035122111
       1082.0000       291.21036       99599.350       8101.0154      -1.0550000      0.22500000     -0.55875000       341.64800       4.5494808     0.036519967
       1088.0000       291.13632       99601.196       8069.2549      -1.8880000       1.5612500     -0.93900010       341.84200       4.6714528     0.032058165
       1093.0000       291.14927       99600.905       8063.1953      -2.2980000       1.5750000     -0.62975000       342.23100       4.1035537     0.040653253
       1098.0000       291.18604       99594.830       8023.1123      -2.5270000       1.6995000     -0.13875000       341.98400       3.2293749     0.041633176
       1103.0000       291.21229       99594.420       7998.3815      -1.8570000       1.1825000     -0.12850000       342.49700       3.6078436     0.032311888
       1108.0000       291.31015       99595.684       7999.7928      -1.2985000      0.72850000     -0.18500000       341.70400       4.3214529     0.040478564
       1113.0000       291.32094       99594.647       7986.6945      -1.3385000      0.71175000      0.12825000       342.83600       5.4487127     0.037750952
       1118.0000       291.24685       99599.498       7922.2337      -1.1127500       1.2537500      0.78125010       343.40200       3.2251881     0.040842067
       1123.0000       291.24302       99594.134       7944.6297      -2.1827500       1.5575000     -0.36600000       341.92800       7.8525102     0.046280386
       1128.0000       291.25417       99576.946       8030.1491      -1.2742500       2.3122500     -0.58750000       342.12400       2.2767136     0.027266726
       1133.0000       291.24438       99571.205       8079.4406     -0.96300010       1.3082500     -0.13600000       342.41100       5.1002305     0.045792321
       1138.0000       291.28955       99562.572       8193.4130      -1.3117500       1.3657500     -0.10450000       342.22200       2.8852786     0.033919069
       1143.0000       291.23436       99563.657       8205.3192      -2.4027500       1.8235000     -0.66575000       342.09300       5.0122913     0.039499516
       1148.0000       291.07250       99580.937       8134.9226      -2.3907500       1.6880000     -0.68450000       341.64000       7.0013313     0.045242255
       1153.0000       290.99833       99583.114       8101.4778      -1.0015000       1.7842500     -0.28250000       342.70700       2.3644599     0.035763217
       1158.0000       290.91360       99581.822       8033.8728      -1.8585000       1.5815000     -0.92350010       342.25700       5.2129173     0.024806926
       1163.0000       290.85660       99580.573       7993.3927      -1.6045000       1.0632500      0.13025000       342.78300       3.2683902     0.033718011
       1168.0000       290.83598       99567.128       7965.8426     -0.83350000       1.4880000     -0.13400000       343.24300       6.1145296     0.047595347
       1173.0000       290.84899       99569.427       7955.6599      -1.4947500       1.8272500     -0.25600000       341.81000       4.1297087     0.041582469
       1179.0000       290.87213       99585.184       7949.4075      -1.1075000       1.6920000     0.036750000       341.77700       3.1169525     0.038090468
       1184.0000       290.93880       99589.411       7964.2525      -1.4412500       1.0920000      0.19225000       341.93400       2.5990913     0.027560773
       1189.0000       291.09204       99599.476       8011.3679      -1.6740000       2.0295000     -0.76800000       341.75300       2.1632774     0.036912691
       1194.0000       291.17358       99595.296       8043.9794      -1.9585000       2.0597500     -0.10850000       342.12600       2.9816368     0.034636939
       1199.0000       291.28786       99572.357       8093.4621      -1.3805000       1.5490000    -0.072250000       341.74100       3.3515577     0.035307453
       1204.0000       291.25516       99572.709       8095.9825      -1.3075000       1.0442500      0.18375000       341.60800       8.4664895     0.039903991
       1209.0000       291.11951       99578.677       8062.5732      -1.6282500       1.7485000     -0.94400010       341.53700       3.6313509     0.047657800
       1214.0000       291.05138       99581.330       8081.6415     -0.95300010      0.55150000     -0.21725000       341.50100       8.4122740     0.050777400
       1219.0000       290.87882       99599.749       8094.5804     -0.72850000      0.36925000     -0.17525000       341.63200       3.2718836     0.040842402
       1224.0000       290.85305       99596.435       8110.8615     -0.23800000      0.60725000     -0.16175000       341.80600       3.6683296     0.039911414
       1229.0000       290.94593       99573.573       8183.3342     -0.24050000      0.91325000     0.080750000       341.59400       6.0154989     0.025970834
       1234.0000       290.96589       99572.040       8184.3966     -0.29000000       1.0120000      0.18275000       342.52500       2.7437433     0.042368705
       1239.0000       290.98514       99573.346       8124.4494     -0.51150000      0.75925000      0.13150000       342.09400       2.7536357     0.036808711
       1244.0000       291.03365       99575.970       8111.6417     -0.43250000       1.4527500      0.20975000       342.41300       1.9299479     0.036400683
       1249.0000       291.10134       99593.905       8100.1656      0.49200000      0.70100000      0.39750000       343.16400       3.5649544     0.034692177
       1254.0000       291.12252       99591.686       8095.2975     -0.24225000      0.26050000      0.43275000       343.85800       5.1616770     0.049880353
       1259.0000       291.16141       99573.027       8105.5221     -0.39825000      0.82775000     -0.18075000       342.39200       10.923025     0.038178080
       1264.0000       291.16341       99574.556       8113.6547     -0.45475000       1.2060000    -0.024250000       342.88400       4.3287547     0.046213205
       1270.0000       291.10590       99579.166       8129.6210    -0.037000000      0.93775000     0.010500000       343.52200       7.8591863     0.038771908
       1275.0000       291.03905       99595.855       8109.1332     -0.32425000       1.4080000     -0.31450000       343.20900       8.9895281     0.037553484
       1280.0000       290.99865       99599.875       8095.1949      0.72225000       1.4812500      0.22600000       342.81200       2.0582066     0.032900982
       1285.0000       290.92928       99578.061       8044.8143      0.99825010       1.7227500     -0.24450000       342.22500       1.8466153     0.038576918
       1290.0000       290.88747       99572.613       8023.4651       1.3707500       1.1630000     0.052500000       342.92700       4.0896036     0.038247759
       1295.0000       290.88514       99573.813       8020.6079     -0.97100010       2.8112500      0.16400000       342.15800       4.5833589     0.035260715
       1300.0000       290.89382       99573.413       8034.2764      -1.0177500       1.4780000      0.55275010       342.92400       2.5458504     0.041977029
       1305.0000       290.91474       99576.694       8064.1284     0.032750000      0.77850000      0.72100000       343.34300       3.0796026     0.044286362
       1310.0000       290.94901       99594.284       8121.4783     -0.87700000       2.4847500    -0.083500010       342.69200       3.1182805     0.032626942
       1315.0000       290.96918       99590.442       8143.9835     -0.15725000       1.1547500      0.36025000       343.23100       8.2336614     0.045877081
       1320.0000       291.00034       99573.612       8170.8797     -0.25800000       1.9425000      0.71450000       343.26200       4.2253906     0.045064755
       1325.0000       291.01606       99572.573       8180.4967       1.8502500      0.50000000     0.031250000       342.68200       2.5111963     0.043123732
       1330.0000       291.04497       99573.042       8183.8174       1.6547500       2.1377500     0.067750010       342.16500       4.4253517     0.037320689
       1335.0000       291.13015       99594.930       8190.7532      0.69625000      0.94750010      0.28600000       343.04600       3.6190819     0.037207648
       1340.0000       291.16218       99599.805       8193.9514       1.2545000       1.9702500     -0.31900000       342.79400       3.4222189     0.030779647
       1345.0000       291.16958       99596.068       8190.2335      0.72700010       1.3772500    -0.076750000       342.76600       1.9903793     0.045075706
       1350.0000       291.16996       99579.369       8175.6238      0.21775000       1.0567500      0.46350000       343.88000       5.2006377     0.040784240
       1355.0000       291.11508       99578.649       8148.6230     -0.32675000      0.58325000      0.36225000       343.94500       4.3060037     0.039233582
       1361.0000       290.98537       99573.061       8113.1407      0.18250000       1.5905000     -0.21000000       342.37800       3.4696602     0.023451509
       1366.0000       290.87002       99591.637       8020.7960    -0.040750000       2.5335000     -0.33025000       342.40100       3.0423140     0.039409980
       1371.0000       290.82297       99593.955       7977.7009       1.2850000       3.1735000      0.31000000       342.32000       2.3262450     0.042816928
       1376.0000       290.85803       99574.421       7962.8030      0.67950000       2.3492500     -0.35925000       342.49600       1.8831121     0.039754227
       1381.0000       290.84808       99573.017       7936.1783     -0.22975000       3.4332500     -0.51625000       341.55200       1.8334152     0.047294332
       1386.0000       290.84167       99581.047       7936.5237     -0.21050000       2.0752500    -0.049500000       342.10500       2.2319076     0.042622225
       1391.0000       290.85136       99580.061       7924.3676      0.26075000       2.5060000     -0.30375000       342.56500       2.3499934     0.044735283
       1396.0000       290.84299       99587.808       7892.9922      0.34575000       1.9162500     -0.39700000       342.53100       2.0544608     0.043498990
       1401.0000       290.84436       99588.114       7866.2590     -0.18575000       1.6122500     0.081750010       342.66400       1.9344187     0.040558658
       1406.0000       290.88999       99564.347       7833.5424      0.18525000       1.7282500      0.12000000       343.70500       1.9149851     0.039898113
       1411.0000       290.90910       99561.222       7819.8175     -0.59000000       1.4630000     -0.18225000       341.68300       1.8400271     0.045762685
       1416.0000       290.91424       99579.307       7815.0755     0.028250000      0.79725000      0.29600000       342.36800       1.8940938     0.038212067
       1421.0000       290.90328       99582.157       7810.5266     0.050750000      0.90750000     -0.24225000       341.80300       1.8238339     0.045790546
       1426.0000       290.86614       99586.392       7792.4206      0.12000000      0.43100000      0.17275000       342.85800       1.8511007     0.040845604
       1431.0000       290.84638       99587.933       7826.1161    0.0062500000      0.49725000      0.29175000       342.95800       1.8962799     0.041081848
       1436.0000       290.80999       99568.906       7916.6836      0.34900000       1.0565000      0.18075000       342.12800       1.9487390     0.032267183
       1441.0000       290.79151       99566.788       7959.9251      0.81200000       1.4162500     0.071500000       341.92500       2.0154346     0.036545950
       1446.0000       290.82771       99586.088       8059.8834      0.85925010       1.1842500     -0.28575000       341.84900       1.8263505     0.040865999
       1452.0000       290.79707       99587.230       8073.8249      0.40525000       1.8617500      0.18875000       342.30700       3.6913335     0.043080395
       1457.0000       290.70941       99581.948       7958.8878       1.0357500       1.7747500      0.27725000       342.08200       2.7206663     0.036678949
       1462.0000       290.68274       99580.115       7919.5777      0.63650000       1.0252500      0.21550000       342.91100       1.8974113     0.025345234
       1467.0000       290.62209       99563.590       7868.4327       1.3010000       1.5837500     -0.37150000       342.63200       2.0424253     0.032234645
       1472.0000       290.63750       99561.983       7847.9728       1.5110000      0.91025010      0.24250000       342.28400       2.5517750     0.033352500
       1477.0000       290.75796       99581.225       7864.6608       1.8880000       1.3417500     -0.13800000       342.69700       3.8657331     0.044641373
       1482.0000       290.82752       99582.730       7893.6569      0.74175010      0.74950000      0.83500000       342.96800       7.8419075     0.049272740
       1487.0000       290.89972       99572.739       7909.4258     -0.42700000       1.0247500      0.10050000       343.56400       8.6815507     0.044452787
       1492.0000       290.97971       99575.505       7988.6738    -0.090250010       1.1482500      0.22600000       343.16900       3.2908471     0.033374717
       1497.0000       291.08296       99578.408       8178.6739      0.74475000       2.6737500     -0.76000010       342.27400       2.9471372     0.045024523
       1502.0000       291.12573       99580.148       8261.5465      0.85825000       4.5787500     -0.42000000       341.48600       6.4181420     0.045008276
       1507.0000       291.15171       99598.484       8334.9518      0.61900000       3.0982500    -0.011000000       342.34500       4.9562339     0.033689125
       1512.0000       291.16463       99599.062       8381.4936     -0.17625000       3.3082500     -0.19625000       341.96000       2.3018294     0.039291512
       1517.0000       291.11796       99574.260       8340.0310   -0.0022500000       3.1327500    -0.025000000       341.80500       5.1834251     0.028788636
       1522.0000       291.08826       99572.202       8329.4547       1.1242500       3.2145000      0.40475000       342.27600       2.8113385     0.038647920
       1527.0000       291.04946       99580.721       8334.5829      -1.3392500       3.1380000     -0.10750000       341.75000       2.0316147     0.027361595
       1532.0000       291.04328       99579.763       8329.3531     -0.15200000       1.6177500      0.23675000       342.59100       4.6277053     0.031838419
       1538.0000       291.05477       99587.509       8320.0316      -1.0442500       2.5317500      0.32725000       342.10700       3.8714431     0.027134726
       1543.0000       291.04487       99587.142       8278.1612     -0.13475000      0.80125000      0.20875000       342.40700       5.6697243     0.040410316
       1548.0000       291.05696       99568.099       8217.1004     -0.46975000       1.6085000     -0.20825000       342.50300       3.0291654     0.029784338
       1553.0000       291.05098       99567.141       8162.4035       1.3892500       2.7845000     -0.10250000       342.70500       2.2064282     0.020985476
       1558.0000       291.03429       99582.135       8081.0193      0.84875010       3.3900000      0.21300000       341.68700       6.0082322     0.028551844
       1563.0000       290.97223       99581.275       8006.2741      0.25975000       3.1362500     -0.57900010       342.31400       5.2153160     0.024529328
       1568.0000       290.85184       99574.329       7911.7677     0.041250000       3.0430000      0.21825000       342.91000       3.1970053     0.025676234
       1573.0000       290.82444       99575.960       7888.2454     -0.79150000       1.4545000      0.31500000       343.17600       11.291490     0.053759164
       1578.0000       290.79719       99572.875       7894.9383      0.33525000       1.5995000      0.13525000       342.62100       4.3797511     0.034716912
       1583.0000       290.78044       99574.819       7889.8088       1.2295000       1.8232500     -0.60125010       342.15600       4.9196086     0.023082176
       1588.0000       290.85571       99593.060       7940.2659      0.77100000       2.5547500    -0.094000000       342.16600       5.0018571     0.035609221
       1593.0000       290.86351       99592.295       7958.8851      0.75575010       1.6250000      0.37025000       342.56500       5.6379512     0.038157920
       1598.0000       290.80080       99572.970       7943.2366     0.083000000       1.3520000     0.074000000       343.18400       10.470947     0.043456369
       1603.0000       290.78696       99573.395       7935.8126      0.92900000       1.3682500      0.45850000       342.53200       5.4697932     0.028293819
       1608.0000       290.77795       99581.897       7930.6398     -0.14250000       1.9810000     -0.26600000       342.41600       5.9504183     0.028527303
       1613.0000       290.81035       99579.324       7946.7014     -0.95425000       1.9012500     -0.38475000       342.52800       1.9706056     0.040169330
       1618.0000       290.92903       99579.975       7973.2533     -0.17075000       1.5715000      0.25000000       343.04600       2.6657073     0.028201714
       1623.0000       290.90332       99582.331       7969.4692     -0.83575000       1.6732500    0.0037500000       341.55100       2.3569753     0.023312723
       1629.0000       290.83023       99573.215       7980.2834      -1.2260000       1.2010000     -0.36125000       341.56200       4.1897753     0.037124426
       1634.0000       290.75396       99574.757       7968.1383     -0.33925000       1.1100000     0.035500000       341.57400       7.8931480     0.043278331
       1639.0000       290.54810       99593.905       7906.8785     -0.57200000      0.93225000      0.57450000       342.23200       2.9499389     0.031297209
       1644.0000       290.46412       99591.680       7878.2751      0.34400000       1.0235000   -0.0012500000       341.88700       4.7431477     0.041052454
       1649.0000       290.44197       99573.956       7864.0147     0.049000000      0.62150000      0.51900010       343.10600       3.7059401     0.036178022
       1654.0000       290.42985       99573.656       7858.4394       1.1012500       1.7210000     -0.28875000       343.25500       3.9340154     0.041648261
       1659.0000       290.44257       99575.111       7853.3450      0.19775000      0.85825000     0.011250000       342.03200       6.6100752     0.042277133
       1664.0000       290.45085       99574.041       7851.5820    -0.023500000       1.2640000     -0.21250000       342.29100       4.1200626     0.029706072
       1669.0000       290.50330       99579.546       7869.2967       1.1402500       1.4872500    -0.064750000       342.11000       4.4768997     0.022013360
       1674.0000       290.51456       99584.642       7878.1286       1.1592500       1.6670000      0.12125000       342.12900       1.9892833     0.030070408
       1679.0000       290.49119       99584.366       7875.3315       1.5692500      0.68300000    -0.050750000       342.26400       3.6011835     0.034540722
       1684.0000       290.51000       99586.207       7886.6259       1.1205000       1.1365000     -0.24525000       341.52200       10.150808     0.032693590
       1689.0000       290.54662       99596.622       7914.7226       1.1082500      0.72625010   0.00025000000       341.93800       8.9691008     0.032058969
       1694.0000       290.56667       99598.036       7925.2988       1.1592500      0.53850000      0.52725010       342.84300       2.9563095     0.033027396
       1699.0000       290.59462       99590.041       7919.4312      0.70775000       2.2007500     -0.16775000       341.76600       4.6051017     0.024450552
       1704.0000       290.62466       99588.935       7947.5414      0.60250000       1.5647500     -0.15475000       342.27900       7.1104760     0.036418906
       1709.0000       290.62684       99593.318       7976.4126      0.26000000       2.2405000    -0.075250010       341.80900       3.0672977     0.011867537
       1714.0000       290.68523       99587.671       8030.8789      0.21600000       1.9720000     -0.15750000       341.81400       7.8828954     0.028085058
       1720.0000       290.81785       99574.653       8146.4749      0.87375000       1.4802500    -0.018750000       341.98200       4.6850141     0.019905223
       1725.0000       290.82386       99564.692       8185.6617      0.80775000       1.0757500    -0.032500000       341.61700       5.1085548     0.041960889
       1730.0000       290.81768       99561.962       8202.3010      0.43300000       1.1730000   0.00050000000       342.40600       5.8058966     0.031948296
       1735.0000       290.69895       99579.369       8159.3326      0.31375000       1.1605000      0.23425000       342.63700       2.6295143     0.035575403
       1740.0000       290.63723       99582.767       8130.4191     -0.36100000       1.1407500     -0.56400000       341.67100       5.7904453     0.038323820
       1745.0000       290.62997       99573.839       8109.5887     -0.30500000       1.0595000     0.019750000       342.90900       5.3548247     0.026688735
       1750.0000       290.60025       99574.722       8068.9900     0.077500000       1.1482500     0.088000010       342.29500       5.6981552     0.037381236
       1755.0000       290.57058       99576.826       8018.4508   -0.0017500000      0.97875010     0.092500000       342.19000       6.4629141     0.038731058
       1760.0000       290.53716       99575.201       7950.1243     -0.39350000       1.3265000     -0.11500000       341.77100       6.6570290     0.032689822
       1765.0000       290.55957       99572.257       7927.2036     -0.43500000       1.2665000     -0.18150000       342.15900       4.0976041     0.036524257
       1770.0000       290.58136       99575.221       7895.6015     -0.12225000       1.3840000      0.25325000       342.55200       6.5235332     0.039283955
       1775.0000       290.71622       99576.778       7958.2261     0.048500000       1.0592500    -0.067500000       342.32300       5.7524476     0.042711884
       1780.0000       290.80862       99574.628       7994.6522     -0.33025000       2.2365000     -0.42350000       341.75800       2.8018949     0.026706972
       1785.0000       290.85593       99581.366       7985.4830     -0.16750000       1.5997500      0.96325000       343.27500       2.6820052     0.035380051
       1790.0000       290.94412       99582.812       8042.4481    -0.080500010      0.87175010      0.54150000       343.40100       7.4598209     0.047667430
       1795.0000       291.04461       99579.314       8129.6705    -0.033250000       1.9795000      0.18800000       343.68200       6.0665764     0.032044596
       1800.0000       291.14090       99562.115       8226.1255      0.77650000       3.0095000    -0.042500000       343.02300       6.4310073     0.019028112
       1805.0000       291.25326       99564.861       8362.7825      0.50375000       3.5537500     -0.77050010       342.34800       3.5899974     0.037421010
       1811.0000       291.43715       99576.748       8617.5345     -0.70025000       2.4730000      0.80075000       343.35400       8.6225852     0.039415078
       1816.0000       291.48880       99562.848       8664.5350      0.28500000      0.98275010      0.67675000       343.54200       7.1505929     0.043407603
       1821.0000       291.47314       99563.930       8656.8697      0.49350000       1.2450000      0.24250000       343.47700       3.0632802     0.028743092
       1826.0000       291.32104       99566.498       8493.3041       1.6055000       1.3255000      0.19025000       343.10300       4.3285313     0.039514429
       1831.0000       291.23192       99563.812       8393.4284       1.7837500       2.4877500      0.23800000       342.40500       3.0987195     0.038211036
       1836.0000       291.10996       99573.895       8276.2802       1.4020000      0.77025000      0.94100000       343.83400       3.7975454     0.037592931
       1841.0000       291.02317       99578.438       8189.4596      0.46575000       3.5955000     -0.15700000       342.80400       7.4589209     0.047986308
       1846.0000       290.96185       99566.541       8103.7999      0.52325000       3.0690000     -0.45550000       342.22600       2.8526115     0.020290481
       1851.0000       290.93432       99562.915       8069.2521      0.85775010       2.7365000     -0.11600000       342.13900       2.2722492     0.028075315
       1856.0000       290.95778       99570.556       8109.6571      0.95850000       2.2300000     -0.20575000       342.70100       8.5798703     0.053312906
       1861.0000       290.94736       99571.274       8099.4502      0.34850000       2.3437500     0.018000000       342.86000       4.0941819     0.031754333
       1866.0000       290.94137       99562.515       8095.2853       1.2282500       2.2232500     -0.12650000       342.49800       3.3829695     0.022309774
       1871.0000       290.95121       99563.820       8093.0220      0.42175000       2.4990000     0.051250000       342.61200       4.1395230     0.021406777
       1876.0000       290.91493       99578.639       8021.2112       1.1325000       1.7315000     -0.28750000       342.56000       2.3283868     0.026907324
       1881.0000       290.93829       99577.158       8020.6553      0.83700000       2.9290000     -0.24975000       342.86400       2.8929032     0.022779962
       1886.0000       291.04264       99563.461       8106.9845     -0.32925000       2.6735000     -0.17175000       343.15400       3.7611546     0.035826650
       1891.0000       291.11278       99564.751       8144.5424      0.72050010       3.1245000     -0.16950000       341.70300       2.5515987     0.033223734
       1896.0000       291.21403       99566.687       8192.4005       1.3040000       3.1802500     -0.21100000       341.90900       4.8172454     0.030137753
       1902.0000       291.28052       99563.710       8231.8208       1.0350000       2.7952500    -0.048750000       342.14500       3.5038008     0.031038974
       1907.0000       291.29568       99572.462       8207.8324       1.1647500       1.8137500    -0.033750000       343.55100       3.1848929     0.032754473
       1912.0000       291.31219       99578.723       8231.4503      0.15400000       2.7245000     -0.39725000       341.99400       3.9100886     0.028033693
       1917.0000       291.28679       99575.821       8280.8981     -0.45275000       2.8100000     -0.57825010       342.38000       5.7342075     0.044140993
       1922.0000       291.30038       99574.248       8329.0764      0.25225000       1.8802500     0.038750000       342.77800       7.3967231     0.032697951
       1927.0000       291.35073       99582.522       8437.7747      0.95075010       2.4325000     -0.40675000       341.67200       4.4885731     0.023000785
       1932.0000       291.35690       99582.030       8457.2348      0.68200000       1.5227500      0.40425000       342.81200       3.4890127     0.023331425
       1937.0000       291.34463       99563.527       8420.7246      0.13975000       1.8677500      0.17000000       343.02500       3.2257273     0.023083383
       1942.0000       291.35464       99562.440       8404.8994       1.0105000       2.3565000     -0.30850000       341.53700       6.3216668     0.047406876
       1947.0000       291.36882       99578.658       8337.2956      0.75700000       1.2120000    -0.083750000       341.95600       3.0832165     0.028111356
       1952.0000       291.34482       99576.188       8298.2042      0.26150000      0.88200000    -0.098000000       342.01700       6.2365964     0.026138839
       1957.0000       291.30494       99562.990       8287.2267      0.14875000      0.50525000      0.17325000       342.90200       7.6461506     0.041167316
       1962.0000       291.29462       99564.617       8276.0515   -0.0072500000      0.12200000      0.51650000       343.10900       14.011104     0.060276934
       1967.0000       291.24758       99565.627       8267.0335     0.041000000    -0.086500000      0.39800000       343.73700       4.7251228     0.022744293
       1972.0000       291.23512       99563.393       8248.3384     0.027000000    0.0095000010      0.18075000       343.36300       6.3747075     0.026817224
       1977.0000       291.30793       99572.621       8241.4248     -0.60200010      0.91400000      0.34750000       343.18000       2.0328972     0.037720552
       1982.0000       291.30967       99578.794       8224.2893    -0.078250010       1.9322500     -0.21700000       342.45400       3.3089686     0.027600574
       1987.0000       291.27465       99577.102       8184.8047      -1.1925000      0.45675000    -0.047250000       342.68500       6.4974484     0.031046563
       1993.0000       291.23243       99573.455       8153.0082      -1.6640000       1.6515000      0.28325000       342.45200       6.1891862     0.032353892
       1998.0000       291.15774       99576.193       8132.9224      -1.1585000       1.4717500     -0.14725000       342.04400       4.8233706     0.026441563
       2003.0000       291.12395       99575.964       8118.4440     -0.59875010       1.4872500      0.13525000       342.88500       3.2019581     0.031068712
       2008.0000       291.07874       99564.761       8097.9690      -1.0185000       1.0697500      0.31150000       342.76700       7.2460357     0.041483669
       2013.0000       291.09775       99562.702       8101.1073     -0.59975000       1.3527500     -0.34225000       342.50200       7.0402984     0.026666918
       2018.0000       291.18386       99571.136       8129.2126     -0.26000000       1.2010000     -0.36550000       341.85000       7.2113729     0.051231403
       2023.0000       291.22351       99570.868       8141.2935     -0.17250000       1.1622500     -0.16275000       341.56900       11.782170     0.040931481
       2028.0000       291.28673       99562.669       8148.7825     -0.27675000       1.1542500    -0.098000000       341.66500       6.4043897     0.041682345
       2033.0000       291.33041       99565.597       8179.2779    -0.086250010       1.0110000     -0.14225000       341.79000       3.3090582     0.026613188
       2038.0000       291.36399       99578.563       8235.2357     -0.37775000       1.4912500     0.036000000       342.30700       2.7268818     0.035095849
       2043.0000       291.35158       99575.096       8242.6916     -0.49825000      0.68250000    0.0032500000       343.50300       3.3949791     0.033977277
       2048.0000       291.31448       99563.107       8253.0967     -0.68725000      0.47350000      0.26550000       343.38400       3.4668791     0.036223734
       2053.0000       291.28844       99565.256       8240.0837     -0.67075000       1.4477500     -0.12300000       342.61300       10.821020     0.054574607
       2058.0000       291.21236       99567.259       8177.3334     -0.22800000       1.1720000     -0.13800000       342.62300       4.2167946     0.046656918
       2063.0000       291.16881       99562.297       8126.9571     -0.15025000       1.4830000     -0.12650000       342.71300       13.559044     0.044331766
       2068.0000       291.12335       99563.513       8062.0016     -0.77400000       1.3712500      0.44825000       343.51800       14.022089     0.051375165
       2073.0000       291.15254       99568.509       8035.7043     -0.24900000       1.6472500      0.24400000       342.94900       2.0923399     0.032354723
       2079.0000       291.21840       99566.524       8007.3193     -0.60525000       1.6925000     0.055250000       342.20600       2.6650415     0.026002732
       2084.0000       291.30521       99561.567       7998.6091    -0.084500010       1.7975000     -0.13000000       341.69700       6.2580103     0.031063025
       2089.0000       291.50371       99564.057       8039.0521     -0.30025000       1.3362500     -0.30900000       341.76100       6.1691417     0.039480529
       2094.0000       291.57761       99569.061       8032.4453      0.49575000       1.6900000     -0.21000000       341.76000       5.4773323     0.030655785
       2099.0000       291.63310       99564.401       7997.2493      0.37100000       1.6775000      0.17000000       342.09100       2.5062478     0.026566994
       2104.0000       291.59940       99563.157       7985.6392    -0.090500000       1.8867500     -0.30475000       341.57200       10.326163     0.046100740
       2109.0000       291.48047       99576.926       7975.7224     -0.37650000       1.3620000      0.29375000       342.38300       3.5310769     0.032116694
       2114.0000       291.38396       99578.414       7963.7564       1.0552500       1.7060000      0.37875000       342.54100       2.5683889     0.041142032
       2119.0000       291.20118       99564.760       7956.8156      0.71300010       2.3657500     -0.34775000       341.76200       3.0531695     0.036699775
       2124.0000       291.12734       99561.489       7949.0587      0.34150000       1.1942500      0.10100000       343.08200       11.063491     0.021125548
       2129.0000       291.09500       99565.073       7935.3090      0.82375000       1.4070000     -0.22300000       341.90400       9.5677048     0.034301953
       2134.0000       291.07226       99566.126       7930.9705      0.80075000       1.7570000     -0.18175000       342.30300       12.540294     0.045893215
       2139.0000       291.08214       99564.598       7927.2640      0.62400000       1.0792500     -0.23975000       342.42100       5.0337738     0.028594774
       2144.0000       291.11936       99565.470       7945.9385     -0.36150000       1.5937500      0.12325000       342.00100       8.9057817     0.026764252
       2149.0000       291.19176       99571.536       7985.7844      0.66275000       1.7380000     -0.14000000       341.73900       3.4603320     0.028353452
       2154.0000       291.23117       99570.785       7997.9469      0.54600000       1.2092500     -0.19225000       342.31600       8.8980636     0.049857801
       2159.0000       291.33473       99564.922       8041.8694      0.15700000       1.8245000     -0.12550000       341.57600       4.3057358     0.038932419
       2164.0000       291.29994       99564.850       8003.4461      0.26825000       1.5382500     -0.51600000       341.57500       20.481638     0.056470919
       2170.0000       291.16188       99565.367       7887.3518      0.47875000       1.6607500     -0.23975000       341.58200       7.0016257     0.051582015
       2175.0000       290.99769       99564.244       7799.8156      0.58275000       1.7142500     -0.24300000       341.64900       7.0760831     0.036804967
       2180.0000       290.88404       99565.202       7748.2569      0.26350000      0.92150000     -0.26975000       342.30700       7.2022247     0.028376352
       2185.0000       290.79880       99569.458       7757.1398      0.43050000       1.3760000      0.23350000       342.05500       4.4686753     0.029400303
       2190.0000       290.73709       99566.789       7750.2532      0.13125000       2.0635000    -0.068250000       342.24300       3.0169554     0.037866622
       2195.0000       290.71508       99555.429       7744.2440      0.56075000       1.0930000      0.31325000       342.85400       5.8511919     0.034871486
       2200.0000       290.69392       99554.230       7746.3616      0.21050000       1.8607500      0.32250000       343.79200       3.8582358     0.028853600
       2205.0000       290.68505       99555.476       7751.8124      0.87900010      0.70775000     -0.13625000       342.43900       5.1612934     0.028792814
       2210.0000       290.70089       99554.015       7768.1610       1.3560000      0.93500010      0.15625000       342.90500       6.9700987     0.039823285
       2215.0000       290.70112       99555.407       7739.5180       1.1992500      0.88800010     0.052000000       342.13900       4.6994288     0.040901506
       2220.0000       290.70664       99565.236       7704.3718       1.1050000       1.8172500     -0.34150000       343.38000       5.1754714     0.047030581
       2225.0000       290.66928       99578.181       7610.5262       1.9147500       1.4362500     -0.27575000       341.59400       3.0545986     0.038278257
       2230.0000       290.64893       99577.779       7557.2425       1.7522500      0.78975000     0.086750000       342.49900       5.0674097     0.036990049
       2235.0000       290.61489       99563.368       7538.6382       1.5215000       1.0450000     -0.46975000       341.65500       13.589438     0.042720197
       2240.0000       290.59385       99564.156       7519.9412       1.1207500      0.92475000     -0.18825000       341.96300       7.6705040     0.039133579
       2245.0000       290.58516       99567.416       7511.9858       1.2317500      0.62225000      0.13900000       342.62200       3.2902281     0.033079854
       2250.0000       290.58120       99565.254       7515.0400       1.2292500      0.92600010    -0.096500000       342.08700       3.4775531     0.023511886
       2255.0000       290.64623       99560.384       7550.9873       1.1585000       1.1437500    -0.044250000       342.18500       2.1348152     0.033622876
       2261.0000       290.75931       99567.042       7613.4984       1.3870000       1.7212500     -0.26575000       342.29400       3.7500716     0.035277140
       2266.0000       290.89211       99559.708       7669.6525       1.7010000       1.3200000   -0.0097500000       341.93500       5.8762914     0.033503170
       2271.0000       290.98027       99552.968       7719.9429       1.4575000       1.4282500     -0.42050000       341.84800       9.9990351     0.049617359
       2276.0000       291.06759       99558.682       7779.2918      0.50675000      0.63975000    -0.017250000       342.26600       2.7895623     0.024685768
       2281.0000       291.07198       99557.182       7787.8127      0.97625010      0.51900010     0.016750000       342.73900       2.1980373     0.042498011
       2286.0000       290.95973       99535.508       7748.0058      0.65375000       1.4467500      0.12250000       341.75400       2.0552123     0.027848655
       2291.0000       290.94088       99531.220       7748.8887      0.67150000      0.70025000      0.20875000       343.34100       2.1439798     0.032684279
       2296.0000       290.91107       99541.403       7727.9079      0.94475010     -0.43950000      0.18200000       342.26700       2.1415556     0.026071250
       2301.0000       290.88403       99545.615       7714.5890      0.79100000     0.013000000      0.39925000       342.97900       2.0910352     0.020865381
       2306.0000       290.91738       99561.565       7733.3037       1.8395000      0.21400000     -0.10000000       342.78900       1.9084777     0.038056373
       2311.0000       290.95781       99563.914       7761.6440      0.76625000      0.56225000      0.45250000       343.47600       2.1151718     0.031907776
       2316.0000       290.97903       99544.368       7796.2114       1.4372500      0.28200000     0.035250000       342.56500       2.0889633     0.023819112
       2321.0000       291.00047       99542.796       7808.4631      0.99850000     0.091250000      0.16625000       342.51600       1.9796976     0.039136476
       2326.0000       291.06683       99551.199       7844.2245       2.3085000      0.38550000      0.30850000       342.83400       2.2010917     0.037077136
       2331.0000       291.11532       99550.251       7854.3603       1.6960000      0.18275000      0.40000000       343.18000       2.0992411     0.042518076
       2336.0000       291.16258       99552.078       7820.3515       2.2780000      0.35775000     -0.12875000       341.69400       2.1124748     0.037310602
       2341.0000       291.15968       99556.955       7789.9281       1.4910000      0.47225000      0.52125000       342.80300       1.9555648     0.017531576
       2346.0000       291.14938       99557.712       7768.4341       1.0180000       1.7887500    -0.076750000       341.70800       2.0350715     0.021863131
       2352.0000       291.09161       99554.038       7713.0270      0.53675000     -0.38875000      0.41725000       343.39500       2.0036731     0.023889716
       2357.0000       290.93184       99553.280       7618.3403       1.1452500      0.57325010      0.39700000       342.77300       2.1161517     0.017914115
       2362.0000       290.85892       99556.267       7573.2517       1.8875000      0.57900010     -0.44125000       343.04500       2.9661749     0.029542986
       2367.0000       290.80907       99556.956       7537.1582       2.4392500       1.8385000     -0.27575000       341.67800       2.2085175     0.039767022
       2372.0000       290.77686       99553.911       7513.3437       1.9475000       1.7347500     -0.20125000       342.68800       2.0402416     0.045498072
       2377.0000       290.77430       99553.435       7503.0326       2.2362500       1.2800000    -0.025000000       342.14300       2.0720011     0.036062099
       2382.0000       290.80158       99556.398       7531.8231       2.5650000       1.1795000      -1.0282500       342.23100       1.8915697     0.033915091
       2387.0000       290.87396       99556.892       7599.0960       3.3412500      0.12250000     -0.52375000       342.02700       2.0697494     0.017665461
       2392.0000       290.91406       99553.896       7643.2012       3.2870000      -1.6222500      0.62775000       343.20400       2.0704681     0.035980240
       2397.0000       290.97640       99554.852       7730.2178       1.8805000     -0.36850000      0.51400000       343.24200       1.9442100     0.031656500
       2402.0000       291.02315       99556.599       7777.8395       4.4892500       3.4390000      0.48450000       343.30900       1.9343815     0.035335232
       2407.0000       291.03858       99552.005       7777.1839       5.6235000       2.2992500      0.45650000       342.43600       2.0402776     0.043197592
       2412.0000       291.05870       99548.361       7793.7022       4.5582500       3.7127500      0.65550010       342.64100       2.1601788     0.020278453
       2417.0000       291.08233       99547.833       7810.8524       4.7220000       4.5372500     -0.85250000       342.16000       2.9930446     0.021842345
       2422.0000       291.11224       99551.211       7829.5847       3.0545000       3.8395000     0.056000000       342.48200       6.3037917     0.024564424
       2427.0000       291.11041       99553.785       7847.5497      0.86500010       3.0382500     0.086500000       342.97800       2.5555515     0.019445757
       2432.0000       291.15840       99555.195       7862.9702      0.83875010       3.5652500     -0.78000000       342.25600       2.7559810     0.036756218
       2437.0000       291.25804       99564.656       7867.0638       1.0430000       2.8472500     0.067000000       342.64500       4.8682430     0.039586063
       2443.0000       291.34237       99567.537       7903.9717     -0.28975000       2.2335000     -0.40200000       342.41800       4.8594039     0.025392238
       2448.0000       291.41972       99559.063       7940.9226      0.82550000       1.7167500     -0.30375000       342.49900       3.6564631     0.039368600
       2453.0000       291.49987       99559.255       7990.0858      0.30275000       1.1575000    -0.096000000       342.60300       6.3538494     0.045979937
       2458.0000       291.62844       99567.859       8130.2825     -0.48125000       2.1115000     0.018250000       343.12100       2.4647163     0.044399231
       2463.0000       291.61675       99564.956       8105.4147  -0.00075000000       1.4700000      0.29000000       343.65400       4.6684471     0.041895682
       2468.0000       291.55329       99554.310       7998.3404     -0.42300000       3.9365000      0.17550000       342.37300       2.1484975     0.030613267
       2473.0000       291.46931       99554.562       7905.9530      -1.2712500       2.9767500     -0.42425000       342.46500       3.9311962     0.032984025
       2478.0000       291.25642       99557.674       7704.6016     -0.59175000       3.2440000    -0.057250000       342.69800       5.2388764     0.040998934
       2483.0000       291.11234       99553.115       7579.7840     -0.51925000       3.4765000    -0.014750000       342.67400       2.7694437     0.030851835
       2488.0000       290.97652       99548.775       7498.8460     -0.36975000       2.6392500      0.12200000       342.59400       4.0078721     0.034397091
       2493.0000       290.88841       99551.461       7414.6526      -1.3072500       3.3167500     -0.38225000       342.58500       2.1655167     0.037205609
       2498.0000       290.80175       99552.036       7314.7268       2.5882500      0.46500000    0.0070000000       343.48000       3.2791635     0.041887304
       2503.0000       290.75995       99548.044       7260.2619       1.0795000       2.1250000      0.30225000       342.95200       2.2756105     0.031453743
       2508.0000       290.76628       99548.722       7228.9789       1.4237500       3.2075000    -0.014250000       343.02000       3.0326455     0.044383796
       2513.0000       290.81457       99552.664       7232.7616       1.3247500       4.3597500     0.064250000       341.99800       11.343865     0.039034420
       2518.0000       290.92364       99551.588       7283.9629       1.0107500       3.2705000     -0.29975000       342.03000       6.6847773     0.042678716
       2523.0000       290.98389       99547.555       7316.2178       1.3347500       1.5522500    -0.061500000       343.10400       4.1326857     0.037051272
       2528.0000       291.07542       99548.612       7370.1447       1.5687500       2.2232500      0.99625000       342.58400       5.4950989     0.032517666
       2534.0000       291.16340       99553.501       7434.5437       1.5937500       1.7510000     -0.76125000       342.79800       4.8379230     0.043516896
       2539.0000       291.19382       99550.506       7476.7485       2.6072500       1.7572500      0.19625000       343.38900       7.5959930     0.029167270
       2544.0000       291.23379       99548.399       7537.0753       1.3662500       1.8882500     -0.22950000       342.30000       14.079840     0.046705031
       2549.0000       291.30620       99555.035       7617.5037       1.4790000       2.9330000     0.016500000       342.61500       5.3098760     0.042862365
       2554.0000       291.32835       99559.141       7696.0686      0.59425000       2.4007500      0.27200000       342.35100       3.1707842     0.022747078
       2559.0000       291.30898       99554.115       7799.8522      0.59175000       3.4325000     -0.49500000       342.61700       5.1446900     0.017930480
       2564.0000       291.29032       99554.846       7831.1391       1.1732500       1.6207500      0.23375000       342.76900       2.5785995     0.021892851
       2569.0000       291.28344       99566.643       7859.1187       1.2002500       1.1050000      0.44300000       343.13100       5.2472832     0.035893762
       2574.0000       291.20633       99567.914       7825.1148       1.8155000       1.1810000      0.16650000       342.74000       5.9707417     0.024469268
       2579.0000       291.05933       99559.093       7699.2812       2.0580000       2.6430000      -1.1387500       342.56500       3.9298110     0.025424212
       2584.0000       290.98756       99559.791       7645.0744       1.6230000       2.0085000      0.52550000       343.11500       9.0144095     0.021351548
       2589.0000       290.91731       99567.625       7594.3534      0.92825000       1.5992500     -0.20225000       342.66900       4.3058096     0.025069002
       2594.0000       290.82742       99564.061       7544.6152       1.7562500       1.4145000     -0.40200000       342.63700       4.2695268     0.017081372
       2599.0000       290.77090       99554.111       7510.2290       2.1252500       1.3832500      0.76325010       343.21300       2.3229308     0.024622814
       2604.0000       290.69271       99554.862       7479.9986       1.9210000       2.0535000      0.44925000       342.62700       2.7802781     0.028948669
       2609.0000       290.56411       99556.826       7440.9713       1.8220000       3.1170000     -0.54525000       342.23700       2.5326119     0.015311643
       2614.0000       290.47248       99552.014       7419.9236       2.1457500       1.5280000      0.13650000       342.80900       2.5794882     0.014271896
       2619.0000       290.39684       99549.324       7413.2727       1.7650000       1.2172500     -0.11425000       342.88300       2.8811483     0.020057654
       2625.0000       290.36088       99553.030       7442.0388       2.6685000       1.8882500     -0.23650000       341.75400       4.4864042     0.040611617
       2630.0000       290.33846       99549.991       7456.6663       1.3052500      0.74225000      0.25600000       342.47200       5.6377092     0.025246676
       2635.0000       290.35507       99550.871       7472.2345       2.3742500       2.5635000      0.57875000       342.25700       5.1318222     0.036097358
       2640.0000       290.39348       99555.954       7508.0855       1.3015000       2.7172500     -0.32300000       341.92100       3.9717241     0.023046880
       2645.0000       290.44511       99555.310       7532.7389       1.9567500       2.3257500     -0.11475000       342.37800       4.0633594     0.023388831
       2650.0000       290.49337       99554.063       7578.5129       2.8027500       2.8815000      0.95550010       342.41100       5.7021799     0.030512647
       2655.0000       290.55387       99555.289       7645.2098       1.3830000       2.8342500   -0.0085000000       343.12400       3.5373362     0.018654316
       2660.0000       290.66160       99568.724       7753.2071       2.1177500       2.2077500      0.45550000       342.89500       4.1547567     0.021646720
       2665.0000       290.69914       99565.001       7828.5859      0.74600010       2.3557500     -0.34525000       342.72200       2.3525330     0.026983815
       2670.0000       290.71169       99548.066       7923.7513       1.7250000       2.5292500     -0.38550000       341.88800       2.4989904     0.020819984
       2675.0000       290.66996       99558.414       7894.6092       1.4097500       1.6615000      0.25725000       342.54100       7.5301432     0.029828723
       2680.0000       290.64992       99556.775       7876.9418      0.94675000       2.6490000     -0.79100000       342.42000       2.9132457     0.021411745
       2685.0000       290.58487       99547.638       7790.2229       1.9085000       2.3067500     -0.18200000       342.40600       2.1154349     0.011663656
       2690.0000       290.58130       99549.443       7732.1121       1.3070000       1.9675000      0.20825000       342.45500       2.1098507     0.022161239
       2695.0000       290.61459       99552.455       7689.4720    -0.014250000       2.1390000     -0.11925000       342.57400       2.2124404     0.025587593
       2700.0000       290.69125       99550.179       7672.6456       1.2017500       2.4577500     -0.18275000       342.76100       2.1886712     0.024671475
       2705.0000       290.75299       99546.277       7655.7383      0.91500000       1.6285000      0.37225000       342.95500       3.2900192     0.022952805
       2710.0000       290.84475       99550.240       7632.2459       1.0855000       1.9390000     0.043250000       342.75400       2.2095671     0.023559818
       2716.0000       290.99499       99549.322       7697.8956       1.3947500       2.0895000     -0.11775000       342.32100       2.4429369     0.011042047
       2721.0000       291.07463       99548.697       7751.4863       1.5700000       2.7862500     -0.37400000       342.57700       2.2425836     0.023954958
       2726.0000       291.17187       99563.153       7867.3884      0.79425000       1.7515000     -0.21100000       342.13300       2.3672502     0.013312895
       2731.0000       291.22723       99568.567       7925.2323       1.5072500       2.0792500      0.10075000       342.34500       2.0963506    0.0081325398
       2736.0000       291.21395       99559.769       7947.3925       1.5962500       1.9845000     -0.14800000       341.66500       2.2878563     0.020760777
       2741.0000       291.20279       99559.017       7966.0061       1.4762500       1.4885000    -0.032750000       341.99000       2.3177016     0.013155035
       2746.0000       291.15191       99569.384       7929.7098      0.39025000       1.3852500     -0.17675000       342.73600       2.5854031     0.017202076
       2751.0000       291.14315       99566.791       7934.7652       1.0602500       1.5007500      0.17100000       342.62400       2.1771717     0.011942035
       2756.0000       291.14405       99550.068       7981.3583      0.57175000      0.87150000    -0.028500000       342.29200       2.1043996     0.020182661
       2761.0000       291.14513       99548.477       7988.9232       1.7060000       1.3212500      0.32300000       342.61200       6.7542026     0.026092461
       2766.0000       291.20419       99553.609       7995.6896      0.51825000       1.6105000     -0.14425000       342.35300       3.1841871     0.020138681
       2771.0000       291.21205       99549.667       7993.3017       2.0475000       2.0607500     -0.45175000       342.25800       3.3883351     0.022425573
       2776.0000       291.19437       99548.655       7964.2304       1.4365000       1.4767500    -0.082250010       342.58700       3.6595102     0.029253236
       2781.0000       291.15217       99551.548       7926.5404      0.65725000      0.67600010      0.29650000       343.04900       9.1053601     0.014898556
       2786.0000       291.05809       99542.879       7883.1081       1.0295000       1.1825000      0.51300000       342.77300       3.8783461     0.015831500
       2791.0000       290.98822       99542.683       7841.4047      0.13825000       1.2762500      0.36875000       343.48100       4.4369533     0.013764474
       2796.0000       290.87211       99564.869       7774.6652      0.52450000       2.1977500     0.038000000       343.06800       2.8117260     0.024696863
       2802.0000       290.82100       99569.106       7716.6360      0.99800000       2.1510000     -0.68400000       342.57700       6.3263209     0.021194559
       2807.0000       290.85626       99554.354       7682.6798      0.84575000       1.9760000     -0.76025000       342.45300       8.0084698     0.041054237
       2812.0000       290.84629       99554.065       7652.3258      0.68325000       1.6065000     0.026750000       343.18900       4.5661112    0.0092260265
       2817.0000       290.85737       99558.351       7619.8135    -0.067000000       2.1745000     0.035250000       343.36500       4.3012260     0.026030672
       2822.0000       290.85367       99553.998       7605.4472      0.51225000       1.7115000      0.19950000       343.29400       3.5635202     0.012104969
       2827.0000       290.81825       99548.202       7612.6290       2.4445000       2.1760000      0.14150000       342.62500       3.8483026     0.024678612
       2832.0000       290.78862       99550.480       7611.1218       1.6780000       2.9910000     -0.52100000       341.66700       4.4311307     0.023162117
       2837.0000       290.76291       99551.140       7616.2538       1.0487500       2.2832500      0.31500000       342.70800       3.8957878     0.027469592
       2842.0000       290.74286       99548.533       7621.1427       1.2177500       1.4792500     -0.10150000       342.84900       3.8669034     0.021864187
       2847.0000       290.69296       99558.070       7622.1648       1.2207500       2.9580000     0.082500000       342.34900       2.7389753     0.025048502
       2852.0000       290.69035       99557.328       7626.1247      0.91125010       2.0875000     0.017250000       342.64300       3.4843252     0.025097766
       2857.0000       290.72557       99532.615       7627.5759       1.1985000       1.3275000      0.49075000       342.52100       4.0257244     0.022387460
       2862.0000       290.75916       99531.053       7644.6987       2.1730000       1.5410000     -0.10875000       342.43900       3.6800420     0.031123119
       2867.0000       290.84662       99551.181       7681.1322       2.2207500       2.3737500     -0.32675000       341.88600       2.8525960     0.025397645
       2872.0000       290.86907       99552.035       7696.4013       1.3752500       2.3912500    -0.082250010       342.24900       2.2016466     0.012606840
       2877.0000       290.87169       99553.455       7725.1702       1.0307500       1.0507500     0.023500000       342.65400       2.0690471     0.013686395
       2882.0000       290.85382       99551.856       7727.3231       1.3247500      0.15850000     0.045000000       342.62600       2.1786942    0.0089041824
       2887.0000       290.75426       99527.418       7680.9175       1.1730000       1.3345000     0.067000000       343.40400       2.3143193     0.012984441
       2893.0000       290.73018       99527.546       7676.6024       1.6275000       1.4620000      0.11875000       342.48500       4.1286559     0.013233339
       2898.0000       290.74316       99550.821       7686.1641       1.2960000       2.6520000     -0.13650000       342.25500       3.8786843     0.011788525
       2903.0000       290.74936       99554.022       7693.0619       1.0872500       2.1105000     0.090750000       342.70900       3.6628626     0.011125625
       2908.0000       290.79952       99555.351       7727.3662       1.7180000       1.6970000     0.026750000       342.41900       4.1780209     0.011974451
       2913.0000       290.81305       99558.097       7733.2509       1.8817500       1.5432500    -0.089750010       343.13200       2.9036423     0.023488939
       2918.0000       290.81149       99552.365       7718.0109       3.0050000       1.0945000    -0.016000000       342.36600       4.5650761     0.023617259
       2923.0000       290.79553       99547.431       7713.0851      0.75600000      0.84825000      0.39275000       343.02800       2.6159409     0.013217163
       2928.0000       290.72440       99543.124       7683.4426       1.3955000      0.41950000      0.24625000       343.26900       2.8725986     0.010205500
       2933.0000       290.75363       99546.387       7706.3208       1.4090000      0.81000010      0.34050000       342.96500       2.0917658     0.023153169
       2938.0000       290.83792       99550.908       7773.1990       1.5952500       1.7150000      0.22725000       342.75800       3.2128879    0.0097063111
       2943.0000       290.86788       99549.943       7798.0046       1.9747500       1.2287500      0.16275000       343.80200       4.2419207     0.011136454
       2948.0000       290.97810       99554.795       7833.9071       1.6935000       1.7092500      0.26400000       343.45300       4.2491992     0.024657078
       2953.0000       290.96777       99557.462       7861.5917       1.9747500       1.8697500     -0.20450000       343.03600       4.9009912     0.013040963
       2958.0000       290.82785       99548.938       7861.3256      0.94375000       1.8487500     -0.29125000       343.38200       4.2903698     0.016590030
       2963.0000       290.75858       99548.820       7860.1729       2.3130000       1.2527500     -0.59050010       343.09400       3.8987049     0.012275472
       2968.0000       290.65971       99563.654       7871.0923       1.1057500       2.3530000     -0.70525000       342.73900       3.2185210     0.010195604
       2973.0000       290.61248       99561.431       7868.3853      0.40225000       1.9960000     -0.74075000       343.48900       5.4427210     0.023769389
       2978.0000       290.60143       99543.471       7841.9022       1.2742500       2.3877500      0.17150000       343.03200       6.2255295     0.019838295
       2984.0000       290.58657       99544.794       7814.0622       2.1030000       1.9557500     -0.22125000       342.95800       8.5978576     0.014579097
       2989.0000       290.59140       99551.576       7794.4269       2.3345000       1.2252500    -0.097000000       342.43500       2.3421965     0.012316531
       2994.0000       290.61029       99548.699       7776.3359       1.9510000       2.6440000     -0.28250000       341.99700       3.6439960     0.029937193
       2999.0000       290.63737       99552.418       7737.6297       2.6445000       2.3157500     -0.54750000       342.68000       2.2354839     0.031928080
       3004.0000       290.67590       99550.847       7735.5139       2.7067500       2.4212500     0.069750000       342.36100       2.8449511     0.018710161
       3009.0000       290.73999       99531.112       7755.8170       1.6720000       1.2590000      0.22025000       342.70900       4.1374177     0.029662744
       3014.0000       290.78971       99534.171       7776.9678       1.3012500       1.0405000    -0.026250000       343.14300       7.6936575     0.035499245
       3019.0000       290.82966       99559.782       7805.0151       1.3762500       1.7095000     -0.38650000       343.50300       2.8503797     0.021301366
       3024.0000       290.89904       99555.581       7855.8031       1.9595000       1.9642500    -0.061750000       342.89500       5.0014792     0.016356502
       3029.0000       291.02932       99539.210       7934.7289       2.2542500       1.3555000     -0.28200000       342.82100       3.9035790     0.027279918
       3034.0000       291.00544       99540.060       7976.9249       1.7635000      0.59925000      0.47225000       343.28700       2.9350985     0.026122896
       3039.0000       290.91908       99533.414       8026.4864       1.9667500      0.88000010     -0.11250000       342.76600       3.4422822     0.038513575
       3044.0000       290.86177       99532.848       8053.5360       1.4847500      0.25875000    -0.016250000       343.40300       2.7838763     0.025276904
       3049.0000       290.67908       99553.396       8044.4814       1.9750000      0.99550000    0.0020000000       343.68600       5.2719770     0.018284564
       3054.0000       290.65298       99553.133       8050.7323       2.6112500       1.4610000     -0.13550000       342.76600       5.1350850     0.033358912
       3059.0000       290.73618       99532.149       8063.1452       2.9705000       1.2990000      0.19175000       342.39800       4.7725192     0.023916715
       3064.0000       290.77549       99533.541       8067.4573       1.7062500       1.6037500     0.070250000       343.07400       3.5207860     0.010732943
       3069.0000       290.85714       99546.528       8071.5019       1.6977500       1.5862500    -0.027500000       342.17800       5.7461916     0.022052813
       3075.0000       290.85424       99545.185       8029.2190       2.1457500       2.1672500     -0.10575000       341.77200       5.9371477     0.025195009
       3080.0000       290.85538       99546.446       8000.4874       2.2332500       1.4565000     -0.52200000       341.83000       3.0634436     0.025144624
       3085.0000       290.78471       99533.230       7931.1654       1.7170000       1.2732500     -0.33700000       342.45200       3.4758148     0.016901085
       3090.0000       290.78143       99531.564       7900.6072       1.4502500      0.94750010      0.20550000       343.03700       4.9175875     0.028041025
       3095.0000       290.82973       99556.888       7880.2458       1.6420000       1.2985000     -0.43350000       342.88900       9.9892909     0.017893076
       3100.0000       290.88650       99559.817       7902.2502       1.6395000      0.69775000      0.44900000       342.82300       5.1076368     0.032911943
       3105.0000       290.96792       99554.134       7957.8916       1.4580000       1.7885000     0.071500000       342.87100       5.2728218     0.017483080
       3110.0000       291.11035       99539.208       8065.8484       2.3512500       1.9677500     -0.51700000       342.64900       6.1418959     0.012366983
       3115.0000       291.16802       99540.336       8117.3128       1.5057500       1.7227500     -0.48975000       342.27700       5.6983055     0.013449638
       3120.0000       291.21136       99531.524       8182.8738      0.78425000       1.3655000      0.60100000       342.89600       4.3746870     0.010882738
       3125.0000       291.20001       99557.214       8238.5299     -0.44825000       1.3420000      0.91300000       343.26500       6.5496664     0.016074259
       3130.0000       291.20001       99565.464       8266.6980      0.93825010       3.4330000     -0.15275000       342.68500       5.0989849     0.029697218
       3135.0000       291.21540       99546.647       8321.0628      0.13450000       3.2680000      0.38200000       342.75700       4.7933814     0.030985789
       3140.0000       291.20681       99543.254       8334.2827       2.3722500       4.2842500     -0.91925010       341.86800       3.5758661     0.029973557
       3145.0000       291.18587       99543.542       8312.0489     -0.53800000       2.5197500      0.40950000       343.78100       2.4564652     0.010902415
       3150.0000       291.14432       99544.539       8226.9049    -0.071750000       2.2120000      0.33475000       343.27100       2.5515350     0.012598284
       3155.0000       291.14561       99543.768       8186.7016       1.6595000       1.1460000      0.21575000       343.28800       3.4311588     0.031244134
       3160.0000       291.14428       99552.580       8143.3090      0.51000010       2.8685000     -0.57375000       342.70700       6.3694329     0.014892603
       3166.0000       291.19062       99534.319       8072.7948     0.052000000       2.3625000      0.15225000       343.25200       4.1320465     0.012734550
       3171.0000       291.20956       99531.775       8030.4152      0.70925000       2.0405000      0.68650000       343.55100       3.1617515     0.017042366
       3176.0000       291.20019       99545.718       7976.8615      0.36975000       2.1092500      0.55100000       342.82700       5.3917521     0.029121403
       3181.0000       291.20016       99546.409       7942.8825       2.7752500       1.6195000      0.67075000       342.88000       4.5482795     0.015804643
       3186.0000       291.20021       99545.852       7940.9689       1.6992500       2.1957500      0.42975000       343.04300       7.4717480     0.024190990
       3191.0000       291.20032       99546.664       7932.8262       1.7590000       2.7955000      0.28100000       342.26200       3.1429703     0.012026062
       3196.0000       291.19982       99533.590       7934.0252     -0.44425000       3.4837500     -0.24625000       342.04900       5.0408413     0.015223904
       3201.0000       291.19970       99532.244       7925.3414      0.52325000       1.2150000      0.46000000       342.70900       5.0042266     0.016016692
       3206.0000       291.18582       99550.292       7894.1682      0.14475000       1.6857500    -0.085000000       342.16400       6.0974609     0.015305230
       3211.0000       291.19706       99552.833       7898.2929       1.8915000       1.8792500      0.37475000       342.64300       2.6723395     0.011982158
       3216.0000       291.22064       99543.607       7910.1525       1.9082500       3.0260000     -0.20800000       342.53000       2.4810339     0.010443218
       3221.0000       291.25204       99544.619       7937.6215      0.70200000       2.3100000     -0.10275000       342.69700       3.9699058     0.013052844
       3226.0000       291.33860       99543.461       8022.8467      0.81775000       2.4145000    -0.031250000       342.50900       3.4862318     0.010293207
       3231.0000       291.36571       99543.848       8068.3781       1.0145000       1.7647500     -0.18750000       342.93400       3.0396448    0.0092781866
       3236.0000       291.35687       99564.817       8093.5664       1.7602500       2.1680000     -0.84450010       342.60800       3.3184554     0.012510810
       3241.0000       291.35525       99564.748       8124.7643       1.1040000       1.0720000     0.033500000       343.61200       2.2520288    0.0094002731
       3246.0000       291.32397       99539.098       8155.2779       1.5580000       3.6520000     -0.84625010       342.51600       2.2525046     0.014065930
       3251.0000       291.29365       99532.559       8162.5540       2.1547500       1.8797500      0.26850000       342.76100       2.5921770     0.011487155
       3257.0000       291.24898       99521.866       8160.4436       1.6075000       2.9970000     -0.66650000       342.22900       2.0118328     0.026609405
       3262.0000       291.24277       99522.460       8154.6613       1.5067500       2.3122500     0.032250000       342.66900       3.1339203     0.013936909
       3267.0000       291.24273       99552.768       8121.3723       1.7400000       3.3455000      0.24875000       342.92900       2.2687440     0.015296580
       3272.0000       291.24652       99554.553       8098.4198      0.52925000       3.6285000     -0.22925000       342.32000       2.8592169     0.017531831
       3277.0000       291.28183       99533.921       8076.2825      0.87950000       2.1587500     -0.14050000       342.44800       3.5901651     0.028443278
       3282.0000       291.31157       99534.045       8065.5877       1.1975000       2.1330000     -0.75075010       342.48900       3.3301881     0.016243117
       3287.0000       291.32370       99534.157       8041.6262       1.0330000       1.2742500      0.98425010       342.55900       2.3481182     0.012291067
       3292.0000       291.35759       99533.374       8050.2425      0.61700000       2.0892500     -0.15325000       342.93800       3.6835138     0.012680868
       3297.0000       291.43253       99553.836       8096.6001    -0.019500000       3.0900000     -0.27475000       341.68100       4.0757109     0.026159692
       3302.0000       291.46914       99553.930       8126.4056      0.24300000       2.3575000    -0.042750000       341.76300       3.0472918     0.024430017
       3307.0000       291.54661       99523.262       8186.7850      0.59975000       2.0060000    -0.045000000       342.28900       3.9170359     0.018905898
       3312.0000       291.50873       99520.714       8200.7485      0.26525000      0.92075000      0.53175000       342.56300       4.4594393     0.014508163
       3317.0000       291.34808       99534.727       8175.1355    -0.056750000       2.3235000     0.059500000       342.54000       2.7812333     0.015263064
       3322.0000       291.26891       99535.752       8166.2790      0.18225000       2.2352500      0.21725000       342.33100       2.5698154     0.018539440
       3327.0000       291.14621       99549.294       8158.3129      0.56050000       1.7055000     -0.27225000       341.96500       12.236887     0.020275405
       3332.0000       291.05390       99548.482       8116.3229      0.52100000       2.9357500     -0.25100000       341.95200       4.1091271     0.016179968
       3337.0000       291.01114       99517.985       8056.8886      0.46050000       2.0347500     -0.56900000       342.02400       3.3605038     0.033541713
       3343.0000       290.98126       99516.924       7997.6212      0.92575000       2.1032500    -0.031000000       342.47700       4.1161004     0.014643183
       3348.0000       290.94346       99535.131       7910.7257       2.4557500       1.0900000    0.0057500000       342.83000       3.5208623     0.028412805
       3353.0000       290.93580       99537.549       7854.6355       1.2555000       1.0970000     -0.12450000       342.62800       2.2247337     0.025421390
       3358.0000       290.99916       99549.479       7822.4684      0.51100000       1.3935000     0.055500000       343.22700       3.7306269     0.021119443
       3363.0000       291.01241       99547.028       7794.3814       1.6825000       1.1217500     0.051500000       343.18600       4.5433606     0.032923616
       3368.0000       290.98850       99516.354       7757.5340       1.8875000       2.1685000     -0.55350000       342.51200       4.3619587     0.014838414
       3373.0000       291.00446       99516.193       7754.4017       1.5675000       1.9730000   0.00025000000       342.11900       2.7193847     0.018143144
       3378.0000       291.01765       99533.507       7775.7105       1.5375000       1.7337500    -0.015250000       341.78200       3.0978558     0.012056229
       3383.0000       291.07058       99537.660       7812.6264      0.49200000      0.86150000      0.41575000       342.51900       5.3386586     0.017469656
       3388.0000       291.18272       99554.656       7886.0304      0.35325000       1.4440000      0.43825000       342.68900       4.1080893     0.019184673
       3393.0000       291.23684       99552.747       7931.6472      0.37625000       1.1365000     0.069000010       343.06400       8.2402318     0.018295100
       3398.0000       291.29909       99522.040       7994.6000      0.56150000       1.3325000    0.0075000000       342.79400       5.4015701     0.035471784
       3403.0000       291.32700       99521.273       8023.3045      0.65675000      0.37650000      0.23875000       343.84600       3.7977212     0.030056822
       3408.0000       291.31153       99534.933       8026.5722       1.0190000      0.95750000      0.26400000       342.78600       2.9160345     0.015572735
       3413.0000       291.29558       99535.956       8020.7641      0.56175010      0.69050000      0.42400000       343.30100       2.7340443     0.020112687
       3418.0000       291.27024       99549.846       7996.0280      0.81900010       1.2742500    -0.040000000       343.22200       3.2270004     0.023626622
       3423.0000       291.23353       99547.249       7969.8988      0.74900000       1.0917500     -0.16800000       343.48100       3.6881937     0.013193368
       3428.0000       291.14842       99516.804       7911.4221      0.67025010       2.5352500      -1.0882500       342.42900       2.2248833     0.036736760
       3434.0000       291.13086       99518.154       7898.7415       1.0877500       1.4247500    -0.062500000       342.83400       2.6984337     0.033570025
       3439.0000       291.14375       99535.726       7912.2270      0.19525000       2.0180000     -0.14050000       342.43300       3.0018761     0.021085414
       3444.0000       291.15255       99537.866       7906.4877       1.0482500       2.1580000      0.18900000       342.70100       5.5706761     0.025150703
       3449.0000       291.20348       99549.676       7922.5621      0.54825000       1.9105000     -0.12225000       343.09700       3.1029684     0.019168952
       3454.0000       291.21455       99545.507       7910.3144      0.46075000       3.6657500     -0.50875000       342.09000       5.6194438     0.019320647
       3459.0000       291.20000       99515.536       7861.8507       1.5687500       4.0005000     -0.58275000       342.34100       2.4888877     0.012253033
       3464.0000       291.19993       99517.339       7850.0346       1.2037500       3.4202500     -0.66575000       341.82100       6.8252700     0.014847288
       3469.0000       291.20931       99535.089       7852.0719       1.4020000       1.4617500      0.42450000       343.22400       3.8991829     0.011957936
       3474.0000       291.19039       99537.306       7846.0366       1.0225000       1.6612500      0.26950000       342.72800       4.2568277     0.020157637
       3479.0000       291.17232       99545.148       7859.8030       1.2297500       2.2855000    0.0045000000       342.51100       6.1570571     0.031326041
       3484.0000       291.11499       99550.507       7833.5203      0.79475000       3.2125000     -0.22950000       341.70000       2.2161167     0.017692901
       3489.0000       290.98524       99545.025       7765.0516       1.0687500       3.0860000     -0.31750000       341.84900       8.1773960     0.024269473
       3494.0000       290.97096       99543.831       7760.1906     -0.41975000       2.4387500    -0.092750010       342.85000       4.7549892     0.029359841
       3499.0000       290.98625       99550.295       7762.3308      0.90750000       3.8245000     -0.61000000       341.99400       8.1998506     0.026429800
       3504.0000       291.00367       99553.416       7776.3540       1.9112500       3.7422500     -0.42975000       342.49000       4.4046278     0.017455276
       3509.0000       291.09744       99553.625       7839.0503      0.45450000       1.7835000      0.16225000       343.01300       2.1878401     0.017520720
       3514.0000       291.13889       99546.018       7870.8731      0.79000000       3.6595000     -0.15325000       341.91300       3.1549739     0.028119300
       3519.0000       291.13788       99535.323       7881.9364       1.0032500       2.9075000    -0.067750010       341.68600       3.4398201     0.037223353
       3525.0000       291.21573       99524.012       7925.3305      0.95700000       2.2352500     -0.22675000       341.86900       5.1124608     0.022365179
       3530.0000       291.25751       99521.122       7962.7535      0.75325010       2.2790000     -0.23175000       341.72500       6.9192597     0.031331943
       3535.0000       291.25586       99549.503       7986.9500      0.54700010       1.9580000     -0.15225000       341.68100       9.1825623     0.022713010
       3540.0000       291.29465       99555.363       8033.0672      0.14525000       2.0972500    -0.061500000       342.06200       2.5916515     0.016506734
       3545.0000       291.37506       99537.926       8123.9212    -0.084500010       1.3335000      0.43750000       342.59000       2.6591123     0.025225165
       3550.0000       291.40606       99534.873       8172.8289     -0.46225000       1.3255000      0.28250000       342.68700       3.6238726     0.029480586
       3555.0000       291.42477       99533.056       8207.4869     -0.58300000       2.7235000      0.22575000       342.76900       3.6607180     0.016892187
       3560.0000       291.45735       99520.672       8253.5919      0.76450000       1.2305000      0.66050000       342.75200       2.7922199     0.013660865
       3565.0000       291.47611       99526.755       8240.4555       1.1170000       2.1055000     -0.16550000       342.57700       2.8337512     0.023415620
       3570.0000       291.46190       99555.034       8180.0430     -0.14525000       3.2717500     -0.46525000       342.16300       3.1996186     0.013388437
       3575.0000       291.40857       99539.114       8076.5250      0.57175000       1.8972500     0.095000010       342.83600       3.7673429     0.029907099
       3580.0000       291.36095       99535.016       8007.3072     -0.25850000       2.6920000     -0.41175000       342.04000       8.3867911     0.021081980
       3585.0000       291.24440       99519.245       7953.3873    -0.051750000       1.6647500      0.49875000       342.51600       4.8755766     0.018103062
       3590.0000       291.14405       99515.334       7880.7929      0.93800000       1.8685000    -0.012500000       342.81100       2.4063163     0.011126702
       3595.0000       291.05600       99521.283       7808.9240     -0.37200000       1.4542500      0.72075000       342.77300       2.5010063     0.016781893
       3600.0000       290.99601       99548.593       7757.3963      0.82450000       3.1027500     -0.39225000       341.88500       6.7428049     0.014876130
       3605.0000       290.94723       99549.994       7689.8196       1.3680000       2.0807500     0.079250000       342.56100       5.8041199     0.014302944
       3610.0000       290.89413       99548.445       7587.5180      0.34350000       3.1692500     -0.22675000       342.20600       3.8931147     0.016254092
       3616.0000       290.85111       99521.793       7550.0256      0.39875000       2.7987500     -0.46425000       342.58500       2.2082700     0.017223254
       3621.0000       290.84198       99515.338       7534.9255      0.50625000       1.4352500     -0.14325000       342.54800       3.6161122     0.018040880
       3626.0000       290.84393       99522.511       7571.5282      0.58750000       1.8027500      0.36575000       342.76900       4.8497421     0.019194568
       3631.0000       290.84533       99524.782       7570.3347      0.91850010       1.5235000     -0.15600000       343.02200       2.3325938     0.026579643
       3636.0000       290.86185       99541.608       7519.1703      0.76475010       1.3285000      0.16475000       342.68000       3.0678562     0.012024608
       3641.0000       290.90276       99543.860       7540.4974       1.5817500       1.8360000     -0.11550000       342.25700       10.540586     0.016916019
       3646.0000       290.96661       99527.410       7578.0053      0.70300000       1.1847500     -0.19900000       342.46100       6.6676826     0.016615340
       3651.0000       291.00673       99523.677       7634.3019      0.79275010       1.1032500     -0.40400000       341.70100       4.3504890     0.018307685
       3656.0000       291.07939       99515.980       7807.4139      0.80300000       1.0960000     -0.16275000       341.73600       4.6225718     0.017180745
       3661.0000       291.11724       99517.736       7886.8648       1.0310000       1.0777500     -0.18925000       341.79700       4.6451415     0.018551964
       3666.0000       291.09991       99542.889       7918.9996      0.45525000       1.5102500    -0.074500000       341.94700       3.6685775     0.013929967
       3671.0000       291.09995       99549.407       7932.7277      0.41050000       1.3265000     -0.41750000       342.10000       2.8667315     0.012357735
       3676.0000       291.09984       99551.413       7867.6023      0.33325000      0.91300000    -0.064250000       342.50700       2.1436291     0.020490926
       3681.0000       291.09972       99547.681       7845.7285      0.76875000      0.71075000     -0.16925000       343.07500       2.6110033     0.020444913
       3686.0000       291.08565       99517.265       7831.1813      0.49400000      0.64350000     -0.13425000       341.78200       10.018356     0.029112879
       3691.0000       291.09718       99510.246       7818.8529      0.25525000      0.52200000     -0.21800000       341.82000       4.6511934     0.029392139
       3696.0000       291.14787       99516.866       7829.3351      0.23100000      0.56075000      0.14400000       342.44500       10.383001     0.037727960
       3701.0000       291.15638       99519.221       7829.4709      0.92800000      0.34225000     0.048000000       341.99200       4.8060998     0.034007882
       3707.0000       291.13065       99542.279       7780.1230      0.85275010       1.2087500     -0.20700000       342.03100       4.3604959     0.031532325
       3712.0000       291.15423       99544.779       7815.5840      0.63500010      0.67500000     -0.25950000       342.12600       4.3257280     0.029332432
       3717.0000       291.18106       99526.243       7937.8771       1.1275000      0.57475000      0.20775000       342.56000       7.0660866     0.041491670
       3722.0000       291.20459       99523.021       7979.9785      0.93325010       1.1652500     -0.20550000       343.01100       9.8737704     0.017192137
       3727.0000       291.28997       99518.052       8069.3028      0.35250000      0.97300000      0.18750000       342.99600       4.0995789     0.013240891
       3732.0000       291.32241       99518.503       8075.5975      0.16675000       1.2227500     -0.32950000       341.93200       3.8545879     0.011344119
       3737.0000       291.29953       99534.318       7941.5956      0.74300000       1.2720000      0.11175000       342.77900       2.8612349     0.028435143
       3742.0000       291.29941       99538.178       7900.0586      0.51725000       1.3380000     0.082750010       342.47100       3.3030747     0.013221127
       3747.0000       291.31314       99539.901       7846.3473      0.54275000       1.2007500     -0.37025000       341.86800       3.5647714     0.028274968
       3752.0000       291.29947       99535.454       7859.2661      0.83500000       1.0010000    -0.058750000       342.36300       3.2801346     0.011405058
       3757.0000       291.28698       99515.322       7982.5623      0.55750000      0.69150000      0.13800000       342.31400       10.920648     0.027144731
       3762.0000       291.23973       99511.737       8017.1854      0.31875000       1.3820000     -0.12475000       342.00800       4.7673633     0.040542861
       3767.0000       291.12869       99511.951       8042.3579    -0.066000000       1.1895000     0.019250000       342.12600       4.0240799     0.032221981
       3772.0000       291.07285       99514.456       8059.9966      0.92925010       1.4182500    -0.027000000       342.45600       3.2683707     0.032272530
       3777.0000       290.98281       99536.451       7991.0543       1.8822500       1.1677500      0.24650000       341.92400       2.1219409     0.018295354
       3782.0000       290.97844       99539.027       8005.7258       1.3710000       1.7847500     -0.10500000       342.04400       2.0327979     0.016733007
       3787.0000       291.07629       99528.224       8101.0799      0.83525000       1.3027500     -0.23100000       342.18100       2.0703137     0.032690300
       3792.0000       291.11645       99523.820       8135.7720      0.98500010       1.0987500     0.038750000       342.87100       2.1116733     0.028164305
       3798.0000       291.17661       99507.005       8169.9982       1.2867500      0.98975000      0.11625000       342.87500       5.5331104     0.030890188
       3803.0000       291.23647       99507.700       8204.7470       1.1225000      0.85975000     -0.29875000       341.82600       3.7347718     0.010814099
       3808.0000       291.27344       99523.057       8218.3158      0.87700000      0.97725000     0.045000000       342.19200       6.8845978     0.036772063
       3813.0000       291.32924       99529.013       8228.0923      0.44575000      0.91900000      0.35475000       343.14700       4.8903695     0.013862136
       3818.0000       291.41767       99543.517       8249.5592       1.1310000       1.6837500     -0.22900000       342.09200       5.9379656     0.025477380
       3823.0000       291.49706       99542.879       8269.3069      0.72750000       1.6277500     -0.15100000       342.08600       2.1840081     0.013299141
       3828.0000       291.58129       99525.773       8248.4336      0.86500010      0.82625000    -0.039250000       342.13300       2.0724140     0.011493305
       3833.0000       291.63501       99523.054       8278.8788      0.74550000       1.2915000      0.24775000       342.57900       2.7779787     0.014188636
       3838.0000       291.69730       99515.743       8373.9044       1.1415000       1.2885000     0.094000000       342.87200       2.0667210     0.017334955
       3843.0000       291.72500       99520.489       8400.7168       1.3905000       1.1570000     -0.16450000       342.10300       6.0328536     0.027391972
       3848.0000       291.72252       99546.223       8429.5479       1.5727500       1.3795000     -0.11325000       342.97300       4.3433881     0.011283579
       3853.0000       291.69044       99550.157       8410.2760       1.6102500       1.5435000     -0.12000000       342.70700       5.1603745     0.021077207
       3858.0000       291.63881       99550.664       8332.6651       1.5092500       2.5712500     -0.22725000       342.19500       3.7955474     0.025110495
       3863.0000       291.56706       99543.878       8267.6155       1.9792500       1.9460000     -0.40025000       342.59600       3.6584809     0.015519394
       3868.0000       291.43054       99514.709       8180.3170       1.4992500       2.2527500    -0.044250000       342.49200       5.6661912     0.032008933
       3873.0000       291.34655       99509.593       8101.0688       1.8012500       2.5165000     -0.30025000       342.33700       7.2779085     0.024028638
       3878.0000       291.24889       99511.959       8004.6549     -0.20850000       1.0830000      0.33825000       343.56300       6.6157543     0.016529854
       3883.0000       291.21759       99515.419       7941.1263      0.80450000       1.7032500    -0.025250000       342.92900       4.6162257     0.036501726
       3889.0000       291.25237       99537.009       7877.3764      0.29900000       2.1380000      0.28225000       342.62200       6.0444773     0.036582289
       3894.0000       291.24227       99540.538       7838.8820      0.77725010       2.2970000      0.23075000       342.59800       7.2518772     0.021475143
       3899.0000       291.27433       99537.747       7828.3877      0.98950000       2.5110000     -0.79275010       342.76700       8.6787806     0.016933313
       3904.0000       291.22815       99533.142       7802.0434       1.0272500       1.2317500     0.026500000       343.46300       4.4176171     0.018971682
       3909.0000       291.11433       99518.109       7779.2011      0.53250000       1.6345000      0.40775000       343.57400       2.4167789     0.015318565
       3914.0000       291.04464       99518.530       7749.2904      0.36475000       2.0172500      0.21425000       343.50800       6.0235051     0.012991866
       3919.0000       290.95851       99521.172       7709.0191      0.33600000       2.0307500     0.015500000       342.42900       7.0745817     0.018682137
       3924.0000       290.89702       99528.715       7690.6063       1.1137500       1.7232500     -0.46600000       341.98000       2.8732249     0.032876422
       3929.0000       290.84278       99552.898       7671.2918      0.61450000       1.6837500      0.46975000       342.84300       7.5988272     0.016743897
       3934.0000       290.83022       99554.708       7675.0829      0.64900000       2.6735000     -0.63675000       342.17900       7.3236807     0.016030507
       3939.0000       290.84400       99548.682       7706.4352      0.59650000       2.1677500     -0.12425000       342.50500       5.2459631     0.022451529
       3944.0000       290.85281       99541.248       7722.2604     0.096750010       1.5440000     -0.55875000       342.50600       2.7413403     0.016948161
       3949.0000       290.87582       99518.372       7731.8958      0.55300000       3.4905000     -0.41225000       342.67800       4.2480431     0.018927812
       3954.0000       290.94266       99514.717       7773.0597    -0.024250000       3.2867500     -0.29225000       342.61000       2.5846757     0.012975464
       3959.0000       291.03592       99515.906       7820.6894      0.60725000       3.4987500     -0.27400000       341.84700       4.6298559     0.011558974
       3964.0000       291.09646       99523.431       7884.7378      0.46000000       1.8242500      0.40050000       342.67800       3.0134520     0.010372096
       3969.0000       291.18240       99546.473       7977.3039      0.86275010       2.2302500      0.11875000       342.69000       3.9862547     0.023291108
       3975.0000       291.30713       99555.691       8134.1588     -0.10800000       1.7122500      0.38375000       343.11500       2.4288772    0.0096214719
       3980.0000       291.35932       99554.625       8208.7403      0.93175010       2.4942500     -0.42900000       342.46900       3.0943125     0.011182487
       3985.0000       291.45582       99526.482       8279.6082     -0.85675000       1.9797500      0.43375000       343.07800       2.2353944     0.012345558
       3990.0000       291.48096       99516.958       8303.5459     -0.51050000       2.3482500      0.44675000       343.43700       2.8012262     0.011900685
       3995.0000       291.38518       99513.724       8234.8934     -0.23450000       2.6565000     -0.32075000       342.27800       3.3691799     0.014859893
       4000.0000       291.30713       99512.043       8175.9690       1.1865000       2.1537500    -0.056000000       343.00100       6.1100138     0.013624671
       4005.0000       291.21673       99516.499       8105.3413       1.5385000       1.9815000     -0.57925000       342.78000       3.5500918     0.011101065
       4010.0000       291.08300       99537.044       8008.3138       1.1125000       1.4765000     0.016500000       342.82900       2.7883432     0.011305365
       4015.0000       291.04669       99541.597       7950.6982       1.0187500       1.1470000      0.14825000       342.90900       5.2544704     0.012896597
       4020.0000       291.03843       99542.826       7894.2441      0.55400000       1.6867500     -0.36350000       342.89700       2.3777220     0.011482904
       4025.0000       291.10012       99531.234       7885.3588      0.41100000       1.7755000      0.22500000       343.20300       4.6562069     0.012888148
       4030.0000       291.11325       99525.160       7865.4793      0.71450000       2.6660000     -0.62100010       342.89500       3.2845163     0.012168994
       4035.0000       291.06992       99510.161       7835.2896      0.71525000       3.8202500     -0.99000010       342.15600       2.5673429     0.013849995
       4040.0000       291.05024       99506.469       7826.8825   0.00075000000       3.6462500     0.013250000       342.81400       2.9851747     0.014051236
       4045.0000       291.03057       99510.165       7828.1852      0.23300000       2.6445000     -0.60875000       342.47800       2.7855292     0.013986511
       4050.0000       290.99400       99524.884       7832.2077      0.20350000       2.5567500     -0.60225000       342.98600       3.8510164     0.013796838
       4055.0000       290.98553       99530.879       7844.6929     -0.74625000       3.2490000     -0.45150000       342.08300       2.5590459     0.021372232
       4060.0000       290.99978       99544.109       7878.4527      0.10675000       2.3235000      0.12100000       342.37200       5.8824095     0.020573745
       4066.0000       291.00019       99529.934       7901.4172     -0.35650000       3.0970000     -0.18875000       342.45600       2.5406429     0.013990284
       4071.0000       291.00034       99523.916       7914.3544      0.34350000       3.3280000    -0.044750000       342.23400       2.2706121     0.020964839
       4076.0000       290.99986       99508.746       7931.2153      0.87525000       1.6947500    -0.015250000       342.76300       2.2244121     0.017244780
       4081.0000       290.99971       99506.532       7936.6706     -0.23975000      0.98350010      0.53175000       343.27900       6.2343613     0.016200677
       4086.0000       290.98556       99526.197       7898.6564      0.62625000       1.4660000     0.047250000       343.20900       2.2336461     0.013135555
       4091.0000       290.99660       99527.701       7913.8231       1.0602500       1.2592500     -0.11350000       342.69500       4.5819231     0.014120595
       4096.0000       291.01817       99518.256       7963.2999      0.12975000       1.0827500      0.53925000       342.70800       2.5902959     0.013275626
       4101.0000       291.04935       99520.413       8000.1100      0.65200000       1.6692500     -0.24325000       343.40900       2.8189321     0.014498292
       4106.0000       291.13822       99523.663       8084.3283     -0.50050000       1.2017500     -0.21650000       343.21100       3.8027542     0.012551772
       4111.0000       291.16621       99519.633       8130.1666     -0.25675000       3.0645000    0.0072500000       342.84500       3.6158391     0.011752945
       4116.0000       291.16967       99521.051       8153.4266     -0.85600010       1.9322500      0.70275000       342.94400       4.0558855     0.031718666
       4121.0000       291.15734       99521.662       8152.7894     -0.85575000       2.2430000     0.082000000       342.42200       9.3223452     0.019390807
       4126.0000       291.08984       99503.234       8127.4673      0.27250000       2.3690000      0.36450000       342.87100       4.4707875     0.033819539
       4131.0000       291.04030       99501.127       8094.3072      0.75700000       1.2947500      0.26800000       343.47600       3.1735711     0.033099843
       4136.0000       290.96165       99519.365       8010.6028      0.58825000       3.7335000     -0.55400000       341.75900       3.0925361     0.019929103
       4141.0000       290.93435       99527.230       7964.8981      0.39350000       1.8825000     -0.36025000       342.64700       3.4800867     0.019666146
       4146.0000       290.95859       99541.518       7950.0379       1.9347500       3.4210000     -0.74175010       342.53400       2.9776025     0.033653450
       4151.0000       290.94870       99543.801       7908.7112       1.1202500       3.1647500     -0.50400000       341.71700       2.8019341     0.016239307
       4157.0000       290.94324       99529.794       7849.1588     -0.26000000       3.1950000     -0.18550000       341.73300       3.8176026     0.020394573
       4162.0000       290.95302       99522.333       7817.7634      0.88550000       3.0210000     -0.15900000       343.03900       2.7274700     0.017962130
       4167.0000       290.95606       99504.182       7771.9258     -0.19050000       2.6822500     -0.55450000       342.28900       6.8857423     0.019385412
       4172.0000       290.94626       99501.608       7745.2542       1.0610000       3.7760000     -0.30225000       342.06500       3.8638182     0.020464021
       4177.0000       290.95728       99510.728       7745.9612      0.69450000       2.3067500      0.14875000       342.26900       7.8495255     0.035905438
       4182.0000       290.95385       99516.355       7749.6725       1.7545000       2.6242500    -0.020750000       342.32700       6.0868559     0.021580085
       4187.0000       290.91869       99533.661       7760.5478    -0.089500000       2.0285000      0.39250000       342.82400       6.9968394     0.014386379
       4192.0000       290.88874       99539.071       7766.9369      0.44375000       2.0720000     -0.64400010       342.33100       2.4536326     0.014104611
       4197.0000       290.86218       99539.690       7787.5340       1.4450000       2.1332500     0.012500000       342.66200       4.4436377     0.012505757
       4202.0000       290.84215       99535.164       7799.3183       1.8670000       2.4602500     -0.11600000       342.80200       2.6710166     0.012145189
       4207.0000       290.79182       99519.156       7794.6348       1.4517500      0.72975000      0.45925000       343.12000       3.8855265     0.019395298
       4212.0000       290.78895       99511.470       7801.9714       2.1377500       2.0995000      0.10425000       342.46600       2.3367083     0.016165249
       4217.0000       290.82526       99498.035       7818.7061       3.2225000       1.7787500     -0.38775000       342.77600       2.0530554     0.018783464
       4222.0000       290.85877       99497.358       7831.8349       1.9175000       2.1532500     -0.43075000       343.20300       2.3578454     0.030345065
       4227.0000       290.91974       99510.311       7837.9757       1.5835000       2.8015000     -0.37700000       342.75100       2.3186040     0.012406957
       4232.0000       290.97013       99517.811       7860.7905       1.2157500       1.3192500      0.16875000       343.45400       2.3546734     0.012101442
       4237.0000       291.03276       99532.501       7901.1354      0.99800000       1.5550000     -0.18675000       343.07700       2.1684019     0.028353631
       4242.0000       291.06923       99539.414       7923.8714       2.5605000       1.9650000     -0.51950000       343.03200       2.1237167     0.028746842
       4248.0000       291.09994       99544.674       7963.3210      0.87025000       1.0902500      0.50750010       343.06700       2.0995321     0.019447684
       4253.0000       291.11401       99539.582       7969.8730       1.7257500       2.7622500      0.12675000       343.11700       2.1047085     0.018768313
       4258.0000       291.11150       99522.574       7953.3679       1.9682500       2.0517500    -0.048250000       342.31700       2.1170315     0.013383788
       4263.0000       291.09546       99516.371       7930.6426       1.9295000       2.2770000     -0.11175000       342.11100       2.0611159     0.010195340
       4268.0000       291.05845       99501.380       7886.9861       2.3667500       2.0267500     -0.10400000       342.64600       2.1327140     0.010190496
       4273.0000       291.03878       99502.655       7856.2823       1.6292500       1.8550000    -0.018750000       342.35900       2.0499695     0.011319263
       4278.0000       291.01262       99522.587       7808.9162       1.3530000       2.1937500     -0.18950000       342.33600       1.9209890     0.030627070
       4283.0000       290.98254       99529.995       7789.6064       2.3912500       1.6830000    -0.023000000       341.94400       1.9890252     0.012392629
       4288.0000       290.95840       99541.010       7789.7398       1.7992500       2.0262500     -0.17775000       342.12300       2.0035326    0.0090991359
       4293.0000       290.93843       99543.544       7786.3851       1.8372500       2.0625000     -0.20100000       342.35400       1.9643866     0.013685895
       4298.0000       290.90048       99539.236       7796.5656       1.2695000       1.2077500      0.12500000       342.71400       1.9657697     0.013591006
       4303.0000       290.88658       99532.336       7798.9074      0.57975000       2.0572500      0.34425000       343.10100       1.9303773     0.023669882
       4308.0000       290.87774       99517.985       7780.3629       2.2150000       1.5325000     0.034750000       342.78800       1.8884456     0.028117023
       4313.0000       290.90997       99510.765       7806.9156       1.8267500       2.6820000     -0.20275000       342.60100       1.9577143     0.012795790
       4318.0000       290.98223       99496.867       7859.3611       2.0535000       2.1652500     -0.24275000       341.79300       1.9941554    0.0092147413
       4323.0000       291.02252       99497.730       7902.3964       1.3310000       1.8900000     -0.53825000       342.28800       1.9970647    0.0096785792
       4328.0000       291.08726       99511.822       7971.7097       1.7342500       1.7392500    -0.097000000       342.40900       2.0050025    0.0088307109
       4333.0000       291.13139       99519.524       8028.6737       1.7257500       1.6112500    -0.050000000       341.88300       2.0273104     0.010244706
       4339.0000       291.13803       99535.885       8076.0721       2.5135000       1.9555000    0.0075000000       341.99100       1.9821295     0.010254288
       4344.0000       291.17679       99541.232       8135.3423       1.7237500       1.8167500     -0.20350000       341.80100       2.0598712     0.012341889
       4349.0000       291.28490       99543.325       8243.5191       1.8592500       1.3237500     -0.22450000       342.52500       2.0345654     0.011173703
       4354.0000       291.24125       99538.855       8247.3471       1.6620000       1.7620000    -0.021000000       342.21400       1.9826291     0.014664408
       4359.0000       291.11968       99527.560       8209.7189       1.5267500      0.93875000      0.10225000       342.43300       2.0127670    0.0092843316
       4364.0000       291.05179       99519.787       8172.9220       1.6375000       1.0260000      0.21200000       342.40800       1.9798421     0.011884457
       4369.0000       290.87949       99502.252       8049.5298       1.9192500      0.97975000    -0.056500000       342.75400       1.9851375     0.012119398
       4374.0000       290.85409       99502.644       8027.9022       1.4467500       2.2277500     0.043000000       342.58200       2.0428481     0.012089298
       4379.0000       290.93759       99513.161       8044.9418       1.4410000       1.3017500      0.32575000       343.00800       2.0599598     0.013338519
       4384.0000       290.97666       99520.029       8081.0439       1.7580000       1.2572500      0.30300000       342.86500       2.0225223     0.015907949
       4389.0000       291.04972       99535.966       8181.6739       1.0980000       1.2027500     -0.18325000       342.94400       1.9940316     0.015215368
       4394.0000       291.08107       99541.435       8201.3861       1.2045000       1.1052500     0.062000000       343.18200       2.0107222     0.012617267
       4399.0000       291.09429       99543.341       8210.5470       1.2707500       1.6860000      0.17900000       342.78800       2.0622302     0.013231137
       4404.0000       291.12422       99538.910       8205.6940       1.7910000       1.4435000      0.21150000       342.83200       2.0293121     0.010249154
       4409.0000       291.14546       99527.580       8140.9952      0.56500000       1.9095000      0.25075000       341.95600       1.9903879     0.016392236
       4414.0000       291.16576       99519.543       8127.7094       1.5222500       1.6870000     -0.21175000       342.79300       2.0043756     0.010877838
       4419.0000       291.20235       99504.932       8140.8787       1.4212500       1.2517500      0.25300000       342.94300       1.9767635     0.014374332
       4424.0000       291.21353       99499.513       8135.8942       2.3927500       1.6245000      0.19625000       343.08000       2.1145368     0.016013495
       4430.0000       291.20001       99497.682       8134.6175       2.6702500       2.0567500      0.22400000       342.20000       2.0662395     0.012235204
       4435.0000       291.20020       99507.885       8092.5499       1.1820000       2.1095000     -0.85000000       342.41000       2.0321793     0.014128570
       4440.0000       291.20017       99514.713       8072.6375      0.69850000       1.5747500      0.34600000       343.24700       2.0277180     0.012571347
       4445.0000       291.18513       99528.810       8033.8355       1.3277500       1.2220000      0.28725000       342.72300       1.9996041     0.015574870
       4450.0000       291.19386       99537.139       8029.4105      0.29450000       1.7967500     -0.41675000       342.88400       2.0103095     0.029930222
       4455.0000       291.21493       99541.760       8049.7828       1.2442500       1.3132500     -0.15225000       342.14100       2.0386520     0.011402030
       4460.0000       291.24918       99542.985       8106.6997       1.4725000       1.8580000     -0.17325000       342.20900       2.0172644     0.029728228
       4465.0000       291.26935       99537.396       8141.3842     0.081000000      0.88900010      0.41975000       343.69300       2.0102341     0.014807540
       4470.0000       291.29996       99527.252       8202.0500      0.76800000       1.2175000      0.31525000       342.54800       2.0523377     0.028534572
       4475.0000       291.38953       99501.271       8213.8044      0.65850000       2.1015000     -0.19850000       341.93100       2.0651404     0.018894591
       4480.0000       291.37555       99491.350       8182.6137      0.38200000       2.1607500     -0.20400000       341.99800       2.0579125     0.016287879
       4485.0000       291.27938       99490.803       8066.6131      0.65825000       1.6195000      0.16775000       342.76800       1.9853015     0.028447405
       4490.0000       291.21210       99492.193       7990.7860      0.51925000       1.0170000     -0.25350000       342.04300       2.0603773     0.026552747
       4495.0000       291.12019       99499.721       7918.1273      0.53175000       1.4722500     -0.14100000       341.98300       1.9957907     0.025366458
       4500.0000       290.92565       99521.478       7825.5149      0.41025000      0.45650000      0.32500000       343.05700       2.0319644     0.026389359
       4505.0000       290.87110       99530.267       7767.6926       1.0915000      0.62900000    -0.019500000       342.90500       1.9728416     0.029812129
       4510.0000       290.88215       99537.138       7732.4766      0.72600000      0.29750000      0.35550000       343.19700       2.0486031     0.035475337
       4515.0000       290.94659       99538.560       7744.0011      0.69175000       1.0042500     -0.10025000       342.35600       1.9782366     0.033539061
       4521.0000       291.00700       99536.140       7758.7708      0.63825010      0.54450010     -0.11975000       341.91300       2.0463063     0.024779905
       4526.0000       291.10147       99525.829       7825.1818      0.82775000      0.57675000     -0.35350000       342.32600       1.9953228     0.028617849
       4531.0000       291.16945       99518.857       7872.0948      0.68275000      0.65700000      0.23025000       342.95500       2.0024925     0.023124832
       4536.0000       291.22426       99507.442       7912.1616       1.0845000      0.95625010     0.079750000       342.40300       1.9264752     0.031470317
       4541.0000       291.26287       99502.839       7940.3341       1.1460000      0.62625000      0.26800000       343.03300       2.0579853     0.023551282
       4546.0000       291.29028       99501.581       7944.6787       1.9942500       2.1257500     -0.84500000       341.95000       2.0124078     0.031493030
       4551.0000       291.30899       99503.918       7981.1377       2.2570000       2.1212500     -0.24700000       341.94700       2.0259602     0.032166856
       4556.0000       291.30024       99514.579       8041.4756       2.0100000       1.7597500     -0.32850000       342.00600       2.0201679     0.024965475
       4561.0000       291.30032       99521.572       8070.2621       1.5607500       1.9032500    -0.091500010       341.81500       2.0349505     0.016806336
       4566.0000       291.28577       99533.235       8125.8923       1.8137500       1.3772500      0.12375000       342.54400       2.0735702     0.033880958
       4571.0000       291.29673       99537.959       8140.8590       1.0172500      0.87100010    -0.044500000       342.47600       2.0894363     0.029317465
       4576.0000       291.34814       99538.672       8085.5278      0.90300010      0.99750010    0.0035000000       343.10200       2.0674049     0.029159454
       4581.0000       291.35667       99536.254       8059.1444      0.99175010      0.68025000      0.55775000       343.22300       2.0467876     0.031553278
       4586.0000       291.35687       99525.958       8015.5752       1.1182500      0.99450000      0.24725000       342.76700       1.9889435     0.044866853
       4591.0000       291.35525       99518.877       8003.0995       1.1960000       1.1345000     -0.13500000       341.83300       2.0628037     0.036185546
       4596.0000       291.29624       99508.974       7993.3200      0.79000000      0.96325000     0.040000000       341.85400       2.0835608     0.039535615
       4601.0000       291.28886       99503.276       8026.2798      0.84975000      0.29225000      0.21050000       342.68500       2.0197731     0.034209777
       4607.0000       291.33885       99496.998       8136.4032       1.0500000      0.58700000     -0.14900000       341.92400       2.0458087     0.018908337
       4612.0000       291.35893       99499.490       8203.1332      0.60900000       1.1035000     -0.42475000       342.07300       2.1000148     0.012524298
       4617.0000       291.39497       99511.801       8335.3000      0.80800000      0.92925010     0.080750000       342.33700       2.0979085     0.041022240
       4622.0000       291.41090       99517.786       8358.2010       1.1190000      0.42100000    -0.015000000       342.56000       2.0743111     0.031411087
       4627.0000       291.42561       99528.678       8314.4880      0.87325010      0.93450000     -0.22275000       342.38500       2.0011677     0.036506524
       4632.0000       291.39822       99533.468       8253.6668      0.79425000      0.67875000     0.082750010       342.44600       2.0369495     0.036111950
       4637.0000       291.29913       99533.016       8066.8404      0.76150010      0.79050000     -0.36950000       342.27700       1.9936652     0.026109368
       4642.0000       291.28671       99530.265       8000.7546      0.71375000       1.4785000    -0.018500000       342.59200       2.0429796     0.031781956
       4647.0000       291.31212       99523.955       7992.8547       1.6882500       1.0845000     -0.30400000       342.75200       2.0477992     0.033433602
       4652.0000       291.29164       99518.594       7959.0193       1.7447500      0.63425000     -0.30475000       341.83500       2.0262689     0.036440779
       4657.0000       291.31320       99507.391       7979.5144       1.2127500      0.49350000     -0.20450000       342.35800       2.0664727     0.017971813
       4662.0000       291.30596       99502.082       7969.1135       1.2407500      0.75050000     -0.18075000       341.92200       2.0415951     0.030624575
       4667.0000       291.23524       99499.440       7923.5579       1.2050000      0.93000010    -0.082000000       341.91900       2.0508660     0.021624701
       4672.0000       291.17547       99499.202       7880.2710       1.3330000      0.86000000      0.12175000       342.03900       2.0219677     0.033156763
       4677.0000       291.13859       99505.181       7846.1824       1.1015000      0.71825000    -0.071250010       341.97700       1.9963886     0.041143466
       4682.0000       291.08427       99505.735       7801.5025       1.1195000      0.86825000    -0.092250000       342.41400       2.0062980     0.034084817
       4687.0000       290.95990       99502.194       7706.3168       1.2732500      0.28325000      0.18450000       342.74600       1.9803527     0.023340264
       4692.0000       290.92118       99506.069       7677.7713      0.71625010       1.0430000      0.13575000       342.97000       2.0090173     0.026756974
       4698.0000       290.93185       99513.239       7687.0399      0.80125000      0.91925010      0.11500000       342.60500       1.9557818     0.029499722
       4703.0000       290.95419       99517.919       7700.1665      0.76825000      0.95400010     -0.20525000       341.85000       1.9911869     0.026731793
       4708.0000       291.03065       99532.389       7752.7471       1.0247500      0.81300000     -0.32550000       342.03800       1.9729869     0.038317513
       4713.0000       291.08030       99533.252       7789.6204       1.1635000     0.032250000     0.090500000       342.11000       2.0030306     0.024922866
       4718.0000       291.14096       99522.944       7828.1034       1.0307500      0.16025000     -0.28975000       342.06700       1.9601347     0.043776299
       4723.0000       291.17448       99517.358       7856.9497       1.0037500      0.53525000    -0.097000000       342.11200       1.9025285     0.046771770
       4728.0000       291.17566       99508.717       7874.2918       1.3115000      0.34525000      0.17850000       342.83500       1.9909918     0.043809403
       4733.0000       291.22200       99500.721       7918.5544       1.8075000      0.65625010    -0.019750000       342.14700       2.0010534     0.034612334
       4738.0000       291.29467       99488.964       7965.9302      0.67775010       1.0220000      0.21425000       343.28800       1.9898451     0.042015945
       4743.0000       291.31853       99488.591       8018.1514       1.1270000       1.3325000     -0.38450000       342.12300       2.0369073     0.011573699
       4748.0000       291.34539       99493.265       8101.3564       1.0770000       1.5300000    -0.093750010       342.10400       1.9687858     0.034704815
       4753.0000       291.36934       99496.514       8162.6701       1.0395000       1.4720000      0.24725000       342.90900       2.0392530     0.017139943
       4758.0000       291.35401       99507.802       8233.3047       1.4802500       1.5395000     0.040000000       342.23700       2.0817475     0.016042774
       4763.0000       291.34423       99515.125       8246.9420       1.6910000       1.1870000    -0.058500000       342.16000       2.0171686     0.033345182
       4768.0000       291.36961       99518.469       8250.8546       1.1302500       1.3812500     -0.32825000       342.92200       2.0443421     0.016701311
       4773.0000       291.34645       99522.479       8205.2650       1.5185000       2.0345000      0.16425000       342.75300       2.0064063     0.017957294
