MIRICO/SHELL project - Processed LDS file generated on
Thu Jul 20 19:02:02 2017
Time stamp for record start
05/12/2017  10:37: 7.0001
Nb of points in the record
         984
Beam position index
       1.0000000
Beam angle (degrees)
      -18.455000
Open Path length (m)
       34.890000
****************** Temporal data record ************************
Elapsedtime_sec Temp_K Press_Pa Humidity_ppmv WindX_m/s WindY_m/s WindZ_m/s Speedofsound_m/s CH4vmr_ppmv CH4vmrerror_ppmv  
      0.00000000       287.65721       98803.085       15096.698       4.1500000     -0.47275000     -0.22150000       340.70700       2.1228226     0.022183118
       9.9999860       287.65156       98786.780       15125.874       3.9800000      -2.3627500     -0.14000000       340.69300       2.0191175     0.011474559
       14.999999       287.56663       98790.345       15041.446       5.0417500      -2.2375000   -0.0070000000       340.74700       2.0020206     0.010117681
       19.999972       287.53079       98790.364       14989.634       5.0862500      -2.9770000      0.28100000       340.82900       2.0566626     0.012212674
       24.999985       287.49182       98787.599       14895.231       2.0217500     -0.76050000     -0.17150000       340.92700       1.9873919     0.011073486
       29.999998       287.48892       98790.263       14869.111       4.7395000      -1.7010000      0.50625000       340.61800       2.1480478     0.016891026
       34.999971       287.56427       98796.582       14910.544       2.6085000      -1.1227500      0.11600000       340.70000       2.0500900     0.013130227
       39.999984       287.55672       98802.052       14903.761       2.4690000      0.40000000    -0.028000000       340.84400       2.1093848     0.014438000
       44.999997       287.51897       98812.979       14913.050       2.0082500      0.35175000      0.59100000       340.94100       1.9761477     0.011750919
       49.999970       287.49543       98818.294       14909.086       3.0002500      -1.0120000      0.38750000       340.73900       2.0592130     0.012847934
       54.999983       287.40978       98819.781       14857.022       3.5317500     -0.16125000      0.21800000       340.86700       2.0106816     0.010828254
       59.999996       287.37689       98821.430       14836.347       2.3777500    -0.011000000      0.60875000       340.85700       2.0242042     0.011668743
       65.000010       287.40002       98820.378       14847.283       3.7360000     -0.15375000      0.80300000       340.76200       2.0633235     0.011831290
       69.999982       287.40002       98820.419       14839.297       3.3630000     -0.47825000     -0.50725000       340.70900       2.0174528     0.011964033
       75.999990       287.39985       98821.502       14826.085       3.2750000      0.67900000      0.14550000       340.86500       2.0404961     0.010587073
       81.000003       287.39990       98819.884       14806.104       4.6355000       1.2225000    -0.051500000       340.71700       2.0228634     0.011453671
       85.999976       287.40080       98818.433       14765.934       4.5407500      0.47100000      0.12350000       340.74500       2.0123068     0.012834226
       90.999989       287.40115       98813.207       14757.155       2.9542500     -0.65075000      0.42500000       340.90000       2.1952613     0.025988835
       96.000002       287.41141       98802.809       14755.216       3.3485000     -0.40400000     -0.17525000       340.76800       1.7981935     0.027954402
       100.99998       287.39533       98795.779       14757.914       2.9777500     -0.64625000    -0.026250000       340.82200       2.0980965     0.014625894
       105.99999       287.36892       98785.233       14804.945       2.2205000     -0.97125010     0.016250000       340.64300       2.0275034     0.010242961
       111.00000       287.33285       98782.225       14789.070       1.5022500     -0.18500000     -0.11525000       340.81400       2.0763135     0.013302683
       115.99997       287.25863       98781.270       14737.005       3.5395000     -0.37800000      0.60950010       340.87900       2.0759604     0.012966473
       120.99999       287.22477       98786.693       14696.507       4.0812500     -0.59775000     -0.47500000       340.55200       2.0898976     0.012687726
       126.00000       287.18971       98800.164       14612.440       1.8830000     -0.39350000      0.49700000       340.84200       2.0862645     0.013635261
       130.99997       287.19266       98810.859       14582.437       2.4640000     -0.45375000      0.52325000       340.86400       2.0004256     0.010177444
       135.99999       287.25289       98828.338       14594.038       4.5135000      0.40850000      0.87100010       340.67300       2.0221755     0.011409506
       141.00000       287.25661       98836.592       14573.596       4.6315000      -1.4665000     -0.25250000       340.52800       2.1070926     0.012012434
       145.99997       287.25685       98842.319       14552.555       5.0890000     -0.37175000     -0.17825000       340.63400       2.0587360     0.011256838
       150.99999       287.25080       98841.884       14542.858       3.8332500     -0.78750000     0.058000000       340.69000       2.0880151     0.010711361
       156.00000       287.20075       98831.811       14514.191       3.4362500      -1.4447500     -0.22600000       340.58000       2.0927377     0.016617502
       160.99997       287.18706       98827.826       14513.717       3.6512500      0.41525000      0.37450000       340.72800       2.0999304     0.013161856
       166.99998       287.20899       98820.747       14566.081       3.9135000     -0.32875000     -0.32700000       340.67700       2.0993665     0.013256233
       171.99999       287.18979       98816.658       14552.365       3.2952500     -0.67275010     -0.17250000       340.67000       2.0529184     0.011783696
       177.00001       287.15426       98817.258       14515.281       2.6472500      -1.3552500     0.046500000       340.77500       2.1991666     0.022782598
       181.99998       287.13435       98811.410       14491.065       4.2302500     -0.88625000     -0.11525000       340.57300       2.0727569     0.012671656
       192.00000       287.10489       98794.445       14428.867       4.5220000     -0.34050000     -0.26650000       340.73500       2.1123363     0.014267287
       196.99998       287.19255       98781.493       14488.850       4.3212500     -0.31975000      0.52975000       340.47200       2.0850468     0.014388835
       201.99999       287.23218       98784.732       14511.057       3.6510000     -0.22525000     -0.30400000       340.59700       2.0078601     0.011042431
       207.00000       287.30564       98798.376       14553.842       3.3432500      -1.7505000     -0.11275000       340.71600       1.9269841     0.010640153
       216.99999       287.29097       98819.649       14552.023       4.9990000      -1.3415000      0.48850000       340.60700       2.0185866     0.013581509
       222.00000       287.31006       98827.885       14585.423       5.9837500      -1.8467500     -0.44025000       340.38900       1.9203242     0.018614161
       226.99998       287.35473       98829.359       14654.709       4.4722500      -2.6305000      0.70450000       340.58500       1.9960436    0.0092749480
       231.99999       287.35601       98833.329       14678.883       3.7507500      -2.3750000      0.39575000       340.34400       2.1226263     0.011211619
       237.00000       287.35633       98842.628       14707.494       2.8890000      -1.1655000     0.089750010       340.53700       2.0089865    0.0087699874
       241.99997       287.34764       98841.155       14721.485       3.4730000      -2.1720000     -0.32275000       340.51200       2.0509171     0.012765553
       246.99999       287.28773       98832.191       14689.571       4.0697500      -1.2605000      0.13000000       340.62300       2.1059076     0.014224145
       252.00000       287.29491       98826.423       14706.560       3.1812500      0.11500000      0.13975000       340.44100       2.0297823     0.010126869
       258.00001       287.34922       98815.365       14760.629       3.2060000      -1.1417500     -0.77875010       340.41000       2.1180603     0.014511723
       262.99998       287.36947       98807.296       14780.977       4.2090000      -1.6385000     -0.21400000       340.56000       2.1045469     0.014242093
       267.99999       287.40536       98799.522       14809.824       2.6975000     -0.23675000      0.18125000       340.70200       1.9662236     0.012265638
       273.00001       287.38502       98785.811       14760.930       4.6022500     -0.83500000     -0.35600000       340.55800       2.0775210     0.015059728
       277.99998       287.39357       98785.845       14759.885       4.1947500      -1.0360000     -0.25500000       340.51000       2.0673460     0.010715208
       282.99999       287.43041       98812.971       14779.103       4.0282500     -0.77925000     -0.10900000       340.46600       1.9422327     0.012619342
       288.00001       287.45018       98818.478       14797.865       3.7835000      0.15525000      0.19250000       340.50500       2.0381828     0.010244844
       292.99998       287.48505       98814.771       14844.851       2.7092500     -0.66325000      0.40375000       340.47800       1.9303609     0.011873525
       297.99999       287.50621       98817.150       14902.283       1.8397500     -0.18600000      0.82025000       340.88900       2.0432087     0.011124954
       303.00001       287.51508       98815.835       14965.132       4.3375000     -0.73350010     -0.16000000       340.59600       2.0672230     0.012362014
       307.99998       287.51380       98796.170       15037.040       2.4815000      -1.1437500     0.095000010       340.78000       2.0241650     0.010161304
       312.99999       287.47095       98797.987       15055.094       3.1100000      -1.5795000      0.37925000       340.60900       2.1421954     0.025285490
       318.00001       287.40038       98818.082       15080.647       3.2607500      -1.6330000     -0.20875000       340.57300       2.1048203     0.014674903
       322.99998       287.31525       98809.511       14994.756       3.0840000     -0.37950000      0.34525000       340.73500       1.9872902     0.010421412
       327.99999       287.28060       98805.567       14936.335       4.4897500      -1.7410000     -0.17575000       340.64600       2.0302617     0.011336248
       333.00000       287.33005       98794.739       14879.706       3.2557500     -0.40050000      0.51575010       341.01400       2.0048383     0.013160702
       337.99998       287.34970       98788.407       14827.299       2.9545000     -0.54025000      0.40150000       340.85600       1.9996338     0.010541238
       342.99999       287.36930       98785.742       14780.354       3.7905000      0.94850000     -0.50975000       340.50900       1.9940054     0.010391349
       349.00000       287.40263       98789.300       14726.426       4.4015000      0.11950000     -0.50800000       340.49800       2.0134436     0.010728579
       353.99997       287.46842       98797.661       14769.090       3.2005000      -1.0000000      0.12075000       340.72200       2.0652637     0.013514641
       358.99998       287.50873       98805.987       14804.087       4.1722500       1.1092500      -1.3737500       340.57400       2.0060130     0.011985561
       364.00000       287.59523       98827.219       14916.423       2.0607500      0.27700000      0.79650000       341.10600       2.0285782     0.010379998
       368.99997       287.62195       98834.693       14973.548       3.8312500     -0.20350000     -0.40225000       340.66400       2.1285104     0.015155162
       373.99998       287.56581       98832.852       14964.010       2.7810000     -0.35750000      0.75325010       340.98500       2.0423006     0.013453202
       379.00000       287.54598       98831.411       14998.263       4.1402500    -0.098500010    0.0022500000       340.55600       2.0308199     0.010870495
       384.00001       287.51005       98821.740       15045.326       3.6660000      0.43450000      0.19775000       340.72100       2.0382440     0.015943877
       388.99998       287.49146       98813.799       15081.489       2.3427500     -0.47925000      0.52025000       341.02400       2.0701618     0.013966712
       394.00000       287.51441       98804.521       15182.485       2.9997500     -0.35825000     0.066500000       341.06600       2.0465671     0.011737782
       399.00001       287.50281       98798.581       15193.849       3.5732500     -0.65775000     -0.43325000       340.55700       2.0910074     0.013070564
       403.99998       287.45247       98788.185       15118.823       3.4487500     -0.63225000     0.064000000       340.72500       2.0039479     0.012841170
       408.99999       287.44392       98787.852       15077.562       3.1115000    -0.078250010     -0.22650000       340.72200       1.9645771     0.012794640
       414.00001       287.41603       98797.968       14963.662       3.3400000     -0.11775000     -0.72875010       340.53600       2.0212493     0.010758761
       418.99998       287.43913       98806.273       14925.685       2.8037500      -1.2735000      0.18500000       340.99400       2.0752849     0.014143297
       423.99999       287.55834       98824.164       14958.674       2.2810000      -1.2660000      0.50625000       341.16500       2.0206240     0.011267069
       429.00001       287.61638       98833.695       14981.360       2.6390000    -0.090000000      0.20575000       341.19400       2.0904312     0.013050929
       433.99998       287.69551       98842.738       15060.102       3.5297500      -1.8130000    -0.010000000       340.75000       2.0114527     0.011751693
       439.99999       287.72182       98842.298       15099.523       2.0475000     -0.86425010      0.38525000       340.96000       2.0892089     0.016211472
       445.00000       287.64962       98831.570       15093.099       2.9832500      -1.0445000     -0.63000010       341.02000       2.0719776     0.013206748
       449.99997       287.64371       98822.839       15121.276       2.3987500       1.1192500      0.28300000       341.44000       2.0586424     0.012039746
       454.99999       287.63040       98803.925       15128.969       2.8365000     -0.13425000      0.34100000       341.19500       1.8921500     0.019656632
       460.00000       287.64769       98795.007       15177.524       2.0060000     -0.46850000    -0.068000000       341.27400       2.0443875     0.011219492
       464.99997       287.73354       98787.525       15296.901       2.7692500      0.19125000     -0.25300000       340.87800       2.0872688     0.014764224
       469.99999       287.76938       98788.497       15360.312       3.4257500     -0.12375000     -0.21650000       340.63600       2.1566319     0.016742181
       475.00000       287.76861       98799.028       15416.868       3.3342500      0.18675000      0.83825000       341.27200       2.0664965     0.013942456
       479.99997       287.81191       98807.677       15461.457       1.8097500      0.11375000     0.067750010       341.06400       2.1623818     0.023590250
       484.99998       287.87420       98826.161       15469.256       2.7510000     -0.37375000     -0.25600000       341.22100       1.9954907     0.012104952
       490.00000       287.91426       98834.981       15490.912       2.8855000     -0.64850000    -0.044500000       340.98000       2.0524479     0.012582017
       494.99997       288.00189       98841.728       15535.651       2.8167500     -0.73150000      0.71900000       341.21900       2.0422991     0.013436949
       499.99998       288.02113       98842.239       15539.038       2.7457500      -1.1790000     0.020000000       341.23100       2.1148647     0.020544462
       505.00000       287.97463       98836.403       15521.194       4.4502500      0.18050000     -0.15300000       340.96600       2.1156542     0.014584934
       509.99997       287.94100       98828.276       15494.141       3.3745000      0.12775000    -0.017250000       340.92700       2.0241828     0.011498134
       514.99998       287.85385       98809.748       15422.843       3.5245000      0.49550000     -0.19800000       340.98500       2.1282148     0.022748426
       520.00000       287.83147       98800.562       15382.644       2.2355000     -0.20575000     -0.21575000       341.05000       2.0677829     0.019367892
       526.00000       287.86549       98788.045       15366.355       2.9155000     -0.14900000      0.14450000       341.30000       1.9684670     0.011785880
       530.99998       287.83927       98787.247       15306.259       2.6752500      0.30550000     0.012250000       341.13200       1.9818919     0.012008773
       535.99999       287.79287       98795.323       15197.090       3.1937500      0.67800000     0.057000000       341.04400       2.0480353     0.012269480
       541.00000       287.79948       98804.237       15170.351       4.3432500      0.18825000      -1.0922500       341.07200       2.1425285     0.017478511
       545.99998       287.75281       98825.171       15122.169       3.8965000     -0.22200000     -0.25725000       340.75500       2.0043902     0.012749515
       550.99999       287.81374       98830.691       15155.954       3.0760000      0.44350000      0.72800000       340.81400       2.0544637     0.011152849
       556.00000       288.00335       98835.145       15299.878       2.7370000       1.8535000      0.13175000       341.12200       2.0261613     0.012879446
       560.99997       288.12233       98830.418       15403.535       2.5705000     -0.17750000      0.22800000       341.28500       2.0164280     0.012466434
       565.99999       288.30396       98807.792       15524.922       3.2532500     -0.91775010     -0.30575000       341.38800       1.9967376     0.014561625
       571.00000       288.35292       98799.081       15643.008       4.0097500     -0.37575000     -0.69900010       340.96900       1.9483770     0.013932464
       575.99997       288.30440       98790.470       15774.994       2.6785000      -1.0402500      0.13750000       341.20900       2.0029308     0.011758368
       580.99999       288.30773       98786.362       15886.355       3.9937500       1.1192500     -0.24150000       340.77900       1.9580773     0.013867036
       586.00000       288.26672       98787.023       16042.444       1.5710000     -0.44650000     -0.23775000       341.55000       2.0603043     0.012792748
       590.99997       288.22655       98791.980       16064.577       4.7007500     0.055250000      0.37850000       341.26800       1.8721081     0.025842101
       595.99999       288.22573       98800.743       16017.501       3.4167500     -0.44450000     -0.48275000       340.75800       2.0084429     0.011819995
       601.00000       288.18376       98809.934       15950.510       3.2900000      0.63775000     0.030000000       340.90000       2.1510615     0.012436188
       605.99997       288.05923       98830.787       15764.649       3.4947500      0.10875000     -0.30850000       341.24000       2.6476911     0.012730941
       610.99999       288.01195       98835.626       15653.246       5.0840000     -0.27700000    -0.041500000       340.93700       2.9752140     0.014332012
       616.99999       288.00652       98834.873       15549.967       4.3792500      0.36975000      0.86525010       340.86200       2.6057358     0.012691647
       622.00001       287.97652       98827.407       15439.747       4.4480000      0.73625000     -0.36375000       340.81000       2.4200815     0.013759730
       626.99998       287.95445       98805.976       15318.298       3.3605000     0.015750000    -0.056750000       341.30800       2.1599966     0.012712734
       631.99999       287.93468       98797.720       15219.666       3.3650000      0.31250000      0.51650000       341.53200       2.3403468     0.013015543
       637.00000       287.86977       98786.518       15091.108       3.4745000     -0.20400000     -0.10750000       341.28800       2.3819448     0.015405259
       641.99998       287.91448       98788.717       15053.131       3.0632500      0.86850010    -0.053750000       341.36700       2.3047206     0.012785841
       646.99999       288.02983       98802.614       15057.186       5.3212500      0.90625010     -0.51950000       340.72900       2.9239874     0.018539306
       652.00000       288.10805       98812.392       15098.328       4.6447500     -0.17475000      0.70900010       340.99100       2.6586987     0.015374842
       656.99998       288.26379       98832.194       15207.024       4.0745000      0.77625010      0.14650000       340.72500       2.1994610     0.012722500
       661.99999       288.29915       98835.852       15300.401       2.9827500      0.22250000      0.64250000       341.57800       2.1307169     0.016891694
       667.00000       288.24869       98832.932       15401.208       5.3595000     -0.15525000     0.099500010       340.77600       2.4329189     0.013850486
       671.99998       288.25868       98829.284       15553.441       5.0332500      0.86025010     -0.27025000       340.64700       2.2278225     0.012412709
       676.99999       288.23462       98816.969       15758.307       4.9195000     -0.20025000      0.12900000       340.90900       2.4826854     0.012879537
       682.00000       288.26217       98808.942       15896.646       4.2522500    -0.098000000     -0.32050000       340.63600       2.6274514     0.015625400
       686.99998       288.39509       98798.706       16119.756       3.0385000      0.46950000      0.42600000       341.18100       2.2579391     0.018026561
       691.99999       288.33355       98797.239       16111.475       2.5612500     -0.22975000      0.61025010       341.72900       2.7056447     0.015676282
       697.00000       288.19084       98796.385       15962.363       5.5760000   -0.0070000000      0.87550000       340.97900       2.9664754     0.017993358
       701.99997       288.06555       98803.740       15810.694       3.5415000     -0.73200010      0.26975000       341.29300       2.8875468     0.012370009
       707.99998       287.76398       98827.744       15470.136       2.9082500     -0.40250000      0.31900000       341.59800       2.5907772     0.012257797
       713.00000       287.70249       98831.258       15300.082       3.2620000     -0.78500000     -0.27275000       340.97300       2.1575056     0.011862493
       718.00001       287.73798       98832.746       15146.522       5.3575000      0.95250000      0.10850000       340.84500       2.3002693     0.023898338
       722.99998       287.79982       98823.076       15030.437       4.6347500      0.51475000     -0.47350000       340.69100       2.3817656     0.015660415
       727.99999       287.81254       98814.978       14922.701       5.0352500     -0.40575000    -0.035750000       340.77300       2.5479690     0.012676266
       733.00001       287.73976       98802.677       14806.741       3.9782500      -1.3472500       1.3605000       341.54500       2.4781691     0.015738568
       737.99998       287.73753       98798.377       14739.239       4.0115000     -0.59775000      0.33375000       341.37500       2.5000161     0.014872032
       742.99999       287.74505       98794.937       14697.291       3.3482500     -0.79150000     -0.33350000       340.55100       2.0843880     0.013229568
       748.00001       287.78076       98797.320       14689.831       3.5365000     -0.36400000      0.18475000       341.44400       2.0300516     0.014347545
       752.99998       287.85335       98805.856       14718.976       2.7775000      -1.7840000     -0.32175000       341.28800       2.0697264     0.014672317
       757.99999       288.01086       98827.696       14799.613       3.7305000      -1.5885000   -0.0072500000       341.70500       2.0689332     0.013048375
       763.00001       288.06873       98831.250       14877.609       2.7302500     -0.84425000     0.049000000       340.64500       2.0220977     0.014545427
       767.99998       288.11183       98833.842       14976.639       3.7900000     -0.94925000    -0.058750000       340.69800       2.1193869     0.013252758
       772.99999       288.08512       98814.093       15129.635       4.3865000     -0.45975000      0.39850000       341.41900       2.0448291     0.014785822
       778.00000       288.09370       98803.696       15252.497       2.7317500     -0.24500000    -0.060500000       341.20100       2.1238863     0.022487436
       782.99998       288.11523       98790.313       15404.635       3.8497500      -1.0995000     -0.16125000       340.63300       2.0353292     0.013544688
       787.99999       288.14382       98786.644       15512.435       3.2747500     -0.89050010     -0.13625000       341.14400       1.9888289     0.014430879
       793.00000       288.18470       98790.351       15588.069       3.8787500      -1.4237500      0.53850000       341.03900       2.0485869     0.012171103
       798.99997       288.26279       98805.655       15630.126       2.2670000    -0.017250000      0.51825000       341.85600       2.1021085     0.012458724
       803.99998       288.30405       98826.690       15662.688       3.5572500      -1.4565000     -0.26775000       341.41000       2.1522725     0.025181165
       809.00000       288.31154       98834.003       15669.616       3.1672500     -0.70125000     -0.49825000       341.24700       2.0103191     0.021401665
       813.99997       288.27973       98832.720       15671.192       2.5940000      -1.4997500      0.49275000       341.78800       2.0741337     0.018017810
       818.99998       288.24861       98831.314       15632.384       4.2495000      -2.3777500     -0.87075010       340.87500       2.2167751     0.020071059
       824.00000       288.17544       98821.613       15527.216       4.0595000     -0.84825000    -0.042250000       341.26600       1.9937985     0.013072510
       828.99997       288.13723       98813.672       15450.971       2.7062500     0.039000000     0.042500000       341.77500       2.1931982     0.017894573
       833.99998       288.12403       98800.152       15359.220       1.9880000      -1.1155000      0.42375000       340.95700       2.1130276     0.012923877
       839.00000       288.09428       98797.623       15274.102       3.6047500      0.20750000       1.3955000       342.26200       2.2471624     0.024503288
       844.00001       288.05207       98799.015       15174.658       3.6915000      0.37400000     -0.67200010       340.75700       1.9621232     0.015996895
       848.99998       288.04345       98803.453       15126.172       3.8072500       1.3247500     -0.22650000       341.11700       2.0283307     0.013427673
       853.99999       288.04420       98826.863       15094.419       3.4610000      0.78575000     0.022250000       340.91100       1.9804417     0.014015109
       859.00001       288.04537       98834.307       15083.501       5.1650000      0.11475000     0.028250000       340.70200       1.9661794     0.023248007
       863.99998       288.08994       98835.795       15134.270       3.2642500      -3.0997500     -0.37200000       340.86200       2.0260739     0.012861848
       868.99999       288.10875       98832.311       15170.597       2.4500000     -0.27050000      0.14775000       341.51000       2.0346015     0.014204344
       874.00001       288.04345       98809.239       15172.978       3.1195000      -2.0412500     -0.12650000       341.09500       2.1281738     0.019336784
       878.99998       288.08844       98801.870       15238.372       5.1912500      -1.7910000     -0.63350000       340.70900       1.9961895     0.029577815
       883.99999       288.21828       98799.850       15336.316       4.2612500      -1.4850000    -0.019250000       340.66400       2.1258506     0.013671141
       890.00000       288.32963       98798.431       15485.573       4.4120000      -2.0635000     -0.27750000       340.65300       2.0386685     0.015720508
       894.99997       288.52898       98807.878       15698.824       3.9060000      -1.0560000     -0.12775000       340.75700       2.1099351     0.014239789
       899.99999       288.60020       98812.541       15850.350       3.6535000     -0.80300000     -0.70250000       340.98200       2.0559558     0.013430754
       905.00000       288.56949       98815.374       16031.701       3.7902500     -0.48400000    -0.099500010       341.06100       2.1466037     0.013201793
       909.99997       288.55225       98815.983       16115.117       2.4410000     -0.43275000      0.37675000       341.35300       2.0270848     0.017959908
       914.99999       288.47934       98820.010       16143.871       3.6487500      -1.4480000      0.31300000       341.39400       2.1250550     0.022415809
       920.00000       288.42964       98815.550       16119.253       1.9687500      -2.2205000      0.66000000       341.48400       2.0839672     0.012437630
       924.99997       288.36745       98795.530       15981.011       4.1727500      -1.5972500     -0.37050000       340.42700       1.9514430     0.017891243
       929.99998       288.33157       98792.051       15892.446       4.0560000     -0.64450000      0.16025000       340.95000       2.1874193     0.018787543
       935.00000       288.30494       98789.056       15759.756       3.7562500      -2.2282500      0.13575000       340.87900       2.2041811     0.020863583
       939.99997       288.28872       98794.427       15679.719       3.2787500     -0.78375010      0.10650000       341.09200       2.1234861     0.011860035
       944.99998       288.31293       98822.657       15653.207       3.1100000    0.0085000000      0.19150000       341.29300       2.0304311     0.014414044
       950.00000       288.29914       98830.860       15593.412       2.5532500     0.081000000     0.011000000       341.34700       2.0447717     0.020089841
       954.99997       288.30006       98834.932       15555.391       3.3602500     -0.48675000   -0.0062500000       340.81800       1.9468698     0.018269816
       959.99998       288.23931       98831.768       15478.270       4.4455000      0.38975000     -0.32450000       340.55800       2.4890382     0.013825523
       965.00000       288.09051       98809.881       15352.888       3.5545000       1.2195000      0.64200000       341.36200       2.9774528     0.013116870
       970.00001       288.01476       98800.713       15255.871       4.0215000     -0.87900010      0.59500000       341.13800       2.8766565     0.013472462
       974.99998       287.90103       98785.151       15126.664       2.7967500       1.2100000      0.49750000       340.77600       2.7879330     0.021592105
       980.99999       287.86577       98788.967       15046.614       3.1860000     -0.24550000     -0.24525000       341.09200       2.3111619     0.022767730
       986.00000       287.95304       98813.570       15026.366       4.1485000     0.014500000     -0.18075000       341.01900       2.3982819     0.012860968
       990.99998       287.95677       98820.357       14995.307       3.6505000      0.30450000      0.33150000       341.35300       2.5502782     0.021326498
       995.99999       287.96835       98834.877       14987.254       3.8532500    -0.010500000     -0.37600000       340.92800       2.3847040     0.016288980
       1001.0000       287.94602       98832.934       14986.091       3.6570000    -0.060750000     -0.44725000       340.63100       2.0425850     0.014335118
       1006.0000       287.84718       98807.633       14977.966       3.3090000     -0.69450000    -0.075750000       341.26400       2.0559648     0.012310983
       1011.0000       287.82990       98798.962       14995.351       2.0732500      0.11650000      0.43275000       341.49900       2.0419445     0.013533892
       1016.0000       287.85433       98787.219       15066.498       4.0672500   -0.0070000000     -0.37450000       340.84200       2.0834697     0.014522944
       1021.0000       287.84449       98787.917       15077.594       4.1267500     -0.18875000    -0.040500000       340.81800       2.0795692     0.013159673
       1026.0000       287.85838       98802.488       15072.679       3.5712500     -0.65275000     -0.10100000       341.00600       2.1086975     0.017729910
       1031.0000       287.85191       98808.454       15060.768       2.7762500      -4.8185000     0.053750000       340.92800       2.1139660     0.013994453
       1036.0000       287.79048       98820.945       14996.097       2.8532500      -1.7755000      0.43075000       341.27800       2.1062507     0.016629024
       1041.0000       287.79304       98823.479       14990.842       2.3777500      0.15525000     0.016000000       341.44000       2.1485315     0.013378542
       1046.0000       287.85426       98819.293       15022.119       2.3930000      -1.9082500      0.65475000       341.47400       2.0764237     0.012748486
       1051.0000       287.85851       98812.452       15030.197       3.3587500      -1.1487500      0.33975000       341.17900       2.0818245     0.014558446
       1056.0000       287.86871       98793.193       15073.388       3.7340000      -1.5575000      0.62625000       341.06900       2.0000945     0.015211414
       1061.0000       287.84649       98792.281       15054.629       3.0202500     -0.26900000     -0.35400000       341.14700       2.1352444     0.015093641
       1066.0000       287.75937       98794.581       14998.041       2.8372500       2.0257500      0.64775000       341.19200       2.1347917     0.013160131
       1072.0000       287.72036       98804.058       14919.037       4.6100000      0.35150000     -0.35500000       340.99200       2.3290733     0.020105074
       1077.0000       287.69749       98832.354       14812.491       3.6940000     -0.35625000     -0.60525000       340.62900       2.1772422     0.019298035
       1082.0000       287.68631       98837.159       14734.349       2.8565000      -1.1575000     -0.31175000       341.26600       2.2478843     0.013603339
       1087.0000       287.69121       98834.249       14635.058       2.6297500     -0.61450000    -0.033500000       341.48000       2.2809515     0.014216390
       1092.0000       287.70986       98826.881       14600.451       2.3345000    -0.067750010     -0.14650000       341.29800       2.3268286     0.014506270
       1097.0000       287.73729       98803.269       14580.633       3.5245000      0.74950000      0.21475000       341.17600       3.0829340     0.025501397
       1102.0000       287.77581       98800.776       14621.500       3.7090000      0.21400000     0.027250000       341.29300       2.7637168     0.012753695
       1107.0000       287.85815       98801.365       14734.121       2.6725000     -0.41325000     -0.39025000       341.37900       3.1604714     0.019737310
       1112.0000       287.87090       98807.616       14817.608       4.6767500     -0.53050010      0.71875010       341.22300       3.2763848     0.019062301
       1117.0000       287.86735       98831.907       14959.125       3.0002500    0.0025000000      0.42200000       341.21900       3.2650162     0.014327138
       1122.0000       287.83939       98835.457       15002.798       3.2355000     -0.10625000     -0.21875000       341.05400       2.8632769     0.013597564
       1127.0000       287.75160       98834.176       15006.736       4.6485000     -0.39175000      0.50550000       341.05500       2.1965747     0.013656656
       1132.0000       287.72011       98826.804       14996.988       5.4907500      -1.1322500    -0.068250000       341.14300       2.0611150     0.018081159
       1137.0000       287.68786       98803.871       14924.622       4.7282500     -0.77275000     -0.69450000       340.94100       2.0751501     0.012932275
       1142.0000       287.69494       98799.325       14897.944       4.9505000    -0.075750000      0.18675000       340.85700       2.1043776     0.015336614
       1147.0000       287.74622       98795.858       14887.630       3.3190000     -0.64650010     -0.32025000       341.03600       2.0297762     0.013675606
       1152.0000       287.76613       98802.047       14851.720       3.3280000      0.54675000      0.17150000       341.07300       2.0331691     0.020092613
       1158.0000       287.80634       98828.224       14803.948       2.6872500      0.30575000       1.1087500       341.32400       2.0664603     0.019437510
       1163.0000       287.81492       98829.516       14762.015       4.0370000     -0.79375000     -0.13750000       340.84800       2.2123740     0.024668961
       1168.0000       287.79505       98828.443       14688.296       3.0137500      -1.8205000     -0.36550000       341.45900       2.1658059     0.013656261
       1173.0000       287.84530       98804.058       14738.342       3.6295000      -1.3310000     -0.28050000       341.17300       2.1796089     0.017801896
       1178.0000       287.85692       98796.109       14755.928       3.1650000      -1.7345000      0.23850000       341.54900       2.0411504     0.014170819
       1183.0000       287.84012       98799.424       14775.106       3.7330000      -1.7920000    -0.085250010       341.02700       2.0910644     0.013278374
       1188.0000       287.84993       98802.984       14823.280       4.0065000      -1.5715000     -0.21850000       340.95000       2.0072372     0.019862646
       1193.0000       287.84489       98824.863       14876.322       4.8520000      0.98675010     -0.21350000       340.70500       2.1392557     0.012748368
       1198.0000       287.84352       98833.502       14914.095       4.2390000    -0.066250000      0.21175000       340.87800       2.0320919     0.019111120
       1203.0000       287.85444       98835.989       14958.411       4.0885000     -0.53550000      0.37400000       340.85800       2.1127005     0.016547885
       1208.0000       287.89932       98833.631       15046.590       3.3362500     -0.48500000     0.034500000       340.88600       2.1302767     0.014794452
       1213.0000       287.92933       98824.832       15080.403       4.0767500      -1.5972500      0.66000000       341.08100       2.0540059     0.013945985
       1218.0000       287.94424       98801.249       15074.862       4.3245000      -1.8642500      0.12625000       340.74600       2.0289723     0.018158370
       1223.0000       287.98605       98809.984       15048.912       3.2630000     -0.60050000   -0.0022500000       340.97100       2.0815436     0.011989169
       1228.0000       288.04505       98813.605       15078.172       2.3395000      0.16000000     0.074000000       341.08800       2.0047014     0.018727304
       1233.0000       288.14559       98837.615       15146.797       3.2567500      0.24925000      0.85175000       341.19300       1.9863564     0.013381053
       1238.0000       288.20621       98845.592       15201.591       2.6562500     -0.61950000     -0.10975000       340.97700       2.0681015     0.012858741
       1243.0000       288.25449       98843.722       15270.024       3.0305000     -0.88575010     -0.37775000       340.95100       2.0295159     0.013297333
       1249.0000       288.31223       98825.170       15402.507       4.5075000     -0.50450000     -0.45975000       340.84900       2.0636916     0.012856982
       1254.0000       288.38201       98799.662       15472.225       2.7017500    -0.095500010     -0.34125000       341.09600       2.1419258     0.013774963
       1259.0000       288.41060       98795.803       15545.681       2.8872500       1.1722500    -0.066250000       340.75100       2.1360397     0.014581767
       1264.0000       288.44642       98812.330       15662.028       3.5295000      0.46925000      0.30850000       341.19300       2.3314082     0.013661367
       1269.0000       288.46430       98816.377       15725.322       3.2150000    -0.077500000      0.30875000       341.34100       2.3710267     0.013941476
       1274.0000       288.43764       98833.126       15772.671       2.2970000       1.1565000      0.81025000       341.41400       2.3618098     0.013388602
       1279.0000       288.39654       98835.063       15769.956       3.8497500      0.89275000    -0.031500000       341.05400       2.6387057     0.012178083
       1284.0000       288.33213       98809.090       15685.289       3.2360000     0.042500000      0.76475010       341.33300       3.1443910     0.018396841
       1289.0000       288.29240       98801.583       15638.496       4.0332500      -1.1940000     -0.24225000       340.90000       3.0959416     0.013657994
       1294.0000       288.21956       98795.502       15569.592       3.7797500     -0.11150000    -0.057750000       341.23600       2.9415853     0.014975107
       1299.0000       288.18223       98797.365       15512.099       4.3660000     -0.52825000      0.13625000       341.20600       2.6711132     0.015869902
       1304.0000       288.21420       98821.193       15522.835       3.8525000      0.33225000      0.18250000       341.29100       2.5703322     0.013145942
       1309.0000       288.20296       98828.727       15453.685       3.3782500      -1.0567500     -0.10750000       340.90800       2.3419411     0.012268241
       1314.0000       288.15122       98834.597       15287.024       3.4682500      0.43800000     -0.25150000       341.45500       2.0776045     0.014910798
       1319.0000       288.14196       98832.917       15195.690       3.7840000     -0.68575000    -0.011500000       341.29700       1.9815724     0.018823933
       1324.0000       288.11547       98809.139       15054.917       3.6337500      -1.0352500     -0.17300000       341.16300       2.0706667     0.018674827
       1329.0000       288.13925       98801.710       15012.128       3.7157500      0.15025000     -0.76350000       340.83200       2.0700336     0.012263857
       1334.0000       288.24291       98798.488       15074.408       3.5722500       1.1252500     -0.13750000       340.98300       1.9908950     0.012311311
       1340.0000       288.32730       98798.603       15159.907       2.5642500      -1.2752500      0.12275000       341.22600       2.0695185     0.013418967
       1345.0000       288.43985       98814.341       15314.913       2.7087500      -1.4840000    -0.097500000       341.13200       2.1295019     0.014469408
       1350.0000       288.47854       98818.272       15416.166       2.8027500      -1.6002500    -0.030500000       341.14500       2.3480338     0.018392315
       1355.0000       288.44352       98818.445       15525.765       2.4467500      -1.6082500     -0.30600000       341.26800       2.1401019     0.018302762
       1360.0000       288.45341       98815.303       15604.426       2.4845000     -0.97225000     -0.47300000       341.63800       2.0966632     0.013261272
       1365.0000       288.44337       98796.723       15657.460       3.7425000      -1.6120000      0.20300000       341.54800       2.1443496     0.014147146
       1370.0000       288.44739       98798.060       15685.136       1.7762500     -0.73125000      0.90875010       342.49000       2.1865123     0.011895579
       1375.0000       288.52102       98812.970       15708.949       3.8385000      -2.1470000      0.30150000       342.43700       2.0974627     0.014053197
       1380.0000       288.51014       98816.981       15680.908       1.7372500      0.43725000      0.24800000       343.10400       1.9054622     0.023358510
       1385.0000       288.42597       98834.546       15586.882       1.3397500      0.84250000      0.92075000       342.93100       2.0565928     0.015404553
       1390.0000       288.38591       98834.528       15513.764       3.1387500      0.19875000    -0.076750000       342.23500       2.1375405     0.013408459
       1395.0000       288.27308       98806.097       15393.374       2.6750000      -1.3520000     -0.27125000       342.08900       2.6465378     0.014456835
       1400.0000       288.28196       98800.938       15324.230       3.7042500      0.32550000      0.15975000       341.01100       2.5163430     0.018924417
       1405.0000       288.41598       98800.706       15282.448       4.5097500      -1.3797500     -0.99325010       340.72800       2.5783714     0.013120228
       1410.0000       288.47634       98804.490       15243.737       4.4627500     0.079750000     0.096000000       341.01400       2.1575078     0.012625988
       1415.0000       288.57211       98829.194       15198.309       3.7277500      0.58025000      0.33800000       341.77100       2.1893035     0.013103084
       1420.0000       288.63398       98835.323       15210.336       4.3605000    0.0020000000      0.36800000       341.35300       2.3309346     0.013112980
       1425.0000       288.62400       98833.069       15244.265       6.8795000      0.25950000     -0.11800000       340.72100       2.6378118     0.020332879
       1431.0000       288.66649       98829.914       15337.323       5.8832500       2.1487500      0.33150000       340.94600       2.3515285     0.013715228
       1436.0000       288.74152       98813.065       15515.388       4.5700000      -1.2517500      0.13225000       341.91000       2.4295244     0.013341365
       1441.0000       288.77558       98813.252       15610.808       3.2427500      0.15725000      0.31050000       341.82500       2.4589411     0.022301946
       1446.0000       288.78850       98823.159       15692.198       5.1457500     -0.13650000     -0.21475000       341.26000       2.3303515     0.015037595
       1451.0000       288.81860       98827.796       15769.333       3.9122500      -1.6895000     0.016000000       342.13000       2.1389932     0.012633185
       1456.0000       288.83122       98845.698       15811.010       4.9222500     -0.56625000      0.12550000       341.45200       2.2651961     0.019885155
       1461.0000       288.86728       98841.643       15860.961       3.8555000     0.034250000      0.85800000       341.37800       2.0506673     0.015699804
       1466.0000       288.94107       98815.961       15944.528       3.0867500      0.97100010     0.094500010       341.52300       2.1572220     0.013946661
       1471.0000       288.97465       98810.836       15958.731       4.8927500     -0.29725000      0.12025000       341.64100       2.1619685     0.012313299
       1476.0000       288.99972       98803.330       15920.963       5.2977500     -0.28450000      0.66850000       341.23000       2.0667376     0.018805477
       1481.0000       289.01355       98802.655       15898.763       4.1785000     -0.74825000     -0.14775000       341.45100       2.2207395     0.015135427
       1486.0000       288.99988       98820.032       15842.985       5.2632500    -0.096250010     -0.28575000       340.74300       2.1191602     0.010986038
       1491.0000       288.99977       98824.272       15803.558       3.1992500     0.036250000      0.27600000       341.39300       2.0683715     0.012377391
       1496.0000       289.01116       98820.122       15781.022       5.4262500      0.18450000     -0.84375010       341.14400       2.1362640     0.011171441
       1501.0000       288.99507       98820.063       15740.433       4.0860000     -0.59925000     -0.47825000       341.76600       2.1780732     0.011881381
       1506.0000       288.95802       98818.075       15669.460       4.9875000     -0.11450000      0.10125000       341.43700       2.3231599     0.017101570
       1511.0000       288.93822       98821.310       15642.051       4.3032500      0.79500000      0.31450000       341.24400       1.9787728     0.018779343
       1516.0000       288.88927       98830.765       15627.329       3.2192500      -1.0977500      0.13150000       341.48300       2.1972292     0.010514457
       1522.0000       288.89588       98831.291       15623.086       3.1662500      0.72550000       1.3835000       342.03400       2.2144962     0.013731825
       1527.0000       288.94630       98834.055       15660.313       4.9485000     -0.32675000     -0.32450000       340.92500       2.2110727     0.018280926
       1532.0000       288.96644       98826.587       15653.258       5.6615000      0.48775000     0.021000000       341.20300       1.9729391     0.019230838
       1537.0000       289.02108       98800.955       15628.364       3.8292500      -1.4907500     -0.42450000       341.41500       1.9092901     0.033188633
       1542.0000       288.99497       98802.014       15611.156       4.4482500      -1.6770000      0.48975000       341.13500       2.0626175     0.012921871
       1547.0000       288.90764       98812.421       15570.841       4.4380000     -0.32275000     -0.20325000       340.84500       2.0372532     0.020351395
       1552.0000       288.86787       98818.995       15568.728       4.9320000     -0.23450000     -0.24775000       341.31700       2.1339373     0.011531405
       1557.0000       288.79460       98846.370       15599.465       3.5102500      -1.9580000     -0.18975000       341.28900       2.1531209     0.012284386
       1562.0000       288.77225       98842.829       15588.766       5.0757500      -1.2830000    -0.089750010       341.30700       1.9961952     0.018849719
       1567.0000       288.79102       98814.980       15595.000       4.0610000     -0.44200000     -0.12525000       341.49800       2.1055857     0.013085344
       1572.0000       288.81005       98810.571       15542.450       3.2915000     -0.65575000     -0.16100000       341.89400       2.1450905     0.013064194
       1577.0000       288.82849       98801.094       15406.481       4.6390000      -1.9485000    -0.094500010       341.76100       1.9879900     0.022797142
       1582.0000       288.88630       98805.214       15387.689       4.5600000     -0.34675000     -0.31150000       340.95400       2.0917844     0.011348104
       1587.0000       289.00551       98833.275       15382.679       4.0080000      -1.7097500      0.24500000       341.09000       2.1419896     0.012832838
       1592.0000       289.03842       98835.147       15412.113       3.2225000      -2.1415000      0.11575000       341.22300       2.1177128     0.012287960
       1597.0000       289.07769       98826.267       15550.749       1.8945000     -0.30525000      0.78075000       342.30400       2.0848296     0.015140991
       1602.0000       289.04290       98824.410       15568.743       3.2795000      -1.8760000    -0.069500010       341.35200       2.0685482     0.016860188
       1608.0000       288.91526       98812.123       15556.141       2.8075000      -2.2142500      0.31425000       341.56000       2.1129877     0.012984554
       1613.0000       288.80149       98815.916       15479.494       4.4275000      -1.5972500     -0.27200000       341.24700       2.1321777     0.015262797
       1618.0000       288.63208       98832.523       15332.668       3.7032500      -1.0425000     -0.40425000       342.05200       2.0151675     0.026555707
       1623.0000       288.57509       98828.062       15216.364       3.4307500      -1.2987500      0.38525000       341.68100       2.0050380     0.024223034
       1628.0000       288.53098       98826.243       15121.576       2.7040000     -0.26350000     0.073000010       342.34400       2.1164044     0.014066290
       1633.0000       288.60072       98810.103       15082.871       2.9622500   -0.0080000000      0.43475000       341.72300       2.0543154     0.023229890
       1638.0000       288.61285       98806.434       15015.816       3.5735000     -0.46350000      0.48225000       342.13600       2.0906058     0.014991513
       1643.0000       288.57020       98822.456       14910.866       4.2902500      -1.3507500     -0.52775000       341.54100       2.1040973     0.017026099
       1648.0000       288.55054       98826.760       14844.500       4.6287500     -0.64000000     -0.43550000       341.04400       2.0234253     0.019629131
       1653.0000       288.53094       98828.606       14792.154       5.0182500      -1.7225000     -0.61350010       340.94800       2.0756780     0.021346870
       1658.0000       288.48659       98832.922       14728.385       4.7005000      -1.1680000     -0.17950000       340.94600       2.0857766     0.012726774
       1663.0000       288.49924       98829.259       14729.557       4.8742500      -1.0112500      0.60625000       341.73100       2.1132718     0.012854435
       1668.0000       288.55531       98812.279       14788.512       4.7935000     -0.35275000     -0.10375000       341.58700       2.1908931     0.013713106
       1673.0000       288.53957       98823.880       14801.957       3.1727500      -1.2680000     -0.38150000       341.45900       2.2283864     0.017279495
       1678.0000       288.54948       98826.097       14824.409       3.4970000     -0.72350000     -0.26550000       341.53800       2.0806177     0.013052732
       1683.0000       288.52998       98834.353       14820.058       4.3835000      -1.6185000     -0.24950000       341.27500       2.0446595     0.023597111
       1688.0000       288.53751       98834.063       14840.675       4.2800000     -0.30700000     -0.84325000       340.56500       2.0241703     0.025433237
       1693.0000       288.56962       98826.357       14879.518       4.3202500     -0.64900000     -0.88125000       340.83200       2.1265722     0.010710756
       1699.0000       288.66242       98800.835       14961.320       1.9035000      0.33650000      0.57325010       341.37400       2.1261814     0.022970266
       1704.0000       288.67615       98813.175       14976.902       4.1267500     -0.85125010      0.32825000       341.58300       2.6136360     0.016311206
       1709.0000       288.70647       98815.296       15031.772       5.7182500     -0.44175000      0.14725000       341.19200       3.1392553     0.020762053
       1714.0000       288.76310       98829.922       15113.891       4.6480000      -1.0412500      0.26250000       341.37600       2.6067984     0.013884717
       1719.0000       288.76106       98834.211       15169.094       2.8830000     -0.35675000    -0.037000000       341.67000       2.5773957     0.013136134
       1724.0000       288.72194       98814.377       15284.761       2.6365000      0.17475000      0.50600000       341.55300       2.9512850     0.019861740
       1729.0000       288.70071       98812.045       15310.922       3.8295000      0.26800000     0.063250010       341.05500       2.8944739     0.017097251
       1734.0000       288.59093       98824.230       15226.193       3.6392500      -1.2135000    -0.060000000       340.89900       3.6720118     0.018990681
       1739.0000       288.57564       98826.049       15195.162       3.1682500     -0.52575000     -0.34125000       341.10300       2.5649920     0.014220800
       1744.0000       288.65126       98835.081       15104.944       3.9910000     0.073500000     0.052000000       341.23200       2.1551367     0.019877708
       1749.0000       288.70242       98833.256       15092.681       4.8297500     -0.95450000     -0.77200000       341.07400       2.3034313     0.014472988
       1754.0000       288.85543       98805.240       15208.611       4.4655000      0.37425000     0.080750000       340.89800       2.1293015     0.019347229
       1759.0000       288.87938       98801.130       15225.271       3.1695000     -0.92075000      0.66425000       341.30800       2.1339364     0.016602907
       1764.0000       288.78662       98813.273       15229.308       3.6437500     -0.95925000     -0.41875000       341.71700       1.9877837     0.020433524
       1769.0000       288.74496       98815.441       15214.012       3.3945000     -0.94350000     -0.45075000       341.22900       2.0133309     0.016077948
       1774.0000       288.62877       98829.874       15082.322       3.5360000      -1.5407500       1.0212500       341.69700       2.0183337     0.024614204
       1779.0000       288.57308       98833.984       15039.528       4.9030000     -0.24525000     -0.40150000       341.31100       2.1315299     0.012920626
       1784.0000       288.61487       98813.065       15076.438       2.6080000      -1.2965000      0.29300000       341.85800       2.0438439     0.025238218
       1790.0000       288.59980       98812.622       15061.883       4.7017500      -1.0117500     -0.37600000       341.01400       2.0313374     0.015511212
       1795.0000       288.56197       98827.418       15069.325       3.9605000     -0.87125000      0.10075000       341.54000       2.1621179     0.018997223
       1800.0000       288.54199       98832.477       15050.011       4.3467500     -0.71125000     -0.27425000       340.94900       2.3828117     0.025961874
       1805.0000       288.47898       98847.037       14937.396       4.6590000     -0.84125010     -0.25825000       341.05900       2.0385873     0.019477271
       1810.0000       288.48984       98848.869       14935.052       4.2695000     -0.73950000    -0.031250000       341.11700       2.0490905     0.021890157
       1815.0000       288.58934       98829.294       15003.249       3.8425000     -0.78900000     -0.22425000       341.05200       2.0927238     0.018043072
       1820.0000       288.61523       98827.868       15046.997       3.5155000      -1.7247500     0.072500010       341.44400       2.0498774     0.019235744
       1825.0000       288.67803       98836.545       15173.777       3.4365000     -0.76525000      0.39575000       341.96600       2.1983378     0.016507964
       1830.0000       288.66356       98835.192       15215.903       2.8692500       1.1702500      0.54975000       341.32800       2.1271593     0.013283874
       1835.0000       288.53112       98838.863       15197.985       2.3845000     -0.81650010    0.0052500000       341.93700       2.1273342     0.018011269
       1840.0000       288.47495       98836.280       15184.704       4.0872500     -0.33200000      0.10750000       341.22400       2.2675626     0.019263019
       1845.0000       288.39817       98812.976       15128.336       2.2190000     -0.15975000     -0.31450000       341.73600       2.2006018     0.016951330
       1850.0000       288.37913       98811.569       15101.099       4.2715000     -0.58125000     -0.20175000       341.83800       2.3176195     0.016059045
       1855.0000       288.42613       98831.445       15088.479       3.2865000      -1.2232500      0.51050000       341.64000       2.1337182     0.020131882
       1860.0000       288.45990       98832.434       15060.667       4.4785000     -0.49000000     -0.17150000       341.32200       2.0556683     0.017402141
       1865.0000       288.54623       98832.858       15046.292       4.0475000      -1.2605000      0.29000000       341.10000       2.4043648     0.017613034
       1870.0000       288.56852       98831.283       15003.418       3.7827500     -0.99425010    -0.051000000       341.46500       2.1600962     0.019323003
       1875.0000       288.54472       98808.092       14898.943       3.2735000      -1.5375000     -0.20925000       341.78600       2.1941760     0.019857743
       1881.0000       288.55670       98806.399       14865.278       3.3907500     -0.58825000     0.060000000       341.80400       2.0368210     0.020968338
       1886.0000       288.54330       98826.140       14853.490       2.8485000     -0.61100000      0.33450000       342.09500       2.0420206     0.019257160
       1891.0000       288.54969       98827.225       14867.599       2.1992500      0.17175000    -0.029250000       341.73600       2.0782060     0.016577516
       1896.0000       288.58861       98823.917       14946.997       2.5387500     -0.64800000     -0.26875000       342.18200       2.0400169     0.017424208
       1901.0000       288.61877       98826.875       14993.178       3.8195000     -0.14350000     0.097000000       341.95000       2.1693302     0.017114699
       1906.0000       288.64212       98823.258       15016.368       4.0012500      -2.0602500    -0.023500000       341.70800       2.1687405     0.014715182
       1911.0000       288.66191       98825.213       15081.127       3.3615000     -0.62800000     -0.37325000       341.56900       1.9597483     0.019060677
       1916.0000       288.71067       98845.620       15191.506       3.8620000     -0.54600000     -0.10425000       341.52300       2.1122660     0.017822428
       1921.0000       288.70861       98841.723       15242.812       3.2877500     -0.72650000     -0.27800000       341.62400       2.0837458     0.017739587
       1926.0000       288.65914       98813.830       15315.901       3.6130000      0.19625000      0.19625000       341.54700       2.0459529     0.027618452
       1931.0000       288.63919       98811.937       15316.431       2.8512500      0.19775000     -0.46025000       341.62100       2.0707022     0.016617796
       1936.0000       288.59023       98811.783       15220.464       3.6040000     -0.97875010     -0.60050000       341.27800       2.0639651     0.018355950
       1941.0000       288.59267       98814.851       15192.427       5.4462500      -1.7697500     -0.23675000       340.73700       2.0449751     0.018210019
       1946.0000       288.65366       98843.182       15176.050       5.0602500     -0.53700000   -0.0082500000       340.80600       2.1311354     0.019267627
       1951.0000       288.65750       98845.279       15132.060       3.9227500    -0.010250000     -0.50750010       341.08200       2.1431235     0.015041804
       1956.0000       288.64606       98824.292       15084.437       4.0042500     -0.90550010     -0.47075000       341.04400       2.0574680     0.015694812
       1961.0000       288.65607       98823.167       15060.284       3.9447500      -1.7410000     -0.13375000       341.24900       2.0641493     0.016356831
       1966.0000       288.61868       98826.537       14978.611       5.2572500      -1.0660000     -0.43325000       341.52600       2.0428121     0.017366606
       1972.0000       288.67070       98823.002       15019.279       5.4347500     0.046750000      0.46100000       341.37100       2.0568993     0.015521849
       1977.0000       288.80315       98828.985       15159.852       4.8917500      -3.6442500      0.95225010       341.83400       2.0715963     0.026441476
       1982.0000       288.83542       98822.571       15217.282       5.7815000      -2.1962500     -0.60825000       340.71000       1.9939711     0.020482325
       1987.0000       288.86855       98795.383       15299.540       2.7912500     -0.95525000      0.56000000       341.69200       2.1370764     0.014731964
       1992.0000       288.85242       98797.305       15339.437       4.1077500      -1.6210000     -0.23350000       340.83500       2.0803463     0.020716913
       1997.0000       288.75077       98817.454       15309.684       2.4140000      -1.6462500     0.029000000       341.64100       2.1064896     0.015961072
       2002.0000       288.71984       98815.918       15346.461       2.7412500     -0.62675010     0.066000000       341.98000       2.1024976     0.026071093
       2007.0000       288.70668       98816.228       15431.163       3.6350000      0.21675000      0.47850000       342.00300       2.0530005     0.019412006
       2012.0000       288.67711       98817.558       15438.738       4.1672500     -0.83200000     -0.33600000       341.45900       1.9011883     0.030349501
       2017.0000       288.66455       98799.762       15457.684       3.9120000    -0.074750010     -0.51550000       340.92700       2.0843651     0.019761414
       2022.0000       288.62546       98806.025       15389.538       2.4900000     -0.48000000      0.68075000       342.31100       2.4080030     0.015376802
       2027.0000       288.55206       98838.115       15225.723       2.8055000      0.86300000      0.68875000       341.92700       2.1077508     0.017942532
       2032.0000       288.52082       98839.954       15126.347       4.7870000     -0.83025000     -0.13650000       341.23800       2.1142893     0.016989366
       2037.0000       288.49670       98829.822       15007.776       3.4492500     -0.40000000     0.036750000       342.27400       2.0813551     0.022784931
       2042.0000       288.48529       98830.841       14906.141       3.8302500     -0.50650000     0.054500000       341.49200       2.2302518     0.019294564
       2047.0000       288.50941       98822.992       14830.085       2.3585000     -0.92175010      0.59800000       341.99300       2.3418242     0.018620499
       2052.0000       288.49107       98824.507       14742.528       3.4460000      0.28275000     0.096000000       341.78300       2.1031375     0.019254217
       2057.0000       288.45551       98844.205       14629.168       2.7642500      -1.2145000      0.29875000       342.15900       2.0637278     0.020383074
       2063.0000       288.43161       98840.492       14559.491       3.4252500     -0.35425000     -0.42250000       341.80000       2.0246252     0.024353222
       2068.0000       288.39369       98823.713       14522.518       4.4975000      -1.8740000      0.56550000       341.50300       2.0680661     0.017249917
       2073.0000       288.39980       98823.911       14535.928       4.0787500      -2.1242500      0.34075000       341.72500       2.1169895     0.017438382
       2078.0000       288.39968       98823.552       14540.646       4.2165000      -1.6107500      0.78625010       341.94200       2.0563024     0.019932648
       2083.0000       288.37041       98836.058       14536.005       2.6902500     -0.83300010       1.2312500       341.81300       2.1414516     0.017580639
       2088.0000       288.38823       98842.419       14568.466       4.3420000     -0.53775000      0.60500000       341.68900       2.0372249     0.017274720
       2093.0000       288.46010       98838.900       14625.045       4.5942500      -2.4162500      0.60275000       341.66700       2.0466180     0.017456698
       2098.0000       288.49980       98839.782       14682.790       1.8067500      -1.3232500      0.83800010       342.17300       2.0492509     0.018169284
       2103.0000       288.53950       98841.886       14756.232       3.6560000      -2.5997500      0.84875010       341.72500       2.0930788     0.014982504
       2108.0000       288.61274       98848.078       14868.147       3.3280000      -1.3055000     0.033000000       341.68700       2.0557278     0.019806174
       2113.0000       288.63010       98841.608       14956.635       4.1350000      -1.1930000     0.048750000       341.38800       2.0497191     0.020669345
       2118.0000       288.60634       98828.460       15049.421       2.8130000      -1.8557500      0.90300010       342.04100       2.0571678     0.014781319
       2123.0000       288.53950       98829.884       15056.616       3.2547500      -1.4910000      0.12400000       341.96800       2.1440396     0.014236283
       2128.0000       288.53615       98828.488       15090.357       2.9162500     -0.43725000      0.54625000       341.94400       2.0535541     0.018939056
       2133.0000       288.59021       98845.894       15116.781       3.8005000      -2.6152500      0.45350000       341.56800       2.1098142     0.015114758
       2138.0000       288.60017       98849.702       15110.534       4.4252500      -2.3207500     -0.22025000       340.94100       2.0505355     0.017553330
       2143.0000       288.61012       98844.899       15096.599       4.8615000     -0.79200010      0.63575010       341.66800       2.1346108     0.021701461
       2148.0000       288.66335       98822.384       15107.564       4.2450000      -2.3230000     -0.64825000       341.08300       2.1077706     0.016252844
       2154.0000       288.61000       98832.525       15011.023       3.6637500      -1.6150000     0.063500000       341.06600       1.9754758     0.021117509
       2159.0000       288.59113       98830.328       14973.672       3.8480000    -0.043000000     -0.46250000       341.13600       1.9828949     0.030026514
       2164.0000       288.64199       98828.255       15007.531       2.4955000     0.068250000      0.22475000       341.71900       2.1175284     0.015471380
       2169.0000       288.60845       98831.098       14973.761       2.1160000     -0.46575000      0.17275000       341.79000       2.1893578     0.022875581
       2174.0000       288.49742       98824.419       14903.940       3.8697500      0.17750000      0.32675000       341.37900       2.1448359     0.017134745
       2179.0000       288.43804       98823.015       14856.603       4.9060000      -2.3620000      0.88775000       341.49300       2.0968279     0.019543934
       2184.0000       288.31506       98841.737       14737.075       3.7432500      -1.0172500      0.27925000       341.66900       2.1071092     0.022589975
       2189.0000       288.27015       98844.049       14698.499       4.7427500      -1.4470000     -0.45800000       341.25700       1.9220564     0.021068661
       2194.0000       288.34758       98824.392       14761.930       5.2487500      -1.3632500      0.11875000       341.07800       2.0208049     0.024135807
       2199.0000       288.35611       98822.901       14769.296       4.3837500     -0.95950010      0.39800000       341.39000       2.0591628     0.022916477
       2204.0000       288.35628       98831.262       14774.562       3.0842500     -0.13025000    0.0065000000       341.40600       2.0933924     0.018996360
       2209.0000       288.35545       98830.238       14789.101       4.7660000     -0.84925000    -0.024750000       341.46200       2.0146590     0.018110463
       2214.0000       288.29525       98836.148       14766.984       4.8502500     0.066750000     -0.40800000       341.11400       2.0138209     0.021990499
       2219.0000       288.28719       98837.755       14772.901       5.1557500     -0.80800000      0.44650000       341.54100       2.1575690     0.020709846
       2224.0000       288.33431       98819.124       14831.870       3.8387500     -0.96550010     0.076750000       341.32100       2.1040692     0.017992620
       2229.0000       288.35422       98817.029       14857.717       3.5660000      -1.2245000     -0.25300000       341.60600       2.0654018     0.025491937
       2234.0000       288.37563       98836.220       14850.591       4.0390000      -2.7147500     -0.25575000       341.21400       2.0384655     0.023770362
       2240.0000       288.41151       98837.361       14883.198       4.3715000      -1.6035000      0.15775000       341.45800       2.1623313     0.018262080
       2245.0000       288.43791       98828.257       14918.659       4.5795000    -0.017750000     0.049500000       341.30800       2.0748728     0.016169498
       2250.0000       288.45789       98830.646       14955.107       5.6285000     -0.68225000      0.10550000       341.03100       2.1460750     0.015826113
       2255.0000       288.50762       98828.858       15051.871       5.2227500     -0.65250000     0.023250000       341.17700       2.0153067     0.018445472
       2260.0000       288.51010       98828.935       15067.456       3.3495000      0.73925010      0.32400000       341.52200       2.0297823     0.019793465
       2265.0000       288.47485       98848.311       15029.290       2.6522500     -0.31475000      0.38525000       341.74800       2.0699606     0.016974724
       2270.0000       288.44131       98848.523       14999.729       3.7447500      -1.3657500     -0.19100000       341.51900       2.1260961     0.014991749
       2275.0000       288.36745       98824.451       14917.000       3.0572500      -1.0180000    0.0080000000       340.95600       2.1249311     0.015074198
       2280.0000       288.33157       98822.421       14869.946       4.0700000      0.14475000     -0.34900000       341.12500       2.0652794     0.018020689
       2285.0000       288.30494       98831.918       14854.998       4.2187500      0.44925000     -0.27975000       341.10300       2.0310285     0.023653628
       2290.0000       288.28872       98829.481       14811.875       4.7832500     -0.25375000     0.011250000       341.22400       2.0976428     0.017512523
       2295.0000       288.29993       98827.724       14758.513       3.1942500      0.52800000      0.67375000       341.56900       2.0518405     0.017701098
       2300.0000       288.29993       98831.731       14707.873       5.1062500     0.055000000      0.19475000       340.93100       2.0638870     0.016180923
       2305.0000       288.28760       98832.862       14610.125       4.0022500      0.22975000     0.072500010       341.20000       2.1314829     0.013935786
       2310.0000       288.30146       98828.927       14587.066       2.8830000     -0.38925000      0.69775000       341.57400       2.0813006     0.015290446
       2315.0000       288.33807       98831.839       14612.063       5.4107500     -0.55400000      0.35150000       341.19000       1.7972551     0.062387591
       2320.0000       288.35782       98831.704       14630.934       2.6095000     -0.72800000      0.33350000       341.36000       2.1832520     0.022164046
       2325.0000       288.40862       98811.984       14711.318       3.8040000      -1.3200000    0.0057500000       341.04500       2.1262299     0.015587461
       2331.0000       288.40815       98812.760       14750.048       2.6792500      -1.5332500      0.50350000       341.49400       2.0876557     0.019255532
       2336.0000       288.35771       98837.129       14749.826       3.4230000      -2.2180000    -0.099000010       341.29400       2.0433327     0.019449278
       2341.0000       288.33757       98837.977       14765.343       5.0655000      -2.2750000    -0.065750000       341.15100       2.1503898     0.013531981
       2346.0000       288.31178       98828.773       14786.838       4.7990000      -1.5952500      0.26925000       341.37500       2.1532970     0.013201256
       2351.0000       288.28179       98831.412       14782.513       4.0560000      -1.8412500     0.078250010       341.42500       2.0421879     0.016040742
       2356.0000       288.28009       98831.873       14796.039       3.7835000      0.57675000      0.19875000       340.95700       2.1155719     0.020466396
       2361.0000       288.22781       98827.947       14740.119       2.0320000      -2.4445000      0.24350000       341.54200       2.0674400     0.023473833
       2366.0000       288.11732       98828.520       14615.342       2.4437500      0.55775000      0.49525000       341.46400       2.0128752     0.021711267
       2371.0000       288.06395       98832.388       14531.799       5.8567500     -0.80650000     -0.75125000       341.10700       2.1008437     0.015122007
       2376.0000       287.98930       98828.267       14410.779       4.1760000      -1.1757500      0.23050000       341.20000       2.3404722     0.022197367
       2381.0000       287.97797       98829.219       14335.082       4.8195000      0.25050000     -0.84875010       340.88600       2.0215899     0.022173729
       2386.0000       288.05256       98847.683       14309.587       4.8902500     -0.28275000      0.18800000       341.22900       2.1732643     0.018218392
       2391.0000       288.05623       98847.930       14247.792       3.2412500      0.78550000       1.0047500       341.31900       2.0769226     0.019050931
       2396.0000       288.05647       98828.238       14161.257       3.4440000     -0.20450000      0.57125000       341.45500       2.0508022     0.018570244
       2401.0000       288.05026       98827.585       14120.044       4.0687500     -0.67025010      0.58875000       341.31100       2.2128618     0.016170134
       2406.0000       288.00098       98837.501       14086.494       4.2192500      -2.0512500      0.79875000       341.27500       2.2041144     0.014232435
       2411.0000       287.98741       98834.238       14071.851       4.4647500      -1.1210000    -0.011500000       340.87100       2.0806911     0.020088916
       2416.0000       288.01147       98829.018       14112.963       4.7250000     -0.34000000     -0.28200000       340.98700       2.0061990     0.016666651
       2422.0000       287.98997       98832.297       14105.330       3.8727500    -0.098000000     -0.40375000       341.16000       2.0180432     0.018241284
       2427.0000       287.94547       98830.241       14069.403       4.0092500     -0.25650000      0.18775000       341.29800       2.0335841     0.017695157
       2432.0000       287.94448       98828.108       14082.451       3.3585000      -1.5635000    -0.079000000       341.28100       2.1455287     0.013754773
       2437.0000       287.93494       98835.812       14092.194       2.1570000     -0.84250000     -0.20650000       341.37500       2.0486334     0.022717490
       2442.0000       287.96238       98838.050       14141.277       3.5960000      -1.1090000     -0.39375000       340.98900       2.1227154     0.015467060
       2447.0000       288.04931       98828.360       14250.325       3.4065000      -1.2537500    -0.010750000       341.17200       2.0255917     0.019168126
       2452.0000       288.08010       98828.936       14310.099       3.8922500      -1.4872500    -0.013000000       341.01800       2.0261303     0.022198427
       2457.0000       288.10311       98842.722       14369.751       4.4122500     -0.82725010      0.40900000       341.00100       2.0437429     0.030065349
       2462.0000       288.11437       98841.260       14415.685       4.8570000      -1.6020000    -0.077250000       341.07000       2.0504149     0.019266312
       2467.0000       288.10004       98828.609       14443.941       4.1055000      -1.4557500      0.46275000       341.20700       2.0787320     0.018406714
       2472.0000       288.10004       98830.319       14469.223       3.4912500      -2.4130000      0.33450000       341.03000       2.3211066     0.025364123
       2477.0000       288.10866       98836.987       14502.422       4.8467500      -2.5862500     -0.53650000       340.84100       2.0161464     0.027379247
       2482.0000       288.08980       98833.194       14490.091       4.1345000      -2.3212500    -0.066500000       341.08500       2.0434518     0.018842006
       2487.0000       288.04474       98829.177       14431.831       2.4725000      -1.0205000      0.11175000       341.18200       2.1258406     0.014252767
       2492.0000       288.04347       98832.070       14425.164       2.2237500     -0.81200000     -0.47225000       341.12400       2.0298261     0.018594686
       2497.0000       288.03372       98830.243       14396.121       2.0070000      -1.0685000     -0.40300000       341.15800       2.0118130     0.017257447
       2502.0000       288.06087       98828.142       14427.894       2.5810000      -1.2610000      0.45750000       341.15800       2.0682803     0.016809051
       2507.0000       288.15762       98836.127       14538.924       3.5140000      -1.3112500     -0.72525000       340.99800       2.0599212     0.017830297
       2513.0000       288.16927       98838.442       14571.263       4.3550000      -1.2320000     -0.27775000       341.12800       2.1578113     0.014182580
       2518.0000       288.15039       98828.706       14581.478       4.0757500      -1.5100000      0.56725000       341.17500       2.0586013     0.021711382
       2523.0000       288.13082       98840.207       14589.652       5.1117500      -1.1562500     -0.17350000       340.81400       2.1187916     0.014627288
       2528.0000       288.13824       98842.749       14629.607       4.1527500      -1.4400000     -0.20225000       340.93300       2.1925307     0.012600062
       2533.0000       288.24585       98829.789       14779.801       3.9410000      -1.1627500      0.16625000       341.00000       2.0247423     0.017822800
       2538.0000       288.26904       98828.476       14848.393       2.1482500     -0.70975010      0.47550000       341.24600       2.1122672     0.014781855
       2543.0000       288.22473       98836.740       14860.316       2.5017500      -1.1982500      0.16350000       341.19500       2.0327286     0.019514232
       2548.0000       288.20608       98835.881       14887.040       2.7217500     -0.59000000      0.18500000       341.17100       2.0750102     0.016903522
       2553.0000       288.17513       98833.787       14897.513       2.8115000     -0.75475000     0.047250000       341.09700       2.0650059     0.015547968
       2558.0000       288.07402       98835.464       14842.918       4.2425000     -0.87750010      0.19925000       341.06600       2.0972693     0.015045774
       2563.0000       288.09970       98838.419       14887.345       4.3465000      -1.2392500    -0.020000000       340.88800       2.1066384     0.017716144
       2568.0000       288.19966       98835.754       14990.134       3.7242500      -1.1820000    -0.082500000       340.85500       2.0365135     0.018061219
       2573.0000       288.26994       98827.635       15050.657       3.3965000     -0.37125000     -0.19700000       340.98900       2.0830666     0.015461154
       2578.0000       288.31316       98829.422       15089.281       2.5187500     -0.77675000     -0.13275000       340.96600       2.0926817     0.016862913
       2583.0000       288.32995       98832.895       15066.765       2.4520000      -1.4330000     -0.20050000       341.18300       2.0182227     0.019627358
       2588.0000       288.31233       98829.852       15064.949       3.1107500     -0.11025000     -0.36450000       341.00900       2.0451708     0.019670911
       2593.0000       288.27007       98828.045       15067.365       3.3135000     -0.90475000     -0.25050000       341.09100       2.0548651     0.018372927
       2598.0000       288.20900       98834.827       15087.495       3.4025000     -0.87050000      0.14900000       340.92000       2.1349678     0.020286530
       2604.0000       288.08646       98844.410       15043.089       3.7062500      -1.0105000     -0.52175000       340.88600       2.1379810     0.017241120
       2609.0000       288.02888       98845.316       14995.997       3.2065000      -1.5912500     -0.16400000       341.03400       2.0389877     0.015275412
       2614.0000       287.99560       98853.724       14872.911       3.3950000     -0.11750000     0.068250000       341.20200       2.0478962     0.017792279
       2619.0000       287.98794       98858.276       14817.164       2.7665000      0.52725010     0.030500000       341.13900       2.0815774     0.016313342
       2624.0000       288.03429       98848.100       14797.878       3.8160000      0.35600000      0.21400000       341.03000       2.1597614     0.015822449
       2629.0000       288.05408       98843.476       14783.143       3.6377500      0.81275000     0.057250000       341.04400       2.0464537     0.021471465
       2634.0000       288.11888       98845.865       14828.057       3.4100000       1.0330000     -0.36975000       341.01900       2.0277527     0.018400347
       2639.0000       288.11546       98845.746       14832.110       3.3652500     -0.74900000    -0.053500000       341.14300       2.2086514     0.012646093
       2644.0000       288.04812       98839.802       14821.160       2.7372500      0.18350000     -0.34700000       341.09300       2.0502467     0.018533858
       2649.0000       287.99661       98839.065       14801.306       4.0795000      0.52825000     0.068500000       340.86700       2.0629288     0.016995036
       2654.0000       287.87309       98847.951       14737.814       3.4147500     -0.17375000    -0.062000000       340.96300       2.0250856     0.021966567
       2659.0000       287.82681       98846.633       14714.058       4.0880000      -1.3300000     -0.15275000       341.17500       2.0968582     0.017743614
       2664.0000       287.85813       98834.643       14734.672       3.7690000     -0.66050000     -0.19400000       341.17900       1.9314152     0.023996136
       2669.0000       287.84823       98833.792       14708.384       2.8050000     -0.19400000     -0.11250000       341.21100       2.1081669     0.013483224
       2674.0000       287.85615       98839.167       14665.007       2.6002500      -1.1772500      0.18900000       341.24400       2.0594709     0.020357709
       2679.0000       287.85470       98835.089       14635.272       2.2165000     -0.32400000    -0.019250000       341.28300       2.0999748     0.019707801
       2684.0000       287.83921       98828.333       14600.882       2.7585000     -0.54700010     -0.11150000       341.04600       1.9613786     0.022629202
       2689.0000       287.79784       98830.537       14531.513       3.3940000     -0.75425000     -0.32575000       341.10100       2.0677260     0.021169693
       2695.0000       287.71122       98828.934       14423.235       2.4532500     -0.17000000      0.63875000       340.97000       2.0062928     0.022640364
       2700.0000       287.68510       98829.058       14368.849       2.5525000     -0.83325000     0.034500000       341.06200       2.0557898     0.015316505
       2705.0000       287.66068       98843.134       14292.253       3.3405000      -1.0515000   -0.0010000000       341.05500       2.0466343     0.019070441
       2710.0000       287.63416       98848.997       14233.978       3.6170000      -1.1650000    -0.084750000       341.05300       2.0351421     0.016218591
       2715.0000       287.64436       98849.797       14220.032       3.5747500     -0.84325000     0.097500000       341.05600       2.0708066     0.021041153
       2720.0000       287.65448       98844.714       14207.660       4.4385000      -1.7032500     -0.30700000       340.84500       2.1361471     0.017359032
       2725.0000       287.65629       98829.455       14193.909       3.5452500     -0.89450000      0.42750000       340.91200       2.1560831     0.015254051
       2730.0000       287.64649       98828.594       14172.534       3.0982500      -1.3535000     -0.24350000       341.03800       2.0823267     0.016223853
       2735.0000       287.65823       98832.788       14176.233       3.4885000    -0.069000010     -0.18375000       340.85200       2.0965892     0.014990108
       2740.0000       287.65444       98828.903       14165.354       4.1350000      -1.3187500      0.65375000       340.97900       2.0284047     0.015373068
       2745.0000       287.59293       98827.765       14097.100       5.2642500      -1.7705000    -0.018000000       340.77100       2.0917057     0.019465601
       2750.0000       287.59041       98831.835       14100.218       4.3352500      -2.7242500      0.91750000       341.00600       2.0170774     0.018445087
       2755.0000       287.65144       98831.458       14167.369       3.3530000     -0.51125000     -0.10925000       340.95000       2.1727538     0.016771080
       2760.0000       287.65801       98828.818       14194.197       3.8872500      -2.8982500    -0.037500000       340.73600       2.1498767     0.016341789
       2765.0000       287.66991       98833.254       14270.797       4.2940000      -2.0295000    -0.051750000       340.82800       1.9936300     0.021071992
       2770.0000       287.65255       98837.959       14264.512       3.3505000      -1.3772500     -0.28500000       340.90100       2.0247636     0.019012997
       2775.0000       287.55399       98836.835       14159.915       3.1500000      -1.8702500     0.024500000       340.82900       2.0913079     0.016975955
       2780.0000       287.53168       98833.839       14122.935       2.6165000      -2.2267500      0.91600010       340.89300       2.1023302     0.016959615
       2786.0000       287.53248       98834.043       14059.662       3.6702500      -2.1120000     -0.15925000       340.88000       2.1522304     0.012555588
       2791.0000       287.55521       98837.124       14044.559       4.3395000      -2.9472500      0.22975000       340.69000       2.0422644     0.016283460
       2796.0000       287.65304       98836.511       14103.151       4.8652500      -3.4457500     -0.50600000       340.76100       2.0966806     0.014240448
       2801.0000       287.67057       98833.493       14098.845       4.4672500      -2.9135000   -0.0050000000       340.73700       2.0850484     0.019268627
       2806.0000       287.65741       98834.340       14064.585       5.7347500      -1.7802500    -0.017000000       340.78600       2.0670567     0.019405539
       2811.0000       287.65121       98837.406       14054.689       4.2570000      -3.1035000     -0.11100000       340.73300       1.9508144     0.022442004
       2816.0000       287.58956       98834.232       14014.126       4.7077500      -2.5370000     -0.22675000       340.79200       3.3166950      0.14674100
       2821.0000       287.59173       98834.469       14031.101       5.2045000      0.12525000      0.96625010       340.85900       2.4381741     0.081819794
       2826.0000       287.64171       98844.757       14103.263       4.5375000      -3.4280000      0.43950000       340.91300       2.0101048     0.028271099
       2831.0000       287.66211       98848.431       14142.336       5.5600000      -2.2107500     -0.88275000       340.62600       2.1530492     0.013721135
       2836.0000       287.69918       98845.784       14201.142       3.5692500     -0.82575010     -0.64675000       340.84000       1.9814675     0.024855201
       2841.0000       287.71331       98844.847       14234.211       4.5217500     -0.82825010     -0.41700000       340.82500       2.0648583     0.020788666
       2846.0000       287.67722       98845.964       14211.892       4.1282500      -1.5362500     -0.17325000       340.78600       2.1174481     0.014544471
       2851.0000       287.70923       98845.328       14264.671       3.3905000     -0.55050000     -0.19025000       340.85700       2.0609823     0.018259605
       2856.0000       287.78441       98840.457       14361.883       2.6957500    -0.042750000      0.69850000       340.88300       2.1206985     0.013350326
       2861.0000       287.82428       98839.148       14429.389       4.1350000      0.78875010     -0.20425000       340.70700       2.3834321     0.029890198
       2866.0000       287.91005       98840.457       14555.468       3.7182500     -0.47125000     -0.10400000       340.86300       1.8111686     0.041742528
       2872.0000       287.91805       98840.491       14594.082       4.2642500      -1.5547500    -0.015500000       340.81000       2.1097234     0.017877351
       2877.0000       287.85389       98839.297       14554.055       3.1167500      -2.3265000     -0.89675000       340.80300       1.8270514     0.048154592
       2882.0000       287.83386       98841.161       14549.363       3.1980000     -0.40550000     0.059500000       340.84900       1.4782458     0.077766581
       2887.0000       287.78727       98845.662       14507.453       2.0365000     -0.29700000      0.26525000       340.90800       1.9011604     0.029150113
       2892.0000       287.79462       98845.741       14519.875       2.3712500     -0.90725000     -0.20000000       340.94200       2.0151355     0.020976120
       2897.0000       287.85510       98846.079       14588.935       2.7810000     -0.20325000      0.55075000       341.02000       2.2416045     0.020868113
       2902.0000       287.85621       98845.219       14575.779       3.6770000      -1.1960000    -0.080750000       340.79500       1.9987482     0.016044117
       2907.0000       287.85733       98839.193       14545.412       3.4702500     -0.44375000      0.16275000       340.98300       2.0914566     0.014916610
       2912.0000       287.84886       98839.937       14516.743       3.1270000     -0.26175000      0.31775000       341.01800       2.0799508     0.033879136
       2917.0000       287.79705       98844.805       14425.100       2.6917500     -0.55175000      0.21025000       341.06600       2.0732525     0.025227905
       2922.0000       287.78579       98846.807       14407.577       3.5350000      -1.1175000     -0.29300000       340.96100       2.0857530     0.013588396
       2927.0000       287.79991       98851.397       14437.046       3.1572500     -0.38375000    0.0045000000       341.01500       1.9409309     0.031455987
       2932.0000       287.79985       98850.620       14445.338       2.8660000     -0.40625000      0.47500000       341.02200       1.9527977     0.036610133
       2937.0000       287.80051       98844.533       14465.515       3.7960000     -0.46675000      0.14425000       340.97700       2.1685369     0.011620546
       2942.0000       287.80074       98844.325       14479.664       4.1637500      -2.2417500     -0.33175000       340.75700       2.2721599     0.019833118
       2947.0000       287.80932       98844.610       14493.818       3.3512500      -1.5532500    -0.064250000       340.91500       2.0525799     0.017393753
       2952.0000       287.79092       98845.473       14501.157       2.9017500      -1.0052500     -0.69025000       340.75000       2.0039318     0.024177938
       2957.0000       287.75444       98851.439       14511.776       1.9960000     -0.79575000      0.34025000       340.97300       2.0492182     0.017436745
       2963.0000       287.73004       98850.130       14501.170       3.9162500     -0.98625000     0.090500000       340.84900       2.0201213     0.014892631
       2968.0000       287.69364       98844.719       14479.636       3.3390000     -0.67525010     0.039000000       340.74700       2.0425209     0.015363685
       2973.0000       287.68535       98846.221       14433.283       3.6757500     -0.50225000      0.48425000       340.96300       1.9975393     0.016927344
       2978.0000       287.69412       98845.214       14410.711       4.3687500      -1.9192500    -0.020750000       340.78800       2.1179312     0.014470914
       2983.0000       287.73017       98841.276       14402.360       4.1617500     -0.78125010    -0.082500000       340.97800       2.1204375     0.013120806
       2988.0000       287.74980       98844.004       14390.751       3.0647500      -1.6062500      0.19900000       340.81900       2.0316402     0.025773409
       2993.0000       287.79998       98858.356       14409.998       2.9400000     -0.28550000      0.28350000       340.99600       2.0283871     0.027424842
       2998.0000       287.81242       98857.933       14403.684       2.7985000      -1.1095000      0.17175000       341.03900       2.0210115     0.021344877
       3003.0000       287.80022       98852.608       14383.401       2.9730000     -0.37725000      0.20725000       340.98900       2.0279331     0.018691891
       3008.0000       287.75057       98844.084       14339.641       4.5177500     -0.47550000      0.45350000       340.97700       2.0903097     0.020080880
       3013.0000       287.73021       98847.207       14325.979       3.8865000      -1.9055000      0.18175000       340.95600       2.0661589     0.017776689
       3018.0000       287.68821       98845.286       14300.500       4.7662500      -1.7270000     -0.27775000       340.82300       2.0286201     0.016262702
       3023.0000       287.74547       98839.995       14370.951       3.8827500     -0.82775000     -0.26325000       340.86500       2.1950947     0.018945990
       3028.0000       287.75728       98844.894       14393.821       2.9257500      -1.2715000      0.46600000       340.89500       2.0994091     0.014271112
       3033.0000       287.74012       98850.202       14386.819       4.2692500     -0.44825000      0.24425000       340.91500       1.9658507     0.026103627
       3038.0000       287.75007       98845.189       14404.014       3.9332500     -0.75550000     -0.60450010       340.82100       2.0211539     0.018546962
       3043.0000       287.76002       98840.161       14419.094       3.4717500     -0.17250000     0.047250000       340.96200       2.0039027     0.015971595
       3048.0000       287.73622       98845.422       14398.443       3.7765000      -1.8792500     -0.46250000       340.76300       1.9710476     0.018627371
       3054.0000       287.82416       98849.353       14489.458       4.5980000     -0.94825010     -0.47125000       340.86500       2.0580863     0.014683270
       3059.0000       287.86320       98844.257       14528.824       3.4270000      -2.0345000     -0.47575000       340.84700       1.9609618     0.026342519
       3064.0000       287.90474       98841.196       14566.236       1.9022500      -1.1002500      0.59500000       341.01400       2.1508442     0.018929066
       3069.0000       287.91267       98846.146       14574.784       1.9690000     -0.78550000      0.22175000       340.91600       2.1247243     0.015144461
       3074.0000       287.86554       98849.000       14528.051       2.6190000     -0.65525000    -0.089500000       340.98100       2.0567519     0.022412125
       3079.0000       287.84560       98843.963       14510.075       2.0755000     -0.83350000   -0.0020000000       341.06000       2.1256593     0.017603492
       3084.0000       287.81004       98845.505       14486.417       3.4000000     -0.28550000     -0.41075000       341.09700       1.9748188     0.025208489
       3089.0000       287.79145       98847.086       14469.865       2.0400000      -1.5060000      0.14400000       341.06400       2.0692022     0.019451455
       3094.0000       287.81510       98831.788       14499.556       3.7110000      -1.4770000     0.089750010       340.88500       2.0395295     0.023737560
       3099.0000       287.80385       98826.434       14476.377       2.6507500    -0.095250000      0.16375000       340.99800       2.0414553     0.018803461
       3104.0000       287.75265       98836.948       14399.852       2.6482500     -0.45325000      0.16500000       341.02200       2.0238753     0.016412122
       3109.0000       287.74425       98841.964       14360.775       2.6322500      -1.3292500       1.2162500       341.03800       2.0955533     0.021207600
       3114.0000       287.73029       98845.277       14277.709       3.5785000     -0.67750000      0.14500000       340.92200       2.1123367     0.018461031
       3119.0000       287.74247       98846.252       14260.782       2.5552500    -0.043000000      0.16100000       341.09000       2.0584967     0.016170334
       3124.0000       287.82452       98844.515       14329.508       1.9380000      -1.3257500       1.2522500       341.28600       2.0320384     0.020259919
       3129.0000       287.86292       98845.522       14363.527       3.1062500    -0.042000000     -0.23325000       341.06200       2.1924092     0.014366322
       3134.0000       287.89071       98844.563       14424.317       1.4095000      -1.3347500     0.013500000       341.26000       2.1518232     0.012034236
       3139.0000       287.90950       98844.706       14462.785       2.6895000     0.072000000     -0.23075000       341.03500       2.0299197     0.016192973
       3145.0000       287.87488       98851.053       14446.588       3.6467500      -1.0577500     -0.48475000       341.05800       2.1450822     0.012830902
       3150.0000       287.90284       98851.330       14493.040       1.4455000     -0.91350010      0.57425000       341.14000       2.0556622     0.017671667
       3155.0000       287.99045       98842.423       14593.166       3.0837500      0.65575000     0.013000000       340.95800       2.0533556     0.018931015
       3160.0000       288.01700       98844.463       14649.078       4.3607500       1.7957500     -0.68275000       340.77700       2.0729660     0.021277753
       3165.0000       288.05227       98858.807       14735.509       3.3052500     0.071750000     0.031750000       341.06800       2.1138281     0.016464621
       3170.0000       288.06445       98856.345       14777.154       4.4255000     -0.65500000      0.28600000       340.90900       2.0727779     0.020157585
       3175.0000       288.00523       98843.244       14761.777       2.8662500      -1.0757500     -0.11150000       341.00600       2.1042101     0.018405100
       3180.0000       287.98910       98844.938       14755.898       2.9805000     -0.18375000     0.014250000       341.10200       1.9555712     0.030308619
       3185.0000       288.00010       98848.064       14744.485       3.8942500     -0.95725010     -0.24575000       340.73600       2.1692919     0.016800678
       3190.0000       288.00026       98843.094       14725.050       2.8755000      -1.6395000      0.39475000       340.98900       2.0298710     0.020658113
       3195.0000       288.00016       98842.214       14687.979       2.6275000     -0.40125000     -0.53950000       340.86500       2.0175171     0.019002798
       3200.0000       288.00031       98847.351       14654.840       1.8117500      -1.4992500      0.89550010       340.96800       2.0416455     0.020497480
       3205.0000       288.00033       98848.639       14612.384       3.3815000     -0.50525000     -0.11575000       341.03400       2.0052060     0.023212707
       3210.0000       288.00041       98843.694       14582.656       3.9542500       1.4300000      0.55975000       341.01800       2.1929450     0.013150763
       3215.0000       287.98706       98845.004       14532.351       3.0535000      -1.0147500     0.085500000       341.10300       2.0314708     0.015231256
       3220.0000       288.00078       98847.298       14533.940       2.7902500    -0.078750010     -0.24800000       341.13300       2.1016542     0.017553984
       3225.0000       288.03711       98835.161       14579.756       3.2287500     -0.41150000     -0.19200000       340.85500       2.0500354     0.016592054
       3230.0000       288.05712       98831.719       14609.254       3.9915000     -0.67800000     -0.28150000       340.90100       2.0906755     0.015740901
       3236.0000       288.12093       98844.733       14699.479       3.5642500      0.43750000     -0.62150000       341.02100       2.0787206     0.016182167
       3241.0000       288.10199       98848.558       14709.716       2.8260000      0.39600000     0.053250000       340.89700       1.9745975     0.027175028
       3246.0000       287.99216       98844.570       14640.424       2.8212500      0.10250000     -0.45450000       341.03400       2.0633565     0.016844758
       3251.0000       287.98450       98845.172       14661.196       2.1932500     -0.34250000     -0.58600000       340.96000       2.1197313     0.018335063
       3256.0000       287.99688       98853.707       14712.255       2.4210000      0.59600000      0.95425000       341.05900       2.1770838     0.018624225
       3261.0000       287.99342       98850.264       14728.332       2.2355000      0.18975000    -0.090000000       341.11700       2.0645722     0.018867675
       3266.0000       288.07855       98832.101       14824.928       2.8507500      -1.4310000      0.68500010       341.19100       2.1188665     0.014684819
       3271.0000       288.05401       98834.161       14791.552       1.4912500      -1.1792500      0.73225000       340.97300       2.0828620     0.018777096
       3276.0000       287.91822       98846.911       14628.638       3.5067500      -2.5252500     -0.17975000       340.83400       2.0277332     0.022515712
       3281.0000       287.86416       98844.668       14551.167       3.0705000     -0.90700010      0.36675000       341.11400       2.1206314     0.016857214
       3286.0000       287.80263       98848.706       14455.332       2.2232500     -0.47975000      0.71275000       341.22300       1.9830348     0.027593966
       3291.0000       287.77487       98845.666       14384.390       3.1522500      0.28700000     -0.20825000       340.88300       2.0833872     0.015862830
       3296.0000       287.77743       98815.052       14334.858       3.3897500     -0.58025000      0.14525000       341.00000       2.0259958     0.019874847
       3301.0000       287.80956       98816.175       14324.147       2.9795000     -0.96775010      0.30300000       340.96400       2.2087764     0.012621629
       3306.0000       287.88407       98841.460       14327.637       3.7850000      -1.1035000     0.064500000       340.91300       2.1517266     0.012684785
       3311.0000       287.92360       98851.416       14345.697       3.0982500     -0.20350000     -0.45025000       340.77600       2.0590845     0.016026579
       3316.0000       287.99916       98873.598       14435.697       3.1212500     -0.77825000     -0.21750000       340.80600       2.1107389     0.018926676
       3321.0000       288.02638       98875.453       14469.915       3.4092500      -1.1857500      0.12750000       341.00900       2.1269057     0.014300944
       3327.0000       287.99975       98855.570       14478.208       3.6427500      0.10975000      0.96150000       341.04700       2.0691848     0.013880807
       3332.0000       287.99970       98851.435       14494.939       3.6547500     -0.63650000      0.22625000       340.88800       2.1120051     0.017186306
       3337.0000       287.99083       98841.954       14487.436       3.2417500     -0.22150000     0.066750000       340.99700       2.0895961     0.013709750
       3342.0000       288.00942       98844.246       14540.064       3.7310000     -0.69925000    -0.096500000       341.09400       2.0185879     0.019423764
       3347.0000       288.05534       98864.296       14633.017       1.9767500      0.33000000     0.056000000       341.19700       2.0818953     0.015651609
       3352.0000       288.05663       98860.050       14686.608       2.2230000      0.10125000      0.23675000       341.09800       2.1163831     0.012911933
       3357.0000       288.05689       98843.551       14779.385       3.0065000      -1.1267500     0.054500000       340.96400       2.0937530     0.016067808
       3362.0000       288.04831       98845.194       14798.013       3.2147500     -0.17350000    -0.092250000       340.91800       2.0858402     0.016940403
       3367.0000       288.00676       98846.357       14766.515       3.6382500     -0.25600000     -0.18250000       340.75400       1.8389188     0.037847867
       3372.0000       287.97676       98841.479       14722.783       2.7980000     -0.78575000    -0.063750010       340.79800       2.0258900     0.026530274
       3377.0000       287.95461       98844.494       14642.241       2.4165000     -0.18550000      0.36825000       341.05000       2.1015040     0.014323662
       3382.0000       287.93483       98849.696       14582.457       2.0382500      0.38400000     0.077250000       341.10600       2.1232327     0.017312296
       3387.0000       287.89615       98844.651       14501.682       2.2987500     -0.74050000     -0.16100000       341.02000       2.1547129     0.012072717
       3392.0000       287.88451       98843.348       14437.459       1.9302500     -0.97550000    -0.096500000       341.07300       2.1066344     0.015227971
       3397.0000       287.90004       98857.042       14383.458       2.2647500      0.15425000    -0.089250010       341.05300       2.0369862     0.021102245
       3402.0000       287.90011       98858.538       14339.329       2.9640000     -0.76200000     -0.26650000       340.78500       2.0780262     0.017664790
       3407.0000       287.89105       98843.945       14276.062       2.0660000     -0.28825000     0.041750000       341.00400       2.1555060     0.012140174
       3413.0000       287.91561       98842.815       14287.057       1.6775000     0.046000000      0.32550000       341.06600       2.1623350     0.013635947
       3418.0000       287.95013       98852.634       14339.237      0.67400000      0.19900000      0.62950000       341.30100       2.1749361     0.017498852
       3423.0000       287.99983       98833.661       14433.654       2.5222500     -0.64600000     -0.34725000       341.11000       2.0532900     0.019389691
       3428.0000       288.01257       98831.876       14479.686       2.3902500     -0.62975000     0.013000000       341.18300       2.0839725     0.018845708
       3433.0000       287.95502       98848.862       14463.432       1.7917500     -0.43325000     -0.30925000       341.10900       2.0625023     0.015483744
       3438.0000       287.94415       98847.235       14485.257       2.0915000     -0.26450000    0.0092500000       341.22200       2.0785463     0.016070305
       3443.0000       287.94504       98838.866       14515.366       1.6272500     -0.43975000      0.32600000       341.42700       2.1510863     0.016225358
       3448.0000       287.94368       98841.007       14530.295       3.1867500    -0.088750000     -0.14050000       340.91200       2.1322213     0.017556484
       3453.0000       287.95460       98841.925       14548.478       2.4510000     -0.52600000      0.24550000       341.21800       2.0216073     0.016016272
       3458.0000       288.00707       98826.456       14600.897       2.6030000     -0.28425000     0.067000000       341.26200       2.0748736     0.015295859
       3463.0000       288.01606       98829.466       14604.735       3.3750000     -0.94775000     -0.46275000       341.02600       2.1413046     0.012522887
       3468.0000       287.99460       98853.387       14564.944       2.8867500     -0.36300000      0.26575000       341.05800       2.0956819     0.016018764
       3473.0000       288.01594       98842.688       14579.325       3.6355000     -0.58400010      0.12200000       341.02900       2.1043885     0.013881922
       3478.0000       288.04489       98843.169       14589.903       2.2932500     -0.90625010      0.21575000       341.03100       2.0330231     0.028094356
       3483.0000       288.13039       98858.372       14635.141       2.9150000      -1.3147500    -0.014750000       340.99600       2.0088742     0.025255234
       3488.0000       288.16253       98857.910       14642.849       3.2555000     -0.56325000     0.097500000       340.89000       2.0407254     0.018294653
       3493.0000       288.17004       98852.546       14629.878       3.3665000     -0.55225000    -0.080250000       340.98000       2.1309469     0.016631399
       3498.0000       288.15735       98844.099       14591.162       2.6030000      -2.1302500      0.17375000       341.06300       2.1474776     0.013773307
       3504.0000       288.09585       98845.058       14539.416       3.1205000      -1.9900000     -0.30775000       341.06500       2.0134655     0.017872932
       3509.0000       288.08833       98843.340       14530.716       3.6350000     -0.30500000     -0.44575000       341.18500       2.0568878     0.020269112
       3514.0000       288.13491       98859.986       14576.407       1.2597500      0.67550000      0.96925000       341.33600       2.1149400     0.017611796
       3519.0000       288.15524       98864.297       14592.930       3.1102500      -1.3440000      0.16350000       341.25700       2.0218900     0.018535709
       3524.0000       288.19048       98844.541       14604.789       2.2230000     -0.67975000     0.011500000       341.16100       2.1094779     0.017706720
       3529.0000       288.20883       98842.268       14623.870       2.9837500      -1.1947500     -0.26300000       340.97600       1.8686585     0.046447644
       3534.0000       288.18589       98858.664       14610.797       2.0330000      -1.0355000      0.13200000       341.17300       2.0818693     0.015575871
       3539.0000       288.19708       98857.260       14640.411       4.0997500      -1.5605000    -0.052500000       340.92400       2.1292728     0.012112670
       3544.0000       288.24735       98843.331       14744.179       3.0322500     -0.76200000      0.14575000       341.14800       2.0891348     0.016951857
       3549.0000       288.25576       98844.597       14779.771       2.5077500     -0.47850000      0.16275000       341.12700       2.1022298     0.016383775
       3554.0000       288.24211       98845.250       14791.322       1.7620000     -0.91450010     -0.37750000       341.21200       2.0858564     0.019547878
       3559.0000       288.25253       98843.582       14811.132       2.6445000      -1.1402500     0.021500000       341.25700       2.0476647     0.015740086
       3564.0000       288.23004       98859.857       14777.520       2.3545000      -1.3667500     0.085500000       341.23400       2.1862878     0.014129340
       3569.0000       288.24213       98864.206       14773.418       3.7662500     -0.83775000     0.089000000       341.25300       2.1325306     0.014854623
       3574.0000       288.33880       98844.518       14832.946       3.8665000     -0.85200010      0.37575000       341.20000       2.0921694     0.019828315
       3579.0000       288.36602       98842.175       14836.660       2.7185000      -1.2092500     -0.60350000       340.88500       2.0579151     0.019305601
       3584.0000       288.35732       98858.609       14796.221       2.9107500      -1.1845000     -0.13875000       341.06900       2.0361011     0.016354738
       3589.0000       288.35596       98857.038       14778.177       3.1837500      -1.3205000     0.058500000       341.19700       2.1461252     0.012597252
       3595.0000       288.29236       98843.278       14720.299       2.7495000      -1.8210000     -0.24200000       341.15700       1.9307151     0.024740779
       3600.0000       288.28983       98845.116       14712.156       2.7422500     -0.17975000      0.47475000       341.22200       2.1052578     0.021669885
       3605.0000       288.35195       98841.900       14769.962       1.7637500     -0.29200000      0.13925000       341.42500       2.0677330     0.017647376
       3610.0000       288.35850       98843.715       14769.919       2.6877500      -1.1787500    -0.073000010       341.14400       1.9703672     0.025791802
       3615.0000       288.34427       98874.350       14749.907       3.3012500     -0.99450000    -0.040500000       341.12600       2.1646583     0.019233387
       3620.0000       288.35418       98875.446       14740.458       2.7382500      -1.2430000      0.79450010       341.50600       2.0366528     0.021807651
       3625.0000       288.31718       98844.833       14676.333       3.1105000     -0.93475000    -0.064500000       341.09500       2.0478676     0.021564517
       3630.0000       288.34801       98841.695       14680.721       2.6367500     -0.23375000     0.027750000       341.50900       2.0200436     0.016492572
       3635.0000       288.46895       98845.244       14731.942       2.1607500     -0.36150000     -0.33800000       340.98200       2.1382532     0.018865430
       3640.0000       288.52511       98842.966       14784.465       1.6400000    -0.045500000      0.75300000       341.53800       2.0705565     0.021133488
       3645.0000       288.58877       98854.814       14893.101       1.7312500     -0.87500010     -0.16600000       341.34800       2.1156682     0.020275205
       3650.0000       288.62154       98858.345       14950.281       2.7352500     -0.43550000     -0.35550000       341.23600       2.1489721     0.021466914
       3655.0000       288.57423       98843.003       14981.260       2.1905000      0.17275000      0.15975000       341.60800       2.1821875     0.016417946
       3660.0000       288.60143       98842.780       15025.791       2.4712500     0.034250000    -0.041500000       341.44900       2.1243769     0.015583324
       3665.0000       288.67665       98863.900       15065.457       2.7370000      0.79175000     -0.41200000       341.20500       2.1048935     0.021314084
       3670.0000       288.71647       98862.622       15085.535       2.6787500      0.12825000      0.30400000       341.54700       2.1389291     0.014821610
       3675.0000       288.79022       98846.669       15120.600       2.8277500      0.81775000     -0.50050000       341.30000       1.9849649     0.018365001
       3680.0000       288.82235       98844.011       15119.174       2.8877500       1.2207500     -0.60650000       341.59300       2.0863645     0.018000263
       3686.0000       288.80017       98833.645       15059.425       3.6075000     0.027500000     -0.28950000       341.42700       2.0834773     0.015406000
       3691.0000       288.80034       98832.852       15028.019       3.5067500    -0.025000000     -0.22025000       341.51600       2.0099518     0.018951115
       3696.0000       288.77793       98853.393       14982.172       2.7240000     -0.54000000      0.18650000       341.80300       2.1035046     0.019253093
       3701.0000       288.81027       98852.639       14962.399       3.4910000      0.10250000     -0.52650000       341.43200       2.0985547     0.015315936
       3706.0000       288.88415       98832.085       14964.142       2.1207500     -0.49175000      0.11250000       342.18100       2.0830214     0.019069002
       3711.0000       288.92373       98834.244       14948.600       2.2372500     -0.81025000      0.17150000       341.12400       2.1070931     0.016817884
       3716.0000       289.04381       98844.862       14950.967       2.7377500     -0.58500000      0.46400000       342.00600       2.2428549     0.020206883
       3721.0000       289.00732       98845.825       14920.531       3.3892500     -0.54025000     -0.29150000       341.97500       2.5707171     0.021423219
       3726.0000       288.82426       98857.634       14865.969       2.0020000     -0.45650000    -0.013750000       342.10800       2.0480310     0.025339399
       3731.0000       288.76017       98858.443       14812.143       2.5682500     -0.43600000      0.15775000       341.92700       2.0723202     0.015650552
       3736.0000       288.64681       98837.325       14744.283       2.2562500      0.45625000      0.81900010       342.71700       1.4586495     0.072271559
       3741.0000       288.61109       98838.015       14677.658       2.0142500     -0.79725000      0.62975000       342.44800       1.9077891     0.027679654
       3746.0000       288.68786       98856.466       14590.395       1.8220000      0.67875000      0.72575000       342.64200       2.0340855     0.022971378
       3751.0000       288.71768       98857.668       14540.367       1.9187500    -0.071250010      0.21925000       342.14300       2.0317829     0.020002462
       3756.0000       288.71994       98857.322       14475.175       2.2027500     -0.15425000    -0.010250000       342.19400       2.0367674     0.017446436
       3761.0000       288.77203       98855.397       14485.372       4.3992500     0.010000000     0.028250000       341.56200       2.0144248     0.021137759
       3766.0000       288.89341       98837.003       14576.233       3.3355000     -0.94050000     -0.67325000       341.99000       2.0122142     0.018633117
       3771.0000       288.93073       98837.882       14615.445       3.3932500     -0.51100000     -0.35375000       341.05800       2.0415069     0.016774054
       3777.0000       288.95073       98858.524       14682.398       2.7717500     -0.31800000     0.051500000       341.97200       2.0473001     0.017364216
       3782.0000       288.97227       98855.165       14745.650       3.0715000      0.40300000      0.29275000       342.13900       1.9835682     0.018724736
       3787.0000       288.92621       98845.205       14764.625       4.0400000     -0.25100000      0.99550000       341.60200       1.9738250     0.020504675
       3792.0000       288.97236       98844.210       14866.678       2.6232500      -1.1657500     -0.72000000       342.65000       2.0217142     0.016347626
       3797.0000       289.09564       98830.714       15061.837       3.8207500      -1.1362500     -0.47950000       341.79800       2.0936629     0.014343444
       3802.0000       289.14640       98834.858       15153.342       1.9077500      -1.7072500      0.65175000       342.45200       1.9733512     0.017622806
       3807.0000       289.20540       98864.903       15249.893       2.9532500      -1.8017500     -0.43600000       341.49300       2.1874230     0.013085099
       3812.0000       289.22775       98863.007       15284.102       2.2942500     -0.98400000      0.54250000       342.50300       2.1222206     0.012598683
       3817.0000       289.19032       98843.635       15230.134       2.4067500      -1.2265000      0.43000000       341.74900       2.0311667     0.016754867
       3822.0000       289.20905       98845.231       15232.014       3.2857500      -2.6192500      0.63325010       341.68000       2.0334611     0.016581408
       3827.0000       289.22830       98841.894       15225.512       4.0477500      -2.1355000     -0.49825000       341.49900       2.0295985     0.018397253
       3832.0000       289.28593       98846.218       15240.722       5.3040000     -0.37225000      0.29875000       341.72700       2.1471694     0.014492989
       3837.0000       289.39681       98876.597       15269.868       4.3465000      -2.3380000      0.30000000       341.99400       2.0899349     0.016547871
       3842.0000       289.44820       98873.045       15309.201       2.9912500      -2.5845000      0.34950000       341.82500       2.0484550     0.012605553
       3847.0000       289.48854       98842.693       15355.617       4.7432500      -2.2137500     -0.55025010       340.99300       2.0456170     0.015919133
       3852.0000       289.54826       98842.013       15423.092       5.1650000      -1.3590000    -0.086750000       340.96900       2.0358634     0.018358773
       3857.0000       289.58985       98841.518       15522.184       3.5095000      -1.2950000     -0.19625000       341.28200       2.0275672     0.015369129
       3862.0000       289.62999       98846.135       15585.922       4.3210000      -2.1092500     -0.26725000       341.72700       2.1426454     0.010829089
       3868.0000       289.74140       98876.227       15680.146       3.7512500      -1.9125000     -0.30075000       341.81000       2.0474013     0.017262481
       3873.0000       289.54674       98847.489       15671.605       2.9107500      -1.1177500      0.95625010       342.18200       2.0057190     0.020257869
       3878.0000       289.44549       98841.645       15633.114       4.1482500      -1.3972500     0.034250000       341.85700       2.0942364     0.011457242
       3883.0000       289.25804       98845.771       15517.821       4.5962500      -1.0912500     0.012250000       341.71200       2.0015013     0.016149277
       3888.0000       289.16215       98843.474       15423.170       5.4505000      -1.2720000     -0.24275000       341.09900       2.0162190     0.015877363
       3893.0000       289.21513       98861.206       15291.648       4.2547500     -0.95225010     -0.47575000       341.66000       2.0341458     0.012531216
       3898.0000       289.24374       98865.172       15201.124       4.4660000      -2.7320000    -0.028250000       341.60100       2.1261887     0.011817726
       3903.0000       289.28464       98859.292       15133.210       3.7062500     -0.80725000    -0.097000000       341.63300       2.0858533     0.012245101
       3908.0000       289.35504       98831.048       15086.984       4.9255000      -1.4050000     -0.78100000       341.90600       2.0567385     0.015024602
       3913.0000       289.38378       98833.993       15046.144       3.5312500     -0.16925000     0.059000000       341.65500       1.9244407     0.022460627
       3918.0000       289.40028       98843.569       15030.397       2.5752500     -0.40475000       1.3537500       342.46800       1.9859618     0.020716246
       3923.0000       289.46005       98870.121       15032.039       3.4745000      0.60650000      0.11025000       342.33400       2.0381997     0.012964542
       3928.0000       289.46319       98876.620       15021.366       2.4037500     -0.74300000     -0.10500000       342.43400       2.0917041     0.010602388
       3933.0000       289.39499       98847.797       14995.541       2.0745000      -1.9442500     -0.32325000       342.87000       2.0280032     0.016007058
       3938.0000       289.39386       98842.289       15008.200       2.6222500     -0.61825000     -0.11550000       342.53500       2.1606241     0.012920863
       3943.0000       289.40507       98842.933       15036.658       2.3677500      -1.3702500     -0.38100000       342.40000       1.9749658     0.018046054
       3948.0000       289.39297       98843.180       15070.964       2.6237500     -0.86925010     -0.25725000       342.60100       2.0145760     0.016225232
       3953.0000       289.39500       98844.731       15096.935       3.3857500    -0.090250010     -0.29225000       342.39800       2.0765439     0.014984472
       3959.0000       289.46409       98864.545       15166.000       1.5350000     -0.90400000     0.044750000       342.49600       1.8973181     0.022242868
       3964.0000       289.39505       98834.670       15114.867       3.0077500     -0.66050000    -0.076250000       341.90900       1.9898555     0.019848407
       3969.0000       289.38705       98830.353       15098.163       3.2907500     -0.87950000     -0.87125000       342.31200       2.0216695     0.010501822
       3974.0000       289.39148       98843.076       15053.497       2.8975000     -0.71850000      0.10225000       342.42000       1.9503899     0.021016423
       3979.0000       289.44499       98845.208       15062.714       3.3477500      0.26125000      0.33775000       342.55600       2.0269304     0.016505615
       3984.0000       289.60652       98862.787       15139.997       3.5895000     -0.98200010     -0.26300000       341.87900       1.9991580     0.022782540
       3989.0000       289.67379       98864.784       15178.529       3.2915000      -1.3857500    -0.080000010       341.27600       1.9885074     0.016442345
       3994.0000       289.73719       98835.004       15236.500       1.3067500     -0.13175000     -0.22875000       342.06200       2.0537911     0.011133842
       3999.0000       289.77303       98830.936       15276.748       2.3235000     -0.15600000      0.48425000       342.30900       2.1082348     0.012254782
       4004.0000       289.71049       98843.000       15276.212       1.5732500     -0.45875000       1.1490000       342.87700       2.0464610     0.012512702
       4009.0000       289.69167       98845.030       15292.180       4.1960000      0.84475000     -0.43025000       341.48200       2.0092749     0.013659600
       4014.0000       289.72837       98862.681       15353.313       4.4457500     -0.21775000     0.070250000       342.06600       1.9674312     0.017751912
       4019.0000       289.70635       98864.841       15350.309       5.7010000      -1.3925000      0.31050000       341.76900       2.0218716     0.018480441
       4024.0000       289.61766       98834.952       15295.167       5.1657500     -0.43350000     -0.27825000       341.20300       2.0868542     0.010179579
       4029.0000       289.58925       98830.949       15259.699       3.6460000      -1.0335000     -0.42150000       341.67700       2.0617309     0.017660544
       4034.0000       289.53808       98839.907       15157.910       2.3060000       1.1910000    -0.083000000       342.38700       2.0859880     0.010367984
       4039.0000       289.53235       98844.374       15122.199       3.0295000      0.82975010     -0.58750000       341.94400       2.0516820     0.011514743
       4045.0000       289.67073       98874.078       15146.164       3.5535000      0.81625000     -0.16625000       341.70000       2.1080810     0.011472672
       4050.0000       289.66525       98875.316       15160.672       3.9060000      -1.9162500     0.063750010       342.50900       1.9877536     0.013890177
       4055.0000       289.57840       98846.950       15239.980       4.1457500      0.72825000      0.52775000       342.18100       1.9965301     0.013788951
       4060.0000       289.53425       98840.958       15231.575       4.2837500      -1.9167500     0.016000000       341.67500       2.0033506     0.013994453
       4065.0000       289.44021       98830.428       15180.411       2.2810000     -0.46625000      0.71650000       342.17000       2.0371202     0.013435311
       4070.0000       289.36479       98832.572       15119.167       3.1227500     -0.91950010     -0.56450000       341.87800       2.0427471     0.010831163
       4075.0000       289.33694       98864.106       15007.085       3.5540000     -0.51400000      0.34975000       341.98700       2.0753572     0.011483961
       4080.0000       289.28358       98870.869       14895.512       3.2115000      -1.9117500     -0.32375000       342.24200       2.0423203     0.011272297
       4085.0000       289.17337       98868.997       14746.377       3.3082500     -0.63525000     -0.19575000       341.75300       1.9607956     0.014688421
       4090.0000       289.12103       98866.455       14655.541       2.8470000     -0.87850000      0.15175000       342.10600       2.0421947     0.013256868
       4095.0000       289.10538       98844.246       14559.631       3.1295000     -0.69650000     0.075000000       341.88800       2.0402516     0.016331451
       4100.0000       289.08884       98841.448       14503.950       2.9812500      0.15300000     0.090500000       342.52500       2.0126096     0.013064603
       4105.0000       289.08695       98856.216       14510.963       2.2392500     -0.80675010      0.31700000       342.48800       1.9871672     0.012401176
       4110.0000       289.10042       98856.547       14514.121       2.4857500      -2.1067500     -0.25675000       342.30500       2.0283503     0.015868080
       4115.0000       289.16425       98860.215       14537.468       2.3455000     -0.33700000    -0.064500000       342.88900       1.8806901     0.013722727
       4120.0000       289.15680       98856.489       14550.061       3.2990000      -2.2757500     -0.23750000       341.83900       1.9869044     0.015588971
       4125.0000       289.10706       98827.589       14571.595       2.7135000      -1.6132500     -0.17175000       342.23900       2.0869200     0.011967358
       4130.0000       289.09694       98825.766       14597.156       1.7735000      -1.1665000      0.66150000       342.49600       2.0048507     0.017024427
       4136.0000       289.05580       98843.813       14633.976       2.6395000      -1.5665000      0.63700000       342.63400       1.9757400     0.014587981
       4141.0000       289.03210       98847.842       14639.962       2.6637500      -2.3917500    -0.058500000       342.21300       2.0735903     0.011096233
       4146.0000       289.05672       98864.880       14647.961       2.7797500      -1.6675000    -0.089500000       341.88700       1.9516356     0.015170022
       4151.0000       289.05057       98862.964       14640.095       3.9387500      -2.1205000     -0.47225000       342.10200       1.9780471     0.018090125
       4156.0000       289.00089       98832.305       14590.525       3.8722500      -2.3345000      0.72525000       342.02300       2.0336806     0.012616150
       4161.0000       288.98741       98831.792       14572.963       4.5380000      -1.7425000      0.31075000       342.15800       2.0230442     0.020458484
       4166.0000       289.00012       98841.547       14567.137       2.2602500      -1.6165000      0.41600000       342.38700       1.8823361     0.034228166
       4171.0000       289.00012       98847.326       14561.118       3.8515000      -1.5915000     -0.55875000       341.71400       2.0899712     0.010083985
       4176.0000       288.98870       98873.542       14546.868       5.2112500      -1.2312500     0.061750000       341.37800       2.0349891     0.015615565
       4181.0000       289.00530       98875.478       14568.415       2.5510000      -1.3277500      0.64350000       342.09700       1.9867628     0.016622106
       4186.0000       289.03085       98856.589       14603.197       2.7967500      -2.2600000     -0.28775000       342.13500       2.1835585     0.029780351
       4191.0000       289.06734       98852.191       14655.276       3.2262500      -1.8292500      0.76725010       341.96900       1.9752043     0.015402361
       4196.0000       289.14186       98841.383       14754.812       3.7020000      -1.3027500    -0.067250010       341.77900       2.0572761     0.012542698
       4201.0000       289.17575       98844.064       14815.794       4.1125000      -1.9230000      0.14150000       341.41500       2.0525117     0.010228466
       4206.0000       289.19939       98864.061       14875.232       5.8292500      -1.5877500     -0.25325000       341.32100       1.9542970     0.013151204
       4211.0000       289.21302       98869.790       14916.527       3.9397500      -1.2857500     -0.37900000       341.81000       2.0399218     0.018569752
       4216.0000       289.18817       98879.378       14919.238       4.2730000     -0.78750000     -0.14300000       341.47800       1.9203999     0.023925273
       4221.0000       289.20448       98876.428       14962.839       4.0535000      -1.2187500     -0.45125000       341.47200       1.9686072     0.016924055
       4227.0000       289.25469       98853.539       15034.764      0.79275010      -1.5442500      0.59175000       342.03100       2.1097537    0.0092466810
       4232.0000       289.25587       98852.046       15073.620       3.2510000      -2.3170000     -0.82275000       341.39900       2.0444908    0.0094286800
       4237.0000       289.27422       98853.217       15140.839       4.2000000      -2.2337500     0.034750000       341.71600       1.9920645     0.011545344
       4242.0000       289.22806       98855.812       15142.331       3.7570000      -1.8117500     -0.46800000       341.29300       1.9152143     0.022683446
       4247.0000       289.09550       98873.946       15085.408       1.7417500      -2.7780000     -0.22675000       341.57400       1.9481079     0.018180432
       4252.0000       289.06322       98871.668       15067.820       2.6550000      -1.0187500      0.66800000       341.57600       2.0102489     0.017777819
       4257.0000       289.04052       98855.758       15034.483       2.3520000     -0.81250010      0.22725000       341.63700       2.0266806     0.010295082
       4262.0000       289.03796       98851.692       15021.089       3.1360000      -1.1927500      0.23400000       341.69200       1.9454441     0.016091153
       4267.0000       289.12199       98841.052       15053.062       1.3915000      -2.4120000      0.33225000       341.74800       1.9946660     0.013746569
       4272.0000       289.09517       98845.388       15004.724       2.5912500     -0.93925010     0.077750000       342.03700       1.9768891     0.016233253
       4277.0000       289.00800       98865.004       14919.436       4.1277500    0.0017500000     -0.21650000       341.42200       1.9853429     0.019279016
       4282.0000       288.96784       98870.244       14848.963       4.0225000    -0.087750000     0.044250000       341.65600       1.9502656     0.020879274
       4287.0000       288.88447       98879.282       14730.291       3.3900000     -0.34050000     -0.34750000       341.47200       2.0111147     0.015468972
       4292.0000       288.88020       98875.103       14669.114       2.3492500     -0.48250000   -0.0020000000       341.76600       1.7862373     0.021371415
       4297.0000       288.94597       98853.538       14630.278       3.8085000     -0.99925010     -0.33425000       341.84600       1.9441684     0.013154837
       4302.0000       288.96576       98852.042       14620.711       4.7000000     -0.31425000     -0.69025000       341.57200       2.0164933     0.010347116
       4307.0000       289.00368       98852.167       14631.049       4.7575000     -0.51250000     -0.64600000       341.33600       2.0581214     0.014481899
       4312.0000       289.01483       98856.861       14666.233       2.9450000      -1.3720000    -0.042250000       341.82000       2.0669302    0.0099834013
       4318.0000       289.00536       98879.443       14754.480       4.4517500      0.34450000     -0.63575010       341.56000       2.0621721     0.016902684
       4323.0000       288.96910       98866.413       14851.074       2.2577500      -1.2272500      0.70025000       341.92800       1.9912263     0.022470778
       4328.0000       288.94872       98860.421       14909.709       3.3127500     -0.41325000      0.48025000       341.56100       2.0523266     0.012633389
       4333.0000       288.91477       98840.188       14971.730       1.7770000       1.2022500      0.40700000       341.85700       1.9550146     0.020170077
       4338.0000       288.89390       98835.336       14993.044       3.4230000     -0.67050000     0.051250000       341.81900       1.9534784     0.015431146
       4343.0000       288.90007       98853.930       14948.747       4.6417500     -0.72325000     -0.26300000       341.58400       2.0263009     0.016617472
       4348.0000       288.90019       98861.072       14920.741       3.8817500     -0.49350000     0.035500000       341.75900       2.0014582     0.013792839
       4353.0000       288.90031       98866.978       14886.047       3.0675000     -0.49650000     0.039500000       341.57000       1.9473765     0.019756598
       4358.0000       288.90646       98879.829       14837.354       4.4180000     -0.59925000     -0.35725000       341.57600       2.0440937     0.010359824
       4363.0000       288.88475       98874.782       14772.239       4.1535000     -0.77750000     -0.16425000       341.58400       1.9212935     0.018757477
       4368.0000       288.84390       98854.109       14698.779       3.7995000     -0.76975010     0.013000000       341.70000       2.0108043     0.011136964
       4373.0000       288.86050       98843.378       14649.287       3.7580000     -0.63600000      0.37525000       341.84500       2.0452092     0.017741831
       4378.0000       288.85070       98841.456       14595.792       4.2050000     -0.38100000     0.027750000       341.67200       2.0462182     0.014902560
       4383.0000       288.85525       98859.526       14574.268       2.9935000     -0.71000000      0.74775000       341.73700       1.9917403     0.015995772
       4388.0000       288.85652       98866.797       14546.298       4.3305000     -0.33375000     -0.13600000       341.59900       2.0401747     0.011044292
       4393.0000       288.84550       98871.596       14511.676       5.5405000      -2.0447500      0.49875000       341.65200       2.0116085     0.011975740
       4398.0000       288.79370       98879.115       14448.555       5.3642500      -2.2975000     -0.94250010       341.26800       1.9878005     0.018233846
       4403.0000       288.78512       98873.109       14432.558       4.2072500      -1.0297500      0.45075000       341.35600       1.9993104     0.012759524
       4409.0000       288.80311       98852.461       14439.748       4.0415000      0.96450010   -0.0062500000       341.38700       2.0311915     0.020063808
       4414.0000       288.76581       98852.325       14424.959       5.3340000       1.4257500     -0.44275000       341.16300       2.0688596     0.012294202
       4419.0000       288.74583       98853.861       14421.061       5.7450000     -0.62625000      0.25625000       341.39100       1.9001061     0.017541698
       4424.0000       288.72372       98872.174       14407.037       5.7317500     -0.76750000     -0.48550000       341.35500       2.0034934     0.020962743
       4429.0000       288.69409       98878.518       14404.880       4.4975000      0.33575000     -0.10850000       341.51900       2.0150037     0.015441157
       4434.0000       288.66603       98883.009       14446.771       3.9322500     -0.93175010     -0.22725000       341.60600       1.9676696     0.017765687
       4439.0000       288.64609       98877.304       14443.311       2.0185000      -1.8087500     -0.20675000       341.52100       2.0169738     0.018685148
       4444.0000       288.62467       98850.326       14425.503       3.5365000      -1.5042500      0.15875000       341.55000       2.0966508     0.011472875
       4449.0000       288.59471       98841.835       14387.360       5.8700000      0.83525000      0.16650000       341.47800       1.9808950     0.017272098
       4454.0000       288.56613       98831.498       14290.443       4.8042500      -2.0100000     -0.27600000       341.27200       2.0076215     0.019502240
       4459.0000       288.54614       98831.529       14232.641       4.1022500     -0.71000000      0.28625000       341.42800       2.0431262     0.014357869
       4464.0000       288.52456       98859.250       14219.560       4.0470000     -0.86525010       1.1230000       341.36600       1.9835886     0.018321341
       4469.0000       288.49476       98869.955       14146.702       3.6332500     -0.19225000     -0.25525000       341.32100       1.9109200     0.027482663
       4474.0000       288.48021       98881.012       14046.565       4.9217500      -2.3240000     -0.14225000       341.26400       2.0891198     0.011437939
       4479.0000       288.44924       98878.960       13957.127       2.7957500     -0.67225000     -0.12150000       341.40100       1.9687270     0.015319609
       4484.0000       288.36163       98851.697       13768.229       2.2602500     -0.84650000      0.50925000       341.48400       2.0587081     0.010926434
       4489.0000       288.33444       98842.133       13691.588       2.6097500      -1.6802500     -0.69275000       341.47700       2.0153705     0.010578403
       4494.0000       288.35811       98832.174       13712.172       3.3035000      -1.4667500      0.86425010       341.51500       2.0279645     0.016263754
       4500.0000       288.34593       98826.473       13706.519       4.8182500      -1.7990000    -0.028750000       341.30600       2.0173842     0.014669589
       4505.0000       288.36933       98834.149       13756.163       4.7095000     -0.92075000     -0.15500000       341.26600       2.3100175     0.018634027
       4510.0000       288.35197       98842.881       13779.357       5.0167500      -1.4282500     -0.78175000       341.22000       2.0993331     0.010476504
       4515.0000       288.24069       98860.809       13743.198       5.0900000      -1.4545000      0.26575000       341.37300       1.9590295     0.017679466
       4520.0000       288.23225       98863.283       13784.788       4.7917500      -1.9707500      0.70125000       341.17700       2.0183855    0.0094563412
       4525.0000       288.29413       98863.065       13909.426       4.1702500     -0.82550000     -0.52425000       341.26900       1.8953226     0.033590304
       4530.0000       288.30404       98861.606       13958.491       3.7232500      -1.2495000     -0.73050000       341.09700       2.0200244     0.016129718
       4535.0000       288.35304       98838.257       14028.653       5.1535000      -1.8432500     0.075750000       341.07900       1.9739833     0.015734467
       4540.0000       288.36544       98835.949       14050.586       4.1422500     -0.28525000     0.069750000       341.21900       2.0801674     0.012246559
       4545.0000       288.29264       98850.408       13964.980       2.4055000      -2.0797500     -0.21225000       341.11200       1.9808206     0.013769186
       4550.0000       288.29011       98857.847       13959.857       1.7287500   -0.0022500000     0.086250010       341.37000       2.0026314     0.016142099
       4555.0000       288.33893       98876.468       13986.175       3.4892500     -0.72275000      0.18950000       341.32900       1.9653452     0.014919466
       4560.0000       288.35897       98879.304       14009.045       7.0197500      -3.2102500     0.098500010       341.04800       2.0562671     0.014775682
       4565.0000       288.40823       98869.715       14081.818       5.7247500      -1.2207500     -0.72350000       341.22300       2.0671464     0.015233395
       4570.0000       288.41073       98864.027       14103.510       5.4890000      -2.2977500      0.29125000       341.14500       1.9862470     0.015820521
       4575.0000       288.34892       98846.572       14075.666       3.4872500      -1.8942500     0.037500000       341.28800       1.9260070     0.017727788
       4580.0000       288.34258       98841.084       14091.527       2.5115000      -1.4142500     -0.31825000       341.28400       2.0676854     0.012903130
       4586.0000       288.34269       98841.393       14113.441       3.8045000      -2.1287500      0.70925000       341.22200       1.9742696     0.016299031
       4591.0000       288.34878       98846.987       14133.373       6.1422500     -0.61250000     -0.67925010       341.02400       2.0678382     0.011790401
       4596.0000       288.41070       98864.142       14197.662       3.8367500      -1.2390000     -0.44425000       341.25100       1.9663949     0.016153238
       4601.0000       288.40841       98869.913       14212.065       4.3135000     -0.64775000      0.10275000       341.24700       2.0244812     0.019674558
       4606.0000       288.33582       98879.184       14157.395       5.8465000      -1.9055000     -0.73400000       341.03300       2.0460827     0.014670532
       4611.0000       288.34851       98876.398       14194.298       4.5395000     -0.45900000     -0.20325000       341.17500       1.9254091     0.015023948
       4616.0000       288.38429       98857.657       14266.294       5.4810000      -1.9295000      -1.3987500       340.97700       2.1030316     0.010924872
       4621.0000       288.41009       98850.265       14324.718       6.1700000      0.35825000      0.60525000       341.20400       1.9822988     0.015795778
       4626.0000       288.50961       98836.873       14458.016       3.5912500     -0.67050000     -0.33775000       341.13200       2.1079743     0.011022279
       4631.0000       288.52042       98837.631       14504.606       4.7477500     -0.93350010      0.39350000       341.22000       2.0262421     0.016560303
       4636.0000       288.45833       98851.795       14490.805       4.9195000      -1.9852500    -0.035500000       341.18900       1.9950375     0.015631175
       4641.0000       288.43831       98859.486       14492.406       4.8150000     0.023750000     -0.36900000       340.99800       1.9702019     0.016930266
       4646.0000       288.40018       98875.448       14467.191       3.2747500     -0.89725010     -0.22575000       341.19900       2.0979138     0.010919802
       4651.0000       288.38611       98880.012       14456.803       3.4297500      0.84450010      0.61125000       341.31600       2.0788597     0.015921082
       4656.0000       288.40009       98879.321       14449.137       3.3117500     -0.29225000    -0.094500010       341.19500       1.9756689     0.015695951
       4661.0000       288.40015       98873.887       14441.050       3.5085000     -0.81025000      0.28000000       341.37800       1.9920251     0.018214223
       4666.0000       288.40033       98856.968       14430.690       3.6860000      -1.4382500     -0.16125000       341.27900       2.0184744     0.015785337
       4671.0000       288.40050       98851.290       14428.604       3.2620000      -1.4597500     -0.29775000       341.06800       1.8487880     0.029420886
       4677.0000       288.39962       98842.468       14426.663       2.8260000      -1.0675000     -0.31550000       341.25000       2.0380547     0.015693507
       4682.0000       288.39939       98844.932       14437.912       3.3990000     0.019250000     -0.13875000       341.37600       2.0464863     0.013211429
       4687.0000       288.41779       98859.019       14474.184       4.8572500     -0.96975000      0.63225000       341.33100       2.1243035     0.012255759
       4692.0000       288.38037       98865.973       14467.560       5.2262500     0.077250000     0.098750000       341.20300       2.1204744     0.015541997
       4697.0000       288.30749       98875.611       14451.840       4.1967500     -0.68425010     -0.15650000       341.29500       1.9845210     0.015613260
       4702.0000       288.26779       98879.852       14427.510       4.2480000     -0.50625000     -0.25825000       341.36200       1.9651626     0.016326236
       4707.0000       288.19406       98884.382       14368.309       4.2980000    0.0082500000      0.17750000       341.39900       2.0509378     0.014740834
       4712.0000       288.17129       98878.190       14337.478       3.0507500     -0.73050000     -0.14425000       341.52700       2.0272783     0.020553278
       4717.0000       288.20955       98862.398       14329.145       4.2510000      0.97350010     -0.59275000       341.21100       1.8545774     0.043375677
       4722.0000       288.19064       98854.383       14285.813       3.8310000      0.94475010      0.26775000       341.27100       2.0208016     0.019981082
       4727.0000       288.15435       98835.811       14230.656       6.7402500      0.43150000     0.041500000       340.90500       1.8712129     0.021245699
       4732.0000       288.13439       98838.808       14178.235       5.5585000     -0.53875010      0.20825000       340.98700       2.0413198     0.016501203
       4737.0000       288.08773       98858.903       14093.810       5.9355000     0.097750010     -0.58650000       341.05700       1.9530099     0.016425945
       4742.0000       288.09493       98866.859       14062.416       4.7757500       1.1762500     -0.54300000       341.20800       2.0093068     0.015789353
       4747.0000       288.14632       98882.682       14055.627       6.5992500      0.52825000     -0.53275000       340.93500       2.0350778     0.016445615
       4752.0000       288.16629       98885.436       14052.860       5.9610000      0.10225000     -0.40425000       340.94700       2.0351479     0.015691755
       4757.0000       288.20380       98878.831       14074.113       3.1722500      0.85025010      0.56075000       341.20700       1.9920762     0.014504471
       4762.0000       288.21519       98871.183       14094.984       5.0372500     -0.55050000     -0.42100000       341.12900       2.0954281     0.016223404
       4768.0000       288.19410       98854.229       14120.938       4.3815000     -0.85675000     0.059250000       341.14000       1.9610450     0.016855391
       4773.0000       288.24534       98844.662       14189.401       4.2440000      -1.1505000     -0.75300000       341.05200       1.9360065     0.026217333
       4778.0000       288.25682       98841.908       14240.535       5.4720000      0.35925000     -0.71575000       340.92500       2.0438379     0.019641645
       4783.0000       288.27023       98853.452       14307.720       5.8195000      -1.9355000      0.27475000       341.05700       1.9259983     0.023989280
       4788.0000       288.26248       98860.445       14352.080       3.4000000       1.2852500      0.26050000       341.21800       2.0872087     0.022647298
       4793.0000       288.18496       98871.895       14379.533       4.4592500     -0.14350000      0.64225000       341.11600       2.0051523     0.015327993
       4798.0000       288.14389       98877.296       14388.940       5.3207500     -0.14100000     -0.34450000       341.05400       1.7971309     0.035300941
       4803.0000       288.11511       98879.004       14381.976       6.2107500     -0.60075000     0.018250000       340.98200       1.9586003     0.023781982
       4808.0000       288.09416       98878.326       14357.659       4.3647500    -0.073750000      0.76600000       341.04100       1.9911218     0.019326791
       4813.0000       288.08559       98870.840       14330.386       3.5927500     -0.67650000      0.42600000       341.19000       2.0636984     0.013299294
       4818.0000       288.09455       98854.608       14277.949       4.3192500     -0.54775010     -0.12975000       341.13100       2.0758731     0.017793592
       4823.0000       288.13042       98840.378       14268.156       5.7217500      -1.0827500     0.070750010       340.94000       2.0169331     0.016458711
       4828.0000       288.15069       98836.496       14264.553       6.0130000     -0.23725000      0.70025000       340.98700       1.9696432     0.023211204
       4833.0000       288.20025       98847.894       14305.704       5.5842500      -1.6610000      0.54500000       341.11200       1.9732455     0.023301295
       4838.0000       288.21263       98854.735       14313.656       3.4732500      -2.8325000     0.010250000       341.08400       2.0650253     0.017772548
       4843.0000       288.20043       98862.785       14307.227       5.3232500      -1.6622500      0.41525000       341.12700       2.0648561     0.016064269
       4848.0000       288.15088       98877.157       14282.444       3.8790000     -0.13250000     -0.26850000       341.11900       2.0991848     0.017072606
       4853.0000       288.13055       98881.729       14280.914       3.4755000     -0.18575000     -0.47125000       341.17600       2.0346124     0.012823536
       4859.0000       288.09079       98881.708       14265.329       3.8937500     -0.66550000    -0.078750010       341.15400       2.0576618     0.021980769
       4864.0000       288.09991       98869.868       14304.046       2.7037500     0.046750000    -0.011250000       341.15300       2.0006521     0.022708515
       4869.0000       288.09991       98863.828       14324.096       4.2717500      -1.4180000     0.066250000       341.11200       2.0239119     0.017535615
       4874.0000       288.10016       98850.390       14338.007       2.6042500     -0.50625000      0.47550000       341.22000       1.9772560     0.023910248
       4879.0000       288.10012       98847.130       14350.502       4.2815000      -1.6552500    -0.079500000       341.19400       1.9818271     0.016474526
       4884.0000       288.10017       98855.718       14353.941       3.9587500     -0.75750010     0.046000000       341.27400       2.0115435     0.015625615
       4889.0000       288.10032       98860.853       14364.075       3.5942500      -1.2280000     -0.25600000       341.14000       1.9873613     0.021652293
       4894.0000       288.09959       98871.638       14371.645       2.6967500     -0.71400000     -0.23175000       341.26100       1.9716092     0.021086560
       4899.0000       288.09932       98877.408       14386.934       2.1437500     -0.30350000      0.29150000       341.28300       2.0048807     0.020814446
       4904.0000       288.11385       98880.781       14436.268       3.0377500     -0.49200000      0.31925000       341.26000       1.9329708     0.024601455
       4909.0000       288.10246       98881.618       14438.746       2.9845000      0.33900000    0.0057500000       341.32600       1.9968587     0.026793668
       4914.0000       288.05149       98881.079       14403.789       5.1430000     -0.62950000   0.00050000000       341.11100       2.0677715     0.015764385
       4919.0000       288.04238       98875.770       14391.149       3.5927500     -0.38350000     -0.10300000       341.10800       1.9886480     0.021202528
       4924.0000       288.04386       98859.700       14363.714       3.4720000      -1.1147500     -0.45400000       341.25800       2.0077895     0.022926589
       4929.0000       288.04516       98853.063       14335.515       2.7872500     -0.78650000   -0.0080000000       341.09500       2.0693894     0.014536197
       4934.0000       288.10529       98842.065       14341.445       5.9797500       1.8500000     -0.84400000       341.02100       2.0569139     0.016760792
       4939.0000       288.11245       98841.903       14315.285       6.0130000      -1.3257500      0.23300000       341.16800       2.1047623     0.015848757
       4944.0000       288.05196       98859.386       14213.849       3.8267500     -0.96050010    -0.043500000       340.99700       1.9510381     0.018369608
       4950.0000       288.04322       98868.662       14192.277       4.1627500      0.17575000      0.75200000       341.17500       2.0388643     0.020432884
       4955.0000       288.05642       98878.678       14228.174       6.8120000      -2.5737500     -0.47350000       340.86900       1.9953458     0.019091664
       4960.0000       288.04657       98883.534       14234.427       3.5725000     -0.25600000      0.90650000       341.19800       2.0643236     0.016409241
       4965.0000       288.05732       98881.627       14290.175       4.4812500      -1.5967500   -0.0075000000       341.09800       2.0370268     0.014694810
       4970.0000       288.05353       98880.254       14300.276       5.0515000     -0.73350010    -0.073750000       341.05500       1.9943433     0.020936331
