MIRICO/SHELL project - Processed LDS file generated on
Fri Jul 21 04:59:32 2017
Time stamp for record start
05/12/2017  10:37: 7.0001
Nb of points in the record
         984
Beam position index
       2.0000000
Beam angle (degrees)
      -8.6380000
Open Path length (m)
       64.850000
****************** Temporal data record ************************
Elapsedtime_sec Temp_K Press_Pa Humidity_ppmv WindX_m/s WindY_m/s WindZ_m/s Speedofsound_m/s CH4vmr_ppmv CH4vmrerror_ppmv  
      0.00000000       287.65721       98803.085       15096.698       3.6060000      -2.8242500      0.14125000       340.76200       1.9022700    0.0086296228
       4.9999729       287.66904       98791.692       15136.930       4.3817500      -2.7737500    -0.051000000       340.70400       1.8899469    0.0091886295
       9.9999860       287.65156       98786.780       15125.874       5.7615000      -2.3080000      0.37425000       340.57600       1.9126657    0.0098045358
       14.999999       287.56663       98790.345       15041.446       5.0145000      -2.6432500      0.24325000       340.61400       1.8534118     0.011234353
       19.999972       287.53079       98790.364       14989.634       4.6507500      -1.8935000      0.76925000       340.72800       1.8999996    0.0093094649
       24.999985       287.49182       98787.599       14895.231       3.7602500      -1.5740000    0.0090000010       340.87400       1.9258447    0.0084141180
       29.999998       287.48892       98790.263       14869.111       4.3962500      -2.4117500     -0.29600000       340.53600       2.0079313     0.012214614
       34.999971       287.56427       98796.582       14910.544       2.0685000      -1.7457500    0.0012500000       340.77500       1.8724303    0.0089681223
       40.999979       287.55220       98803.306       14902.037       2.5805000      0.46275000     -0.32725000       340.88800       1.8828289     0.010191124
       45.999992       287.51526       98814.240       14913.376       2.2122500      0.30500000     0.055750000       340.87300       1.8876883     0.011176129
       51.000005       287.48923       98819.060       14906.616       2.8440000     -0.65450000     -0.39750000       340.78600       1.9274543    0.0099546818
       55.999978       287.40116       98820.212       14851.913       3.5982500      -1.1197500     -0.37800000       340.79800       1.8995096     0.011792918
       60.999991       287.37337       98821.608       14833.673       2.4412500      0.36350000       1.2455000       340.85000       1.9294954     0.011144412
       66.000004       287.40002       98820.385       14846.020       3.0240000     -0.25075000      0.50650000       340.76000       1.8812448     0.011699894
       70.999977       287.40002       98820.429       14837.199       3.8352500      -1.2120000     -0.78100000       340.79500       2.0432101     0.013347158
       75.999990       287.39985       98821.502       14826.085       3.1207500      0.20500000      0.20125000       340.89000       1.8594953     0.010830927
       81.000003       287.39990       98819.884       14806.104       2.1917500      0.44100000      0.89125000       340.82500       1.8928098    0.0096137433
       85.999976       287.40080       98818.433       14765.934       3.9897500     -0.49475000      0.29000000       340.86200       1.9077299     0.010582287
       90.999989       287.40115       98813.207       14757.155       2.6315000     -0.83375010    -0.060750000       340.83000       1.9312952    0.0099840243
       96.000002       287.41141       98802.809       14755.216       2.7562500     -0.37575000      0.27975000       340.80700       1.9296684    0.0086522314
       100.99998       287.39533       98795.779       14757.914       2.9307500     -0.42550000      0.20025000       340.88500       1.9849838    0.0099201702
       105.99999       287.36892       98785.233       14804.945       2.0870000     -0.78875010     0.097500000       340.69600       1.9465076     0.011260428
       111.00000       287.33285       98782.225       14789.070       1.2452500    -0.032750000      0.78625010       340.98100       1.9216357    0.0091265002
       115.99997       287.25863       98781.270       14737.005       4.2900000     -0.22800000      0.22350000       340.71600       1.8835536    0.0098442447
       120.99999       287.22477       98786.693       14696.507       4.0427500     -0.85950010     -0.40375000       340.57300       1.8962656    0.0092848543
       127.00000       287.18827       98802.191       14604.703       2.4567500    0.0035000000      0.60475000       340.86700       2.0082890     0.017863125
       132.00001       287.19629       98813.167       14579.036       4.6597500      0.73125000      0.68625000       340.75700       1.9911630     0.011835223
       136.99998       287.25463       98830.286       14590.190       4.9612500    -0.085000000     -0.15200000       340.50400       1.9528401     0.010003974
       141.99999       287.25585       98837.796       14569.149       4.3630000      -1.2870000     -0.14650000       340.53100       1.9399562    0.0097563069
       147.00001       287.25663       98842.634       14550.482       4.3162500      -1.2120000     -0.58200000       340.72600       1.9248362     0.010048857
       151.99998       287.24811       98841.193       14541.119       4.2032500     -0.89050010    -0.078250010       340.64100       1.9475071     0.010507020
       156.99999       287.19703       98831.013       14512.829       3.2532500     -0.62725000     0.066250000       340.75800       1.9079650     0.011052800
       162.00001       287.18580       98827.030       14515.523       3.3697500     0.056000000     0.046000000       340.73200       1.8876131    0.0091429304
       166.99998       287.20899       98820.747       14566.081       3.2420000     -0.81300000      0.33075000       340.77200       1.8975943    0.0089566749
       171.99999       287.18979       98816.658       14552.365       5.1657500      -1.7647500     -0.61025010       340.68400       1.9803350     0.011583618
       177.00001       287.15426       98817.258       14515.281       2.3622500      -2.2090000      0.29550000       340.74700       1.8654203    0.0099497483
       181.99998       287.13435       98811.410       14491.065       4.2045000      -1.4060000     -0.13575000       340.59200       1.9584384    0.0093333460
       186.99999       287.07877       98801.444       14422.485       3.4907500      -1.0737500      -1.1175000       340.67200       1.9492768    0.0096988696
       192.00000       287.10489       98794.445       14428.867       4.3612500     -0.54875000     -0.21325000       340.73200       1.8493274     0.011813107
       196.99998       287.19255       98781.493       14488.850       4.4137500     -0.52450000     -0.40750000       340.45800       1.8550026     0.011686964
       201.99999       287.23218       98784.732       14511.057       3.0295000     -0.78100000      0.29050000       340.62200       1.9673707     0.010001655
       207.00000       287.30564       98798.376       14553.842       4.1307500      -1.4695000     -0.17550000       340.67300       1.9160966    0.0091703915
       211.99998       287.32811       98805.167       14572.959       3.7287500    0.0040000000     -0.41425000       340.64000       1.8918423     0.010841568
       217.99998       287.29377       98821.497       14557.172       5.1087500      -1.2190000      0.70125000       340.52200       1.9017615    0.0089209256
       223.00000       287.31541       98829.230       14594.404       4.7312500      -2.3312500     -0.49400000       340.42500       1.8923716    0.0089921643
       227.99997       287.35599       98830.153       14660.339       3.1582500      -1.1015000     -0.34975000       340.48700       1.9356071    0.0084006126
       232.99998       287.35436       98840.166       14686.518       4.1310000      -2.5947500     -0.22325000       340.42500       1.9213118    0.0086940051
       238.00000       287.35558       98842.738       14711.381       2.8190000      -1.4687500     0.011500000       340.52300       1.8929981    0.0088797164
       242.99997       287.29969       98835.915       14687.262       4.1040000      -1.9627500     -0.46850000       340.53300       1.8734635     0.012096065
       247.99998       287.28720       98831.136       14691.713       2.5552500      -1.2932500     -0.23800000       340.51900       1.8897905    0.0097007981
       253.00000       287.29929       98825.121       14711.843       2.8642500     -0.28625000      0.46025000       340.44800       1.8461878     0.016142507
       258.00001       287.34922       98815.365       14760.629       2.9175000      -1.4697500     -0.36100000       340.57000       1.9325920    0.0099554434
       262.99998       287.36947       98807.296       14780.977       4.2810000     -0.63475000      0.12875000       340.54800       2.0017757    0.0086472308
       267.99999       287.40536       98799.522       14809.824       2.3510000     -0.38050000      0.36925000       340.56000       1.9823662     0.011794702
       273.00001       287.38502       98785.811       14760.930       4.2752500      -1.6557500     -0.34375000       340.48900       1.9552055     0.011286924
       277.99998       287.39357       98785.845       14759.885       3.6572500     -0.85625000      0.10025000       340.48400       1.9297188     0.010192167
       282.99999       287.43041       98812.971       14779.103       3.6475000      -1.2275000      0.23550000       340.57000       1.8287612     0.011504598
       288.00001       287.45018       98818.478       14797.865       2.8490000      0.46600000      0.67250000       340.58400       1.9411168     0.010146693
       292.99998       287.48505       98814.771       14844.851       3.0402500      -2.2672500    -0.088250000       340.70000       1.8753567    0.0098338517
       297.99999       287.50621       98817.150       14902.283       2.9465000     -0.89925000       1.0085000       340.71100       1.9380307     0.010123709
       303.00001       287.51508       98815.835       14965.132       4.1535000     -0.81950000      0.10325000       340.64900       1.8772277    0.0090231644
       308.99997       287.50726       98795.924       15042.372       2.0925000      -1.9230000     -0.97025010       340.70700       1.8246309     0.016187794
       313.99999       287.43244       98815.701       15080.003       2.6090000      -2.4472500     -0.39875000       340.66000       1.8814232    0.0091978352
       319.00000       287.39236       98818.049       15076.857       2.5042500      -1.6182500      0.62450000       340.60000       1.8912580     0.010062631
       323.99997       287.30528       98808.816       14982.732       4.8945000      -2.4147500     -0.14750000       340.59800       1.9372179     0.010177188
       328.99999       287.27823       98804.638       14925.152       3.4295000      -1.9165000     -0.38950000       340.78500       1.9887198     0.011415999
       334.00000       287.33398       98793.179       14868.789       3.2535000     0.035500000    -0.015750000       340.71200       1.9558479     0.010694553
       338.99997       287.35362       98787.581       14817.472       3.5517500      0.16775000     -0.19250000       340.66000       1.9216008    0.0099025039
       343.99998       287.36118       98785.904       14736.372       3.1745000      -1.0232500       1.0875000       340.79300       1.9115357     0.011389262
       349.00000       287.40263       98789.300       14726.426       4.1525000     -0.49600000     -0.82075010       340.61900       1.9513336     0.010553865
       353.99997       287.46842       98797.661       14769.090       2.3777500      -2.2340000    -0.080500010       340.84800       1.9304211    0.0095426215
       358.99998       287.50873       98805.987       14804.087       3.6795000     -0.83150010     -0.51750000       340.69100       1.8489107     0.010756560
       364.00000       287.59523       98827.219       14916.423       1.8497500     0.013250000      0.45600000       341.18800       1.9462083    0.0097207527
       368.99997       287.62195       98834.693       14973.548       4.3217500      0.32650000     -0.10850000       340.53800       1.7837645     0.014997946
       373.99998       287.56581       98832.852       14964.010       4.3547500     -0.23900000   -0.0062500000       340.81800       1.9254359     0.010828567
       379.00000       287.54598       98831.411       14998.263       3.8375000     -0.43050000     -0.17400000       340.60700       1.9189152    0.0099042363
       384.00001       287.51005       98821.740       15045.326       4.4870000     0.059750000     -0.23075000       340.73400       1.8699763    0.0092249227
       388.99998       287.49146       98813.799       15081.489       2.4237500     -0.47925000     0.068500000       340.88800       1.9387629    0.0092883656
       394.00000       287.51441       98804.521       15182.485       2.6647500      0.19200000     -0.10225000       341.12000       1.9108895    0.0090530674
       400.00000       287.49896       98797.535       15190.442       3.7077500     0.075000000     -0.47675000       340.81000       1.8792290    0.0097768545
       404.99998       287.44976       98787.616       15111.355       3.3975000     -0.52700000     0.083000000       340.71600       1.9442449    0.0096205591
       409.99999       287.44371       98788.539       15068.131       2.8935000     -0.21900000     0.031250000       340.76100       1.8744898    0.0097784730
       415.00000       287.41765       98799.437       14952.776       3.5215000     -0.42250000    -0.099500010       340.72900       1.8905767    0.0097272509
       419.99997       287.44824       98808.222       14923.016       1.7132500     -0.20550000     0.069250000       341.09700       1.9267094    0.0097271249
       424.99999       287.57094       98826.365       14961.951       2.7707500      0.16750000      0.99325010       341.05200       1.8600195     0.011702370
       430.00000       287.62651       98835.159       14987.798       2.3325000      0.60525000      0.36525000       341.26100       1.9119935    0.0094107083
       434.99997       287.70368       98843.298       15068.320       3.1240000      -1.2007500      0.12050000       340.77600       1.7330672     0.029283463
       439.99999       287.72182       98842.298       15099.523       1.7585000     -0.81175010      0.90400000       341.19500       1.8058185     0.023472168
       445.00000       287.64962       98831.570       15093.099       2.9835000     -0.61325000     0.083250000       341.13800       1.9443566    0.0090983476
       449.99997       287.64371       98822.839       15121.276       2.2637500    -0.019000000      0.43225000       341.44800       1.8514580     0.013178845
       454.99999       287.63040       98803.925       15128.969       2.5685000      0.31075000      0.14025000       341.23400       1.8804765     0.011318432
       460.00000       287.64769       98795.007       15177.524       2.5465000    -0.029250000    -0.068250000       341.29000       1.9395552     0.014768194
       464.99997       287.73354       98787.525       15296.901       3.4492500      0.22250000    -0.096750010       340.88900       1.8692227     0.010404628
       469.99999       287.76938       98788.497       15360.312       3.5910000     -0.39400000    -0.058500000       340.72400       1.9499796     0.011122897
       475.00000       287.76861       98799.028       15416.868       3.5012500     -0.11025000     -0.13325000       340.75900       1.9469787     0.010159691
       479.99997       287.81191       98807.677       15461.457       1.9087500      0.25475000      0.30375000       341.28300       1.8957447     0.010126764
       484.99998       287.87420       98826.161       15469.256       2.2215000     -0.45850000     -0.10350000       341.54900       1.8880964    0.0095627262
       490.99999       287.92235       98836.298       15495.340       3.1735000      -1.2912500     -0.27425000       340.73100       1.9352804     0.010043608
       496.00001       288.00874       98842.230       15537.903       1.9062500      -1.3825000     -0.35125000       340.98000       1.9892831     0.010175632
       500.99998       288.02048       98841.741       15537.357       3.1020000     -0.51500000      0.24150000       341.01600       1.9388440     0.010311896
       505.99999       287.96888       98835.075       15517.089       4.1040000      0.36375000     -0.36525000       341.04700       1.9061329     0.011215983
       511.00000       287.93280       98826.203       15486.774       3.8015000      0.37675000     0.085750010       340.91600       1.8812421     0.010824956
       515.99998       287.84741       98807.713       15414.220       3.3637500      0.41450000     -0.18150000       340.96200       1.9466832     0.010342196
       520.99999       287.82994       98799.021       15375.475       2.6907500     -0.58625000     0.034000000       341.19500       1.8584523     0.011049599
       526.00000       287.86549       98788.045       15366.355       3.0242500      0.38900000     -0.38450000       341.13500       1.9236892     0.012324996
       530.99998       287.83927       98787.247       15306.259       2.0645000      0.97650000      0.28900000       341.20400       1.8976141     0.010246100
       535.99999       287.79287       98795.323       15197.090       3.3242500      0.63675000     -0.27225000       341.00200       1.8752907     0.011598141
       541.00000       287.79948       98804.237       15170.351       4.2917500      0.88275000     -0.87600000       340.86400       1.9281516     0.011131438
       545.99998       287.75281       98825.171       15122.169       2.8655000      0.43150000      0.26000000       341.08200       1.9192296     0.010664535
       550.99999       287.81374       98830.691       15155.954       3.0767500     -0.31875000     -0.54700010       340.92600       1.8978050     0.010584796
       556.00000       288.00335       98835.145       15299.878       2.7965000    -0.041750000    -0.085250010       341.15300       1.8668683     0.012465958
       560.99997       288.12233       98830.418       15403.535       2.5085000      -1.2660000      0.93975000       341.05900       1.8301910     0.014538672
       565.99999       288.30396       98807.792       15524.922       3.6507500     -0.98725000     -0.32375000       340.97600       1.8878119     0.011450709
       571.00000       288.35292       98799.081       15643.008       3.7032500     -0.19475000     -0.10575000       340.74700       1.8829606     0.011712280
       575.99997       288.30440       98790.470       15774.994       3.5802500     -0.12300000     0.081000000       341.17900       1.8894488     0.011020791
       581.99998       288.30682       98785.993       15907.654       3.4315000      0.80675010     -0.25125000       340.55500       1.8472854     0.012798040
       586.99999       288.25868       98787.712       16052.146       2.1327500      -1.0902500      0.41750000       341.70000       1.9248752    0.0098639132
       592.00001       288.21853       98793.425       16061.111       4.6060000       1.0697500    -0.073500000       341.02700       1.9453440    0.0094467909
       596.99998       288.21930       98802.388       16007.962       4.3020000     0.059500000      0.28525000       340.57900       1.9526087     0.010478544
       601.99999       288.17242       98812.062       15931.343       2.5237500       1.9477500      0.48275000       340.98000       2.0875098     0.010297271
       607.00001       288.04780       98832.247       15741.436       3.6112500      0.73950000     0.069750000       340.85500       2.7642155     0.011494018
       611.99998       288.00544       98835.856       15632.346       5.2785000      0.45475000     -0.47350000       340.61200       2.6815691     0.010316083
       616.99999       288.00652       98834.873       15549.967       3.7467500      0.65200000      0.26875000       341.09000       2.2048175     0.013620776
       622.00001       287.97652       98827.407       15439.747       4.0980000     -0.25675000     -0.24200000       341.03200       2.1613350     0.013448926
       626.99998       287.95445       98805.976       15318.298       3.5122500    0.0015000000     -0.36850000       341.36800       2.1480671     0.010682804
       631.99999       287.93468       98797.720       15219.666       3.5845000      -1.3452500      0.48925000       341.08600       2.1407263     0.011128749
       637.00000       287.86977       98786.518       15091.108       3.1980000     -0.45925000     0.066250000       341.11300       2.1571505     0.010101448
       641.99998       287.91448       98788.717       15053.131       3.3990000       1.1935000      0.45425000       341.25000       2.2533771     0.012985128
       646.99999       288.02983       98802.614       15057.186       5.1477500      0.71225010     -0.60250000       340.67500       2.5567787     0.011074446
       652.00000       288.10805       98812.392       15098.328       5.4182500     -0.22375000     -0.10975000       340.27500       2.1660721     0.011290531
       656.99998       288.26379       98832.194       15207.024       3.6712500       1.6420000     -0.32050000       340.87100       2.0781958     0.012207693
       661.99999       288.29915       98835.852       15300.401       2.3725000      0.41650000       1.1125000       341.60800       2.1290683     0.016729686
       668.00000       288.25071       98832.509       15429.139       4.4737500     -0.51975000    0.0047500000       341.20300       2.0670941     0.010277642
       672.99997       288.26066       98828.095       15587.665       5.3467500      0.45475000     -0.71850000       340.20900       2.2859918     0.016180713
       677.99998       288.23812       98815.361       15786.912       5.1297500      0.48300000     -0.33875000       340.29500       2.1220235     0.014387394
       683.00000       288.38968       98802.650       16043.394       3.4360000     0.018000000      0.77725010       341.37400       2.3808583     0.011973001
       687.99997       288.38885       98798.105       16127.333       2.8642500    -0.025750000      0.70200000       341.73900       2.0693337     0.012934858
       692.99998       288.26448       98794.932       16036.910       3.1167500     -0.39450000     -0.37875000       341.40900       2.6556524     0.013350733
       698.00000       288.16873       98797.364       15937.190       3.8010000     -0.20225000      0.17625000       340.88500       2.6214411     0.011400217
       703.00001       288.03605       98805.949       15772.687       3.1570000     -0.58575000     0.050750000       341.19000       2.3019212     0.011243804
       707.99998       287.76398       98827.744       15470.136       2.6417500      0.90200010    0.0082500000       342.06400       2.2686512     0.011498837
       713.00000       287.70249       98831.258       15300.082       4.1562500     -0.66050000    -0.022500000       340.62900       2.1473168     0.015493336
       718.00001       287.73798       98832.746       15146.522       3.5467500     0.035000000     -0.18375000       341.06800       2.1176030     0.014471304
       722.99998       287.79982       98823.076       15030.437       4.5760000     -0.53275000     -0.25925000       341.01200       2.2781185     0.010776907
       727.99999       287.81254       98814.978       14922.701       4.1585000     0.020750000     -0.40800000       340.81300       2.1864091     0.010685888
       733.00001       287.73976       98802.677       14806.741       3.5277500     -0.88100000      0.65275000       341.30800       2.2290169    0.0099085271
       737.99998       287.73753       98798.377       14739.239       3.7657500     -0.86050000     -0.18700000       341.06500       2.1393305     0.010467418
       742.99999       287.74505       98794.937       14697.291       3.3730000     -0.78150000     -0.63325010       340.46500       2.0756797     0.014757333
       748.00001       287.78076       98797.320       14689.831       3.3560000      0.55450000     -0.31150000       341.66100       1.9325384     0.011587412
       752.99998       287.85335       98805.856       14718.976       2.6532500     -0.88100000    -0.072000000       341.33000       1.9983530     0.010752340
       758.99999       288.02439       98828.802       14813.640       3.2110000     -0.69550000      0.51650000       341.53200       1.9203559     0.011668084
       764.00000       288.07946       98834.633       14893.677       4.2720000      -2.2225000    -0.016250000       340.83300       1.9118418     0.012393282
       768.99997       288.11743       98832.893       14999.536       3.8330000     -0.90775010     -0.23400000       340.71900       1.9416510     0.010573666
       773.99999       288.08583       98811.801       15154.574       4.0395000     -0.64475010     0.081750010       340.66000       1.9347712    0.0097645420
       779.00000       288.09693       98801.936       15276.528       3.2060000      -1.4655000    -0.045000000       341.45200       1.9729516     0.010325222
       783.99997       288.11996       98788.989       15428.764       1.3717500      -1.9485000      0.80350010       341.27700       1.8256709     0.013932568
       788.99999       288.15101       98786.796       15530.139       3.4092500      -1.2282500     -0.58675000       341.05100       2.0111642     0.012996797
       794.00000       288.22409       98797.357       15581.732       3.5442500     -0.85650000     -0.14175000       341.04500       1.9388007     0.012257390
       798.99997       288.26279       98805.655       15630.126       2.6192500    -0.087000000      0.53175000       341.99400       1.9139219     0.012670008
       803.99998       288.30405       98826.690       15662.688       3.9850000      -1.5152500     -0.69200000       341.39300       1.9529159     0.010927481
       809.00000       288.31154       98834.003       15669.616       2.7260000     -0.87175010     -0.48775000       341.45900       1.9962243     0.012297129
       813.99997       288.27973       98832.720       15671.192       2.5990000      -1.6015000      0.61650000       341.85900       1.9373077     0.012841354
       818.99998       288.24861       98831.314       15632.384       3.9005000      -1.2637500     -0.86325000       340.96700       1.9560606    0.0099822876
       824.00000       288.17544       98821.613       15527.216       3.0862500     0.047750000    -0.061500000       341.37800       1.9283537    0.0092695909
       828.99997       288.13723       98813.672       15450.971       2.5400000    -0.082750010    -0.040000000       341.66300       1.9374214     0.010498615
       833.99998       288.12403       98800.152       15359.220       1.9222500     -0.58875000     -0.36725000       341.16000       1.9359274     0.010765065
       839.00000       288.09428       98797.623       15274.102       4.3945000     -0.66925000     -0.15450000       341.51200       1.9179614     0.010345017
       844.00001       288.05207       98799.015       15174.658       4.0575000    -0.066750000     -0.18125000       341.49300       1.8863178     0.011975001
       849.99998       288.04323       98804.959       15119.432       4.4270000       1.3887500    -0.078250010       341.26400       1.9015348     0.011041641
       854.99999       288.04344       98828.854       15089.931       4.3170000     -0.14450000     0.099750000       340.59100       1.8881070     0.010462080
       860.00000       288.04711       98835.042       15084.774       5.1160000      0.25825000     -0.23250000       341.03000       1.9364080    0.0099191600
       864.99998       288.09472       98835.597       15141.404       2.7977500      -1.5262500      0.68775000       341.21000       2.0042699     0.010464408
       869.99999       288.11099       98830.866       15178.059       3.2202500     0.053250000      0.98725000       341.57100       1.9421984     0.010785209
       875.00000       288.04851       98807.371       15183.400       4.0785000      -2.2462500    -0.084000010       341.35800       1.9521770    0.0099250510
       879.99997       288.10334       98800.988       15255.455       4.4035000     -0.99625000     -0.33300000       340.81700       1.9110059     0.012042797
       884.99999       288.23543       98799.232       15357.946       3.7617500      -1.2782500      0.19575000       340.49400       1.9186632     0.015079720
       890.00000       288.32963       98798.431       15485.573       5.1547500      -1.8942500      0.10525000       340.72000       1.8843938     0.015731135
       894.99997       288.52898       98807.878       15698.824       3.9707500     -0.81600000     -0.25125000       340.45600       2.0756930     0.015636215
       899.99999       288.60020       98812.541       15850.350       3.3940000      -1.7032500      0.24800000       341.09300       1.9813440    0.0092235408
       905.00000       288.56949       98815.374       16031.701       4.1735000     -0.78925000     -0.30450000       341.10700       1.9370544    0.0096944285
       909.99997       288.55225       98815.983       16115.117       2.9292500      -1.1587500     -0.15250000       340.83200       1.9856084    0.0097494173
       914.99999       288.47934       98820.010       16143.871       3.8197500     -0.32825000      0.39700000       341.15400       1.9490938    0.0096252905
       920.00000       288.42964       98815.550       16119.253       1.8927500     -0.57500000      0.72325000       341.40100       1.9721615     0.011765510
       924.99997       288.36745       98795.530       15981.011       4.1460000      -1.4030000     -0.27375000       340.41900       1.9253557     0.010062643
       929.99998       288.33157       98792.051       15892.446       2.8005000     -0.17475000     0.030000000       341.03300       1.9667241     0.010508215
       935.00000       288.30494       98789.056       15759.756       3.7105000      -2.0617500     -0.48950000       340.79100       1.9530863     0.010001364
       941.00001       288.28698       98796.420       15666.689       3.0625000      -1.3597500     -0.16200000       341.14100       2.0221881     0.014496107
       945.99998       288.31118       98824.800       15641.465       3.2667500      -1.1275000     -0.72575000       341.14500       1.9189561    0.0099606039
       950.99999       288.29488       98831.747       15581.132       2.2312500      0.87350000      0.66750000       341.64800       1.9923997     0.011319811
       956.00000       288.29090       98834.901       15541.770       3.2507500     -0.49325000    -0.039000000       340.92100       1.9824242     0.010982080
       960.99998       288.22267       98830.232       15460.154       3.9582500     -0.12725000      0.18000000       340.64200       2.4934671     0.010945223
       965.99999       288.07437       98807.851       15333.357       2.7412500      0.69450000      0.65625010       341.59900       2.4874717     0.011813844
       971.00000       288.00108       98799.175       15236.657       3.7605000     -0.89300010    -0.042000000       340.58700       2.8513769     0.011649038
       975.99998       287.89012       98784.777       15110.294       2.6810000      0.56325000     -0.54475000       340.81900       2.4958519     0.010727576
       980.99999       287.86577       98788.967       15046.614       2.9680000     -0.46075000     -0.35100000       341.00900       2.1059005     0.011784025
       986.00000       287.95304       98813.570       15026.366       2.9762500      0.26375000     0.074000000       341.26400       2.1806609     0.012481906
       990.99998       287.95677       98820.357       14995.307       3.8410000     -0.12725000     -0.14250000       340.91400       2.2038855     0.016528420
       995.99999       287.96835       98834.877       14987.254       3.6210000     -0.18825000     -0.32850000       341.22700       1.9520661     0.011382386
       1001.0000       287.94602       98832.934       14986.091       3.6825000     -0.32350000     -0.11925000       340.68600       1.9429608     0.017047970
       1006.0000       287.84718       98807.633       14977.966       2.8742500     -0.53750000     -0.57250010       340.98300       1.9177861     0.011938161
       1011.0000       287.82990       98798.962       14995.351       1.9170000     -0.10375000     0.080500010       341.42300       1.9999093     0.011138428
       1016.0000       287.85433       98787.219       15066.498       3.7350000     -0.19775000      0.18350000       340.92500       1.9535375     0.011253822
       1021.0000       287.84449       98787.917       15077.594       4.0850000     -0.86175010     -0.37450000       340.88800       1.9486360     0.012096444
       1026.0000       287.85838       98802.488       15072.679       3.3665000      -1.1025000     -0.24025000       341.14800       1.9659783     0.010208051
       1032.0000       287.84907       98809.656       15056.590       3.7795000    -0.049250000       1.1777500       341.44600       1.9719412     0.011127142
       1037.0000       287.78898       98821.852       14993.361       1.8700000      -2.0965000      -1.0590000       341.21400       1.8802815     0.018277794
       1042.0000       287.79656       98823.386       14992.318       2.2770000     -0.79100000     0.058000000       341.49300       1.9587176     0.015017062
       1047.0000       287.85614       98818.223       15023.638       2.7077500      -1.2350000      0.79675000       341.72600       1.9306294     0.011342535
       1052.0000       287.85781       98810.635       15031.957       3.7452500     -0.78225000     -0.55625000       340.90100       2.0123762     0.012046238
       1057.0000       287.86624       98792.520       15072.001       2.9817500      -1.3007500      0.28400000       341.33700       1.9721675     0.010155059
       1062.0000       287.83909       98792.835       15047.336       3.0387500     -0.56575000     0.096500000       341.63700       1.9823638     0.010339506
       1067.0000       287.75165       98795.518       14986.839       4.3517500       1.0620000     -0.15150000       341.33300       2.0241467     0.011199328
       1072.0000       287.72036       98804.058       14919.037       3.6410000     -0.23525000     -0.47250000       340.80500       2.0887119     0.013590882
       1077.0000       287.69749       98832.354       14812.491       3.4600000     -0.46125000     -0.27625000       341.40200       2.0962801     0.010831481
       1082.0000       287.68631       98837.159       14734.349       2.7960000     -0.33750000      0.12800000       341.31900       2.0140514     0.012628379
       1087.0000       287.69121       98834.249       14635.058       2.1795000     -0.93800000      0.74300000       341.20800       2.1197192    0.0098986170
       1092.0000       287.70986       98826.881       14600.451       3.2575000     -0.76775000    -0.095250000       341.26700       2.2580147     0.011083001
       1097.0000       287.73729       98803.269       14580.633       3.2967500     -0.78850000      0.21875000       341.17600       2.9618933     0.010905593
       1102.0000       287.77581       98800.776       14621.500       4.1655000      0.70675000     -0.18350000       341.17900       2.5374993     0.011035988
       1107.0000       287.85815       98801.365       14734.121       3.6610000     -0.48825000      0.30550000       341.20400       2.7920013     0.011221905
       1112.0000       287.87090       98807.616       14817.608       2.4830000     0.077750000     -0.68825000       341.40400       2.9073791     0.012691504
       1117.0000       287.86735       98831.907       14959.125       3.3407500     -0.75475000     0.044250000       340.97600       2.6382532    0.0099784963
       1123.0000       287.83072       98835.417       15006.862       3.9495000     -0.42000000      0.25275000       341.09600       2.0986883     0.017818831
       1128.0000       287.74430       98833.201       15007.023       3.6500000      -1.0830000     -0.32200000       340.89800       1.9926367     0.010557091
       1133.0000       287.70034       98811.219       14950.798       4.7637500       1.2515000      0.31000000       341.23600       1.9206816     0.010010221
       1138.0000       287.68726       98802.549       14918.753       4.3620000     -0.44925000      0.40450000       341.00000       1.9745885     0.010502600
       1143.0000       287.73030       98796.226       14910.863       4.8435000      0.46225000     0.057750000       340.72400       1.9701507     0.010335808
       1148.0000       287.75020       98796.505       14881.059       2.8620000     -0.43225000    -0.073250000       341.01400       1.9167359     0.010237043
       1153.0000       287.77011       98804.171       14843.621       2.7247500     0.049250000      0.95175000       341.18500       1.9714420    0.0099487516
       1158.0000       287.80634       98828.224       14803.948       3.1740000      0.64775000     0.044750000       341.00400       1.9082992     0.011788276
       1163.0000       287.81492       98829.516       14762.015       4.0785000     -0.20750000     -0.10325000       340.91000       2.0574651     0.011935941
       1168.0000       287.79505       98828.443       14688.296       3.6002500     -0.75250010      0.34300000       341.45700       2.0619334    0.0097012103
       1173.0000       287.84530       98804.058       14738.342       4.1912500      -1.2097500     0.064500000       341.03000       1.9602167     0.011256527
       1178.0000       287.85692       98796.109       14755.928       2.4120000      -2.5087500      0.38625000       341.21800       1.9264466     0.010813414
       1183.0000       287.84012       98799.424       14775.106       2.3920000      -1.7450000     -0.31675000       341.00300       1.8972422    0.0099250250
       1188.0000       287.84993       98802.984       14823.280       3.5592500      -1.7202500     -0.41550000       340.96300       1.9923653     0.010787259
       1193.0000       287.84489       98824.863       14876.322       3.9910000      0.25225000      0.62400000       341.11400       1.8414006     0.022674217
       1198.0000       287.84352       98833.502       14914.095       3.6970000     -0.34550000     -0.13275000       340.87900       1.8699084     0.014011230
       1203.0000       287.85444       98835.989       14958.411       4.9877500     -0.59825000      0.11700000       340.90900       1.9128866     0.011713924
       1209.0000       287.90531       98832.383       15055.020       3.4260000     -0.78125010     0.021750000       341.02500       1.8767347     0.012193557
       1214.0000       287.92000       98805.240       15064.402       3.4760000      -1.2195000     -0.73500000       341.03500       2.0342520     0.012265513
       1219.0000       287.95156       98801.130       15077.045       3.9932500      -1.2032500     -0.23475000       340.86200       1.9456292    0.0092194426
       1224.0000       287.99688       98810.416       15052.756       3.0067500     -0.22725000     -0.27175000       340.94800       1.9059831     0.011692915
       1229.0000       288.05831       98814.767       15087.046       2.3615000      0.93625000    -0.037250000       341.27500       1.9341056     0.010325965
       1234.0000       288.15870       98839.998       15156.672       4.5992500      0.30075000      0.16125000       340.96100       1.9531467    0.0095091314
       1239.0000       288.21685       98846.005       15214.182       3.0342500     -0.60800000      0.21050000       340.96900       1.8976927     0.011087314
       1244.0000       288.25196       98833.388       15312.797       3.2090000     -0.23550000      0.21500000       340.89700       1.9088394     0.011929482
       1249.0000       288.31223       98825.170       15402.507       3.8730000      -1.0575000     -0.28150000       340.93600       1.9772231    0.0093486945
       1254.0000       288.38201       98799.662       15472.225       3.1272500     -0.57125000    -0.051750000       341.10300       1.9736541     0.011009127
       1259.0000       288.41060       98795.803       15545.681       3.1820000      0.67650000     -0.68900000       341.01400       1.9470353    0.0097040585
       1264.0000       288.44642       98812.330       15662.028       3.4212500      0.24775000     -0.12450000       340.88500       2.0725688     0.010771646
       1269.0000       288.46430       98816.377       15725.322       3.3575000     -0.86500010     -0.84700010       340.92200       2.1832867    0.0097603209
       1274.0000       288.43764       98833.126       15772.671       1.9687500       1.0690000      0.81050000       341.25700       2.1205421    0.0096345636
       1279.0000       288.39654       98835.063       15769.956       3.4540000       1.7787500      0.11475000       341.22900       2.9205996     0.015756628
       1284.0000       288.33213       98809.090       15685.289       3.9967500      0.77075000    -0.045250000       340.96900       2.6393619     0.010525425
       1289.0000       288.29240       98801.583       15638.496       3.8550000     -0.78050010     0.093000000       341.29800       2.5918247     0.011310653
       1294.0000       288.21956       98795.502       15569.592       3.4022500     -0.43750000    0.0087500000       341.27900       2.6863111     0.013815899
       1300.0000       288.17779       98798.658       15501.894       3.5545000      0.95925000     -0.55450000       340.73900       2.2790031     0.013958904
       1305.0000       288.21295       98823.099       15512.096       3.2240000     -0.34125000    -0.097000000       341.37500       2.1882090     0.012275910
       1310.0000       288.19921       98829.636       15435.229       3.8207500     -0.60425000     -0.11775000       340.98600       2.0860452     0.010386030
       1315.0000       288.14834       98834.862       15267.553       4.0792500     -0.49175000      0.58375000       341.31300       1.9578166     0.010635801
       1320.0000       288.14164       98831.679       15179.219       3.4922500     -0.42275000      0.64100000       341.41700       1.8976146     0.011166858
       1325.0000       288.11727       98807.259       15041.079       3.4910000     -0.72250000     -0.15925000       341.03300       1.9472669     0.010661047
       1330.0000       288.14844       98800.816       15011.485       3.3395000     -0.33675000     -0.44225000       341.17800       1.8211837     0.018251089
       1335.0000       288.25690       98797.998       15085.232       3.0455000      0.88200000    -0.053000000       340.97400       1.9294043     0.010109059
       1340.0000       288.32730       98798.603       15159.907       2.6760000      -1.2765000   -0.0015000000       341.12300       2.0000762     0.011247547
       1345.0000       288.43985       98814.341       15314.913       2.8840000      -1.3797500     -0.11375000       341.32200       2.1116714     0.011545255
       1350.0000       288.47854       98818.272       15416.166       3.0665000      -1.8235000      0.10925000       341.03600       2.1273702     0.010175255
       1355.0000       288.44352       98818.445       15525.765       2.3935000      -1.8620000     -0.39650000       341.44800       1.9190258     0.011450729
       1360.0000       288.45341       98815.303       15604.426       2.7215000     -0.39550000      0.42025000       341.59800       2.0469498     0.015561703
       1365.0000       288.44337       98796.723       15657.460       3.0070000     -0.81450000     -0.35275000       341.68700       1.9334276    0.0097907059
       1370.0000       288.44739       98798.060       15685.136       1.6172500      -1.1235000      0.42575000       342.31100       1.9769001     0.010272686
       1375.0000       288.52102       98812.970       15708.949       2.8097500      -1.8792500     0.028750000       342.08400       1.9610212    0.0089380722
       1380.0000       288.51014       98816.981       15680.908       2.1007500      -1.7442500     -0.16825000       341.52800       2.0260171     0.011260084
       1385.0000       288.42597       98834.546       15586.882       2.3505000      0.11200000      0.14925000       342.65600       1.9085161     0.011681444
       1391.0000       288.37783       98833.307       15497.901       2.4895000     0.095750000     -0.12725000       341.89800       1.9673022     0.012262863
       1396.0000       288.26984       98804.561       15377.826       3.7422500     -0.33600000    -0.057750000       342.28900       2.3934100    0.0091761208
       1401.0000       288.29126       98800.663       15312.942       3.8420000    -0.043750000      0.35925000       341.45700       2.5071579     0.015034206
       1406.0000       288.42813       98800.964       15273.711       4.4320000     -0.70625000     -0.77075000       340.95600       2.2012174     0.010921735
       1411.0000       288.48830       98805.995       15237.495       4.3520000     0.094000000    -0.025500000       341.07900       1.9498233     0.012247446
       1416.0000       288.58646       98830.912       15198.103       2.9282500      0.48600000      0.55000000       341.53200       1.9849556     0.010630753
       1421.0000       288.64340       98835.810       15216.681       4.0345000      0.64050000      0.95475010       341.82000       2.1739223     0.012671046
       1426.0000       288.62978       98832.928       15255.800       7.5277500      0.19250000     -0.96825000       341.07400       2.1807377     0.014531737
       1431.0000       288.66649       98829.914       15337.323       6.2482500       1.2967500     -0.69300000       340.86600       2.2714898     0.012410601
       1436.0000       288.74152       98813.065       15515.388       3.9017500     -0.66625010     -0.33100000       342.06500       2.0719409    0.0098648671
       1441.0000       288.77558       98813.252       15610.808       2.6780000      0.52600000      0.58100000       342.13700       2.1928656     0.011730940
       1446.0000       288.78850       98823.159       15692.198       5.4725000     -0.89000000     -0.29675000       341.56200       2.1653640     0.013796706
       1451.0000       288.81860       98827.796       15769.333       1.8275000     -0.97975000      0.73425000       342.41000       1.9769284     0.011133896
       1456.0000       288.83122       98845.698       15811.010       4.8115000     -0.54725000      0.11375000       341.39000       1.8736451     0.014470053
       1461.0000       288.86728       98841.643       15860.961       4.6080000     -0.33725000      0.24350000       341.53300       1.8603654     0.014305400
       1466.0000       288.94107       98815.961       15944.528       3.9005000      0.41150000    -0.098750000       341.67600       1.6925999     0.027082672
       1471.0000       288.97465       98810.836       15958.731       5.3890000    -0.090250010     -0.90225010       340.91000       2.0047200     0.011046208
       1476.0000       288.99972       98803.330       15920.963       6.1595000     -0.91900000     -0.48600000       340.60700       2.0242079     0.011047161
       1482.0000       289.01480       98803.285       15892.869       5.2675000     -0.11425000     -0.68075000       340.85400       1.9762119     0.010361530
       1487.0000       288.99986       98821.179       15834.862       5.3112500     -0.40750000     0.095500010       340.73800       1.9728386     0.010406159
       1492.0000       288.99975       98824.671       15796.030       3.2052500     -0.28225000     -0.29575000       341.49700       1.9180619     0.012954031
       1497.0000       289.00895       98820.110       15773.522       4.9235000      0.66350000     -0.63700000       341.30600       1.9230679     0.014352315
       1502.0000       288.99034       98820.051       15731.392       3.9275000     -0.98800000     -0.51350000       341.20300       2.0533056    0.0095877334
       1507.0000       288.95406       98818.525       15662.716       4.2177500     -0.25025000     0.051000000       341.64600       1.9186239     0.011938679
       1512.0000       288.93427       98822.252       15638.461       4.5277500      0.23675000     -0.42550000       341.17900       1.9315361     0.010687816
       1517.0000       288.88785       98831.101       15625.191       3.6832500      -1.6995000     0.032500000       341.62400       1.9992193     0.013589312
       1522.0000       288.89588       98831.291       15623.086       3.3735000      0.51250000     -0.50950000       341.70400       1.9896902     0.010335367
       1527.0000       288.94630       98834.055       15660.313       4.8410000     -0.28675000     -0.39300000       340.88300       1.9228857     0.011825345
       1532.0000       288.96644       98826.587       15653.258       5.1320000     -0.31750000     -0.53750000       341.28500       1.9403977     0.011478641
       1537.0000       289.02108       98800.955       15628.364       4.1355000      -3.0327500     0.018750000       341.09800       1.8615726     0.014510420
       1542.0000       288.99497       98802.014       15611.156       3.8815000      -1.5335000     0.016500000       341.57300       1.9268102     0.011120347
       1547.0000       288.90764       98812.421       15570.841       4.4640000     -0.26975000     -0.22100000       341.14300       1.9874059    0.0099346527
       1552.0000       288.86787       98818.995       15568.728       3.9817500     -0.46375000      0.32475000       341.44300       1.9182179     0.010703638
       1557.0000       288.79460       98846.370       15599.465       2.7935000      0.28050000      0.10475000       341.63200       2.0418112     0.014051636
       1562.0000       288.77225       98842.829       15588.766       4.7385000     -0.90200010    -0.069000010       341.24200       2.0336185     0.010125895
       1567.0000       288.79102       98814.980       15595.000       3.2195000     -0.50450000     -0.55775000       341.70900       1.9096295     0.014156046
       1573.0000       288.81537       98810.126       15527.973       3.8160000    -0.018000000     -0.28075000       341.46200       1.9753600    0.0090933018
       1578.0000       288.83804       98801.216       15399.922       4.4217500     -0.74500010      0.55125000       341.91700       1.9691677     0.010441411
       1583.0000       288.96058       98826.275       15385.912       3.3185000     -0.22025000      0.48375000       341.42300       1.9876755     0.010855507
       1588.0000       289.01416       98834.261       15385.578       3.7907500      -1.0672500      0.33875000       341.29600       1.9634141    0.0093411441
       1593.0000       289.07007       98826.863       15510.706       2.8155000      -2.0372500      0.62375000       341.44200       1.8719195     0.024526143
       1598.0000       289.07467       98825.995       15557.208       1.8502500     -0.63350000      0.18950000       342.40900       1.9237854     0.012477984
       1603.0000       289.03004       98823.890       15568.041       2.6570000      -1.1795000     -0.44800000       341.38000       1.8348207     0.015889739
       1608.0000       288.91526       98812.123       15556.141       3.6602500      -1.6347500    -0.030500000       341.11300       1.8311359     0.016950023
       1613.0000       288.80149       98815.916       15479.494       3.4925000      -2.6750000     -0.75150000       341.17100       1.8551523     0.017224737
       1618.0000       288.63208       98832.523       15332.668       3.9902500      -1.6992500     -0.22300000       341.43400       1.8918416     0.012796117
       1623.0000       288.57509       98828.062       15216.364       3.7415000      -1.3287500      0.26800000       341.78100       1.9383087     0.012757635
       1628.0000       288.53098       98826.243       15121.576       2.7040000     -0.26350000     0.073000010       342.34400       1.9548232    0.0089653301
       1633.0000       288.60072       98810.103       15082.871       3.9000000      0.77375000      0.13475000       341.35400       1.9271003     0.010834067
       1638.0000       288.61285       98806.434       15015.816       3.1757500     -0.76500000      0.38175000       342.11000       1.8893191     0.011931183
       1643.0000       288.57020       98822.456       14910.866       4.5295000      -1.6387500     -0.66900000       341.41500       2.0008831     0.010669646
       1648.0000       288.55054       98826.760       14844.500       4.5705000     -0.33725000     0.034500000       341.60700       1.9400387     0.011942504
       1653.0000       288.53094       98828.606       14792.154       5.1870000      -1.6850000     -0.12175000       340.98400       1.8770429     0.016318865
       1658.0000       288.48659       98832.922       14728.385       4.7242500      -1.7692500     -0.69325010       341.34100       1.9466580     0.011401287
       1664.0000       288.54747       98814.718       14777.663       5.8780000     -0.31675000      0.29150000       340.83900       1.9422492    0.0098699151
       1669.0000       288.55602       98812.295       14791.067       5.0222500      -2.1225000      0.83525000       341.59500       1.9000430     0.010592548
       1674.0000       288.54153       98824.430       14806.614       3.4382500      -1.3207500      0.24675000       341.13100       1.9582191     0.011582166
       1679.0000       288.55149       98826.381       14828.649       4.4265000      -1.2925000    -0.073500000       341.78200       1.8889836     0.012900936
       1684.0000       288.52952       98834.889       14822.728       4.2402500      -1.2600000     0.069000010       341.31700       1.9297287     0.011731014
       1689.0000       288.54197       98833.115       14846.981       5.1877500      -1.1817500      0.35125000       341.61600       1.9320763     0.010392735
       1694.0000       288.62386       98804.871       14918.742       4.1137500     -0.17350000      0.56525000       341.25600       1.8550022     0.021412020
       1699.0000       288.66242       98800.835       14961.320       3.4230000      0.87875000     0.090250010       341.63600       2.0747520     0.015050646
       1704.0000       288.67615       98813.175       14976.902       4.6635000     -0.96025000     -0.59175000       340.72000       2.3775666     0.013200025
       1709.0000       288.70647       98815.296       15031.772       5.1122500      -1.3662500     -0.13500000       340.83100       2.5588722     0.012306964
       1714.0000       288.76310       98829.922       15113.891       4.4790000      -1.7887500     0.074250010       341.42500       2.3135765     0.011366270
       1719.0000       288.76106       98834.211       15169.094       3.1082500     -0.66450010     0.064750000       341.84600       2.4077879     0.014499836
       1724.0000       288.72194       98814.377       15284.761       2.8607500       1.2355000      0.81950000       341.32400       2.7728809     0.011667631
       1729.0000       288.70071       98812.045       15310.922       3.5790000      0.62900000      0.11350000       340.92900       3.0044934     0.021642362
       1734.0000       288.59093       98824.230       15226.193       3.7655000     -0.50000000      0.81325010       341.06800       2.5115935     0.013722192
       1739.0000       288.57564       98826.049       15195.162       4.2292500    -0.030500000    -0.092750010       341.43400       2.0181695     0.015060085
       1744.0000       288.65126       98835.081       15104.944       3.7710000      0.22350000      0.13325000       341.57500       2.0277354     0.016180145
       1749.0000       288.70242       98833.256       15092.681       4.4717500    -0.032500000     -0.80450000       341.30200       2.0014414     0.011492766
       1755.0000       288.86524       98803.716       15214.024       4.6125000     -0.15075000     -0.11975000       340.67400       1.8443591     0.022932012
       1760.0000       288.87665       98801.361       15225.480       3.8507500     -0.64875000     0.058750000       341.20400       2.0200184     0.010152739
       1765.0000       288.77923       98813.617       15228.914       3.7530000     -0.25125000      0.40050000       341.61000       1.9866155     0.010078588
       1770.0000       288.73521       98816.010       15206.963       4.5057500     -0.64875000     -0.44400000       341.25600       1.9705105    0.0096509929
       1775.0000       288.61468       98831.287       15070.949       4.4220000    -0.062500000      0.54625000       341.51900       1.9167049     0.010927705
       1780.0000       288.56636       98833.920       15035.182       3.5617500     -0.24825000     -0.22850000       341.15400       1.9268704     0.011563491
       1785.0000       288.61362       98812.234       15074.425       4.6122500      -1.5127500     -0.13475000       341.24800       1.8823326     0.013597492
       1790.0000       288.59980       98812.622       15061.883       4.6195000     -0.73125000      0.10400000       341.20400       1.9210527     0.015086461
       1795.0000       288.56197       98827.418       15069.325       3.4860000     -0.59450000     0.080000010       341.36900       1.9235346     0.011590276
       1800.0000       288.54199       98832.477       15050.011       3.5047500     -0.47775000     -0.23425000       341.07100       1.9037421     0.012572883
       1805.0000       288.47898       98847.037       14937.396       3.8427500      -1.0347500     0.098750000       341.45800       1.9852106    0.0098861434
       1810.0000       288.48984       98848.869       14935.052       3.8012500     -0.27025000     0.053750000       340.88500       1.9366301     0.011389323
       1815.0000       288.58934       98829.294       15003.249       4.0097500     -0.98825000    -0.067500000       341.09300       1.9054040     0.012121106
       1820.0000       288.61523       98827.868       15046.997       3.1915000     -0.41275000      0.22000000       341.45300       2.0588751     0.015580483
       1825.0000       288.67803       98836.545       15173.777       2.6130000     0.067500000      0.95600000       342.07200       2.0120728     0.010495428
       1830.0000       288.66356       98835.192       15215.903       4.0157500      0.49425000     -0.26225000       341.25700       1.8378112     0.019532566
       1835.0000       288.53112       98838.863       15197.985       3.0625000     -0.81800000      0.69125000       342.17100       2.0470079     0.010262107
       1841.0000       288.46515       98835.146       15180.028       4.1562500      0.55975000     0.070500000       341.54600       2.0540137     0.011051120
       1846.0000       288.39135       98811.993       15122.380       2.5635000      0.78975000     0.046000000       341.62100       2.0236048    0.0098324315
       1851.0000       288.37984       98812.342       15096.410       3.7275000     -0.50650000     0.099750000       341.92100       2.1054565     0.011889165
       1856.0000       288.43191       98831.954       15083.165       3.3945000     -0.21575000      0.70950000       341.98000       1.9227552     0.013734705
       1861.0000       288.46812       98832.164       15054.724       5.1945000      0.39525000       1.4662500       341.46400       2.0070823    0.0097793071
       1866.0000       288.55266       98832.936       15039.062       4.1185000      -1.1337500      0.66000000       341.36800       1.9651722     0.017925724
       1871.0000       288.57002       98830.378       14992.836       3.8640000      -1.4087500      0.21200000       341.50400       2.0051644     0.012184508
       1876.0000       288.54674       98806.924       14890.757       3.7370000      -2.1087500     0.037250000       340.95500       1.9021242     0.014124948
       1881.0000       288.55670       98806.399       14865.278       2.0412500      -1.1522500      0.18325000       341.94700       1.9631965     0.012142140
       1886.0000       288.54330       98826.140       14853.490       2.3727500     0.012750000      0.62300000       341.90300       1.9227297     0.017555425
       1891.0000       288.54969       98827.225       14867.599       2.6212500     0.015750000      0.11625000       342.03500       1.9072307     0.014508674
       1896.0000       288.58861       98823.917       14946.997       2.5142500     -0.65750000      0.47700000       341.92000       1.8898159     0.015887467
       1901.0000       288.61877       98826.875       14993.178       3.8670000     -0.48500000      0.46925000       341.23800       1.9940613     0.016581090
       1906.0000       288.64212       98823.258       15016.368       3.7467500      -2.8287500     -0.28325000       340.93300       1.8501883     0.018288926
       1911.0000       288.66191       98825.213       15081.127       2.9037500      -1.1682500      0.34475000       341.68700       1.9563612     0.011145315
       1916.0000       288.71067       98845.620       15191.506       2.9487500      0.75600000     0.091750000       341.55100       2.0548732     0.012516123
       1921.0000       288.70861       98841.723       15242.812       2.9555000     -0.13175000     0.079000000       341.84400       1.9176870     0.011794885
       1926.0000       288.65914       98813.830       15315.901       4.6090000      0.29575000     -0.14700000       341.08900       1.8873567     0.018240417
       1932.0000       288.63517       98812.302       15311.124       2.9900000     -0.16850000     -0.35225000       341.52300       1.9600025     0.012541614
       1937.0000       288.58871       98811.894       15214.230       3.5940000      0.10975000    -0.057250000       341.52500       1.9853848     0.012354911
       1942.0000       288.59617       98816.218       15187.753       5.5512500      -1.7670000     -0.52050000       340.59600       1.9975625    0.0099358085
       1947.0000       288.65546       98844.410       15167.744       5.0742500     -0.52675000     0.050250000       340.79300       1.9150747     0.013997578
       1952.0000       288.65672       98844.485       15122.527       4.0395000     -0.85550000     -0.74150000       341.06900       2.0697133     0.015451493
       1957.0000       288.64806       98823.773       15079.289       3.9387500      -1.8537500    -0.058750000       341.04400       1.9025218     0.013622378
       1962.0000       288.65808       98823.384       15055.930       3.7790000      -1.9110000      0.63975000       341.30900       1.9619432     0.011337146
       1967.0000       288.62352       98825.944       14979.808       5.6645000      -1.2082500     -0.54625000       340.76400       1.8574941     0.014316602
       1972.0000       288.67070       98823.002       15019.279       4.3532500    -0.081750010      0.31150000       341.40500       1.9674603     0.012167087
       1977.0000       288.80315       98828.985       15159.852       5.9417500      -2.4855000     -0.48225000       340.76400       1.9362989     0.016339036
       1982.0000       288.83542       98822.571       15217.282       5.8812500      -1.7992500     -0.78275000       340.91500       2.0646748     0.012671621
       1987.0000       288.86855       98795.383       15299.540       4.2695000   -0.0072500000      0.30075000       341.49200       1.8802891     0.013958677
       1992.0000       288.85242       98797.305       15339.437       3.5020000      -1.8567500      -1.0165000       340.98500       1.8652349     0.014975641
       1997.0000       288.75077       98817.454       15309.684       2.4077500      -2.5732500       1.3057500       341.72000       2.0167534     0.011429945
       2002.0000       288.71984       98815.918       15346.461       2.9172500     -0.79075000     0.043750000       342.03400       1.8890125     0.015412867
       2007.0000       288.70668       98816.228       15431.163       3.4295000     -0.17800000    -0.086500000       341.63000       1.9393636     0.011292305
       2012.0000       288.67711       98817.558       15438.738       4.1797500     -0.84550010      0.39750000       342.27200       1.8072660     0.025427396
       2017.0000       288.66455       98799.762       15457.684       3.8242500     -0.10125000     -0.51875000       340.99300       1.8783579     0.014210179
       2023.0000       288.61608       98808.502       15369.436       2.6310000      0.30325000      0.33725000       341.98200       2.0387649     0.013618150
       2028.0000       288.54480       98839.183       15205.807       2.6555000     -0.31050000     -0.43150000       341.61500       1.9844464     0.010337310
       2033.0000       288.51499       98829.087       15095.421       4.8197500    -0.064750000     -0.38375000       341.38700       1.9584890     0.011132415
       2038.0000       288.49340       98830.016       14986.751       3.7617500      0.90250000      0.14750000       342.11000       1.9635730     0.013392073
       2043.0000       288.51527       98825.330       14899.239       4.5710000    0.0047500000     -0.90650000       341.29900       2.1443686     0.013472813
       2048.0000       288.50672       98822.901       14812.668       2.7910000     0.071250010     0.092000010       342.12400       1.9640579     0.021718118
       2053.0000       288.48594       98825.401       14724.881       2.9232500      0.39200000      0.58625000       342.05500       1.9332651     0.011893976
       2058.0000       288.45155       98844.345       14615.200       2.7875000     -0.23975000     -0.30925000       341.93900       1.8938828     0.012996112
       2063.0000       288.43161       98840.492       14559.491       2.9022500     -0.38800000       1.0530000       342.04100       1.8995000     0.016733513
       2068.0000       288.39369       98823.713       14522.518       4.7420000      -1.7300000     -0.44800000       342.05000       1.9610162     0.011143627
       2073.0000       288.39980       98823.911       14535.928       4.1287500      -2.5312500     -0.52600000       341.35100       2.0586487     0.013160737
       2078.0000       288.39968       98823.552       14540.646       2.0667500      -2.0030000     -0.12675000       341.46200       1.9184814     0.010487374
       2083.0000       288.37041       98836.058       14536.005       2.6455000     -0.89775000      0.38625000       341.94700       1.9560620     0.011836221
       2088.0000       288.38823       98842.419       14568.466       4.7845000      -1.9527500     -0.28000000       341.09500       1.8903841     0.013365355
       2093.0000       288.46010       98838.900       14625.045       4.0870000      -2.8055000     0.077750000       341.99100       1.9111556     0.013843145
       2098.0000       288.49980       98839.782       14682.790       2.0120000      -1.3777500      0.54475000       342.01400       1.9161252     0.012283357
       2103.0000       288.53950       98841.886       14756.232       4.5467500      -2.3477500      0.19850000       341.62000       1.8704623     0.016123145
       2108.0000       288.61274       98848.078       14868.147       3.5900000      -1.7122500      0.15175000       341.96600       1.9317531     0.011575729
       2114.0000       288.61429       98830.064       15002.435       3.7532500      -2.0152500     -0.80175010       341.32100       1.9102388     0.012234489
       2119.0000       288.60311       98828.435       15058.281       4.3790000      -1.6017500     -0.80075000       341.17600       1.8646000     0.020505178
       2124.0000       288.53679       98829.308       15063.997       3.6015000      -2.8932500      0.30750000       341.34400       1.9075846     0.013165285
       2129.0000       288.53854       98828.654       15096.162       3.0722500     -0.92450000      0.75875000       341.94100       1.8918567     0.018427404
       2134.0000       288.59221       98847.345       15116.146       4.6477500      -1.8407500      0.14900000       341.56400       1.9537017     0.012281407
       2139.0000       288.60216       98849.430       15108.363       4.1087500      -2.7225000      0.31050000       341.27700       1.7671149     0.024326034
       2144.0000       288.64760       98825.490       15116.535       3.6462500      -1.3127500      -1.3975000       341.59500       1.8778696     0.014690539
       2149.0000       288.66474       98822.231       15102.915       4.1462500      -1.1630000     -0.63100000       341.14500       1.9049583     0.011968720
       2154.0000       288.61000       98832.525       15011.023       3.8737500      -1.9782500     -0.27700000       340.83000       1.8791657     0.016639831
       2159.0000       288.59113       98830.328       14973.672       3.3165000      -1.2502500      0.44575000       341.28500       1.9108864     0.011467324
       2164.0000       288.64199       98828.255       15007.531       3.3420000     -0.53375000     0.066500000       341.74400       1.8386188     0.021538855
       2169.0000       288.60845       98831.098       14973.761       2.2377500     -0.99900010      0.75525000       341.87600       1.9273754     0.010166121
       2174.0000       288.49742       98824.419       14903.940       3.7807500      -1.6757500     -0.22775000       340.93400       1.9549377     0.012981584
       2179.0000       288.43804       98823.015       14856.603       4.2440000      -2.1597500      0.44825000       341.08200       1.8568187     0.014595407
       2184.0000       288.31506       98841.737       14737.075       4.6495000     -0.98900000      0.15575000       341.04100       2.0083685    0.0097455481
       2189.0000       288.27015       98844.049       14698.499       3.8602500     -0.95975010      0.28925000       341.47800       1.9638772     0.010585285
       2194.0000       288.34758       98824.392       14761.930       4.7455000     -0.77175000     -0.14450000       341.13200       1.9627059     0.010136954
       2199.0000       288.35611       98822.901       14769.296       4.1210000      -1.6332500     -0.14375000       341.59100       1.9401708     0.011523235
       2205.0000       288.35711       98831.059       14777.893       2.4045000     -0.56150000      0.20275000       341.68100       1.9494852     0.013863249
       2210.0000       288.35379       98830.030       14791.372       4.3520000     -0.80500010    -0.048000000       340.88400       1.7958582     0.030691090
       2215.0000       288.29161       98836.867       14766.715       5.3910000     -0.48400000     -0.71325000       341.31100       2.0064265     0.011874104
       2220.0000       288.28862       98837.480       14776.267       5.1077500     -0.57025000    -0.092250000       341.48400       1.7998484     0.019468269
       2225.0000       288.33829       98818.114       14837.835       4.0307500      -1.2550000     0.059500000       341.49900       1.9002029     0.025043484
       2230.0000       288.35820       98817.496       14861.692       2.8030000      -1.1685000     -0.30300000       341.66400       2.0103111     0.014056300
       2235.0000       288.38160       98836.910       14855.028       4.8655000      -2.9015000     -0.17950000       341.19500       1.9259308     0.011767217
       2240.0000       288.41151       98837.361       14883.198       4.0335000      -1.0127500      0.23900000       341.39100       1.8269357     0.016035868
       2245.0000       288.43791       98828.257       14918.659       5.3737500      -1.1827500      0.23375000       341.23300       1.9675643    0.0099239119
       2250.0000       288.45789       98830.646       14955.107       4.4627500     -0.36725000     0.055750000       341.12100       1.9460538     0.010999915
       2255.0000       288.50762       98828.858       15051.871       4.9755000     -0.46825000     -0.21625000       341.21100       1.8969286     0.014493342
       2260.0000       288.51010       98828.935       15067.456       3.5672500     -0.66250000     -0.50175010       341.33300       1.8655550     0.016008193
       2265.0000       288.47485       98848.311       15029.290       2.2527500      -1.0285000      0.17450000       341.78800       1.8904307     0.013599783
       2270.0000       288.44131       98848.523       14999.729       3.2630000     -0.32850000     -0.14200000       341.68700       1.8940843     0.011691319
       2275.0000       288.36745       98824.451       14917.000       3.5260000     -0.90650000      0.15175000       341.30100       1.9018636     0.013102627
       2280.0000       288.33157       98822.421       14869.946       3.8357500      0.71175000       1.3030000       341.37400       1.9435381     0.011564720
       2285.0000       288.30494       98831.918       14854.998       3.9015000      0.15825000      0.13325000       341.16200       1.9080859     0.012233397
       2290.0000       288.28872       98829.481       14811.875       4.5172500     -0.91950010     -0.18125000       341.26400       1.9361043     0.011573788
       2296.0000       288.29993       98828.527       14748.744       2.9365000     -0.87725000    -0.062000000       341.62000       1.8802230     0.012899390
       2301.0000       288.29993       98832.530       14697.207       5.3222500      0.69275000      0.42975000       341.17200       1.8532293     0.022542568
       2306.0000       288.28936       98832.080       14602.713       3.4900000      0.47975000      0.35575000       341.27500       1.8907912     0.015279282
       2311.0000       288.30574       98828.132       14586.654       4.0260000     -0.74300000      0.19425000       341.49600       1.9854354     0.010488029
       2316.0000       288.34203       98832.108       14614.380       4.2497500    -0.070250000    -0.038750000       341.15700       1.8972085     0.016117891
       2321.0000       288.36176       98831.234       14636.897       3.1797500     -0.52050000     -0.17200000       341.41400       1.9661348     0.010513055
       2326.0000       288.41107       98811.227       14719.395       4.2032500      -1.4360000      0.82875000       341.35000       1.8978574     0.014389166
       2331.0000       288.40815       98812.760       14750.048       2.9397500      -1.2540000      0.61550000       341.60500       1.9449568     0.014815868
       2336.0000       288.35771       98837.129       14749.826       3.6422500      -1.1397500    -0.080500010       341.29600       1.8947721     0.013714440
       2341.0000       288.33757       98837.977       14765.343       5.3092500      -1.8462500      0.26200000       341.22800       1.9344500     0.010078668
       2346.0000       288.31178       98828.773       14786.838       5.4825000      -1.3710000      0.31175000       341.47800       1.9833609     0.011507075
       2351.0000       288.28179       98831.412       14782.513       4.5392500      -1.8130000       1.0207500       341.49500       1.9309197     0.011838262
       2356.0000       288.28009       98831.873       14796.039       4.7395000      0.88850000     0.087000000       340.89900       2.0106226     0.013356855
       2361.0000       288.22781       98827.947       14740.119       3.1647500      -1.6092500      0.22150000       341.08200       1.9051417     0.012233255
       2366.0000       288.11732       98828.520       14615.342       2.6645000      -1.0680000      0.18425000       341.37900       1.8295302     0.019817900
       2371.0000       288.06395       98832.388       14531.799       5.5022500      -2.5932500     -0.57800000       341.42300       1.8893620     0.013618091
       2376.0000       287.98930       98828.267       14410.779       4.5852500      -1.5877500      0.29475000       341.05200       1.9781915     0.013025686
       2382.0000       287.98024       98829.873       14322.471       4.4955000     -0.24025000     -0.59125000       341.01000       1.9821217     0.010959343
       2387.0000       288.05430       98848.334       14297.723       5.1047500    0.0090000010     -0.45375000       341.19300       1.9732374     0.010142781
       2392.0000       288.05546       98847.076       14234.696       3.5395000     -0.19225000    -0.043500000       341.22300       1.9828550    0.0098992306
       2397.0000       288.05622       98827.700       14151.644       2.1762500      0.41600000     -0.20725000       341.38600       2.0283592    0.0099677746
       2402.0000       288.04753       98828.067       14113.860       3.7350000      0.28950000    -0.016500000       341.30000       1.9692930     0.012130675
       2407.0000       287.99728       98837.048       14081.939       3.5577500      -1.7242500      0.16250000       341.31200       1.8749633     0.019513226
       2412.0000       287.98617       98833.287       14071.361       3.7110000      -2.2572500     -0.29350000       340.94200       1.9503711    0.0098764459
       2417.0000       288.00916       98829.448       14112.879       4.2592500     -0.73350010     -0.18950000       340.97100       1.9060702     0.016209526
       2422.0000       287.98997       98832.297       14105.330       3.9302500     -0.51650000     -0.66925000       341.14600       1.9856279    0.0092772391
       2427.0000       287.94547       98830.241       14069.403       3.5220000      -1.2302500     0.037250000       341.33900       1.8462243     0.016355433
       2432.0000       287.94448       98828.108       14082.451       3.4332500     -0.78625010      0.45475000       341.16600       1.9504511     0.010383817
       2437.0000       287.93494       98835.812       14092.194       2.0362500      -1.0237500     -0.16475000       341.46600       1.9221470     0.011597543
       2442.0000       287.96238       98838.050       14141.277       3.0335000      -1.8397500      0.36250000       341.07800       2.0017489    0.0092006123
       2447.0000       288.04931       98828.360       14250.325       3.2620000      -2.0742500    -0.035000000       341.31200       1.9949651     0.011094151
       2452.0000       288.08010       98828.936       14310.099       3.6397500      -1.5690000     -0.12100000       340.91600       1.8245301     0.023721493
       2457.0000       288.10311       98842.722       14369.751       4.2030000      -1.0725000      0.36050000       341.09400       1.9668296    0.0098600471
       2462.0000       288.11437       98841.260       14415.685       4.9337500      -1.5717500    -0.064500000       340.97500       1.9769039    0.0095751374
       2467.0000       288.10004       98828.609       14443.941       5.2155000      -1.5485000     -0.28600000       340.67100       1.8967986     0.013930473
       2473.0000       288.10004       98831.111       14473.442       3.4090000      -1.1375000      0.46075000       341.17300       1.9357040     0.011108969
       2478.0000       288.10589       98836.426       14501.939       3.7335000      -3.0535000     -0.92175010       340.83700       1.9167543     0.012853342
       2483.0000       288.05503       98827.814       14444.255       3.6832500      -2.0370000     -0.46350000       340.96800       1.9298645     0.014581338
       2488.0000       288.04345       98829.650       14429.710       1.8347500      -1.7605000      0.25200000       341.25500       1.9621419     0.011404640
       2493.0000       288.02975       98832.804       14395.102       1.8635000     -0.39425000      0.76750000       341.31800       1.9698470    0.0099489230
       2498.0000       288.03718       98829.725       14399.762       2.2002500      -1.4965000    -0.038000000       341.25600       1.8814363     0.014997941
       2503.0000       288.06926       98827.869       14438.328       2.9017500      -1.0520000      0.78750000       341.23400       1.9954837    0.0098101207
       2508.0000       288.16206       98836.772       14546.176       3.7780000      -2.2255000     -0.56675000       341.02900       1.8320481     0.016312691
       2513.0000       288.16927       98838.442       14571.263       3.1872500     -0.60050000      0.36250000       341.07100       1.9086264     0.014407010
       2518.0000       288.15039       98828.706       14581.478       3.5682500      -1.4382500     0.070000000       340.92000       1.9263627     0.010758171
       2523.0000       288.13082       98840.207       14589.652       4.2650000     -0.81075010     -0.10525000       340.90400       1.9479374     0.011597122
       2528.0000       288.13824       98842.749       14629.607       4.6015000      -1.4790000     -0.31175000       341.00200       1.9152507     0.010938475
       2533.0000       288.24585       98829.789       14779.801       3.7127500      -1.4107500     -0.26950000       340.98700       1.9206355     0.011530005
       2538.0000       288.26904       98828.476       14848.393       2.7732500     -0.62250000     0.027250000       341.07300       1.8984242     0.013763652
       2543.0000       288.22473       98836.740       14860.316       2.5895000     -0.94450000      0.18125000       341.20500       1.9716061     0.011093942
       2548.0000       288.20608       98835.881       14887.040       3.1257500     -0.28000000      0.31850000       341.18000       1.9429329     0.010569272
       2553.0000       288.17513       98833.787       14897.513       2.9980000      -1.1460000     0.094250000       341.13500       1.9469390     0.011284649
       2558.0000       288.07402       98835.464       14842.918       4.8030000      -1.4327500     0.056000000       340.87600       1.9085558     0.014642538
       2564.0000       288.16760       98839.039       14951.063       4.2485000     -0.73600010     0.092000010       340.92800       1.9816942     0.010491062
       2569.0000       288.20768       98834.811       14999.047       3.8112500     -0.77925000     -0.18725000       340.85100       1.9495933     0.016255021
       2574.0000       288.28061       98827.884       15060.381       2.7577500     -0.60750000      0.47825000       341.12700       1.9358674     0.011122765
       2579.0000       288.31877       98829.941       15094.000       2.5372500     -0.30150000     -0.48275000       340.96700       2.0628137     0.013593101
       2584.0000       288.32840       98832.187       15066.056       3.0120000      -1.1517500     -0.70200000       341.11100       2.0112357     0.016025514
       2589.0000       288.30585       98829.392       15065.100       3.4402500     -0.83475010      0.62500000       341.17600       1.9537076     0.013103104
       2594.0000       288.24885       98829.196       15099.211       3.0547500     -0.78850000     -0.24700000       341.05200       1.9323057     0.013689347
       2599.0000       288.19770       98836.357       15082.387       3.6617500      -1.2527500     -0.49675000       341.02700       1.9147175     0.011763687
       2604.0000       288.08646       98844.410       15043.089       3.7135000     -0.29375000      0.38800000       340.96200       1.8726743     0.019804513
       2609.0000       288.02888       98845.316       14995.997       3.1240000     -0.88575010      0.20250000       341.11000       1.9455211    0.0097121528
       2614.0000       287.99560       98853.724       14872.911       3.1607500      0.55175000      0.29425000       341.02800       1.9542516    0.0098008367
       2619.0000       287.98794       98858.276       14817.164       2.7570000      0.58000000     0.017750000       341.10100       1.9876499     0.012396266
       2624.0000       288.03429       98848.100       14797.878       3.6390000     -0.13000000      0.40025000       340.98200       1.9366481     0.010553422
       2629.0000       288.05408       98843.476       14783.143       4.4342500      0.41125000     -0.27575000       340.96400       1.9358540     0.012083315
       2634.0000       288.11888       98845.865       14828.057       3.5085000      0.82625000      0.20825000       341.08500       1.9127545     0.012598731
       2639.0000       288.11546       98845.746       14832.110       3.3847500     -0.72500000     -0.57575010       340.97000       1.9348644     0.012059597
       2644.0000       288.04812       98839.802       14821.160       2.2905000      0.24275000     -0.16775000       341.10000       1.9049115     0.011854568
       2649.0000       287.99661       98839.065       14801.306       3.9990000      0.45650000      0.11275000       340.88100       1.9384356     0.012018620
       2655.0000       287.86081       98847.986       14731.855       3.2230000     -0.70300000     -0.18775000       341.02100       1.9057542     0.014178077
       2660.0000       287.82208       98845.922       14711.121       3.4280000      -1.0770000    -0.011500000       341.03800       1.9618731     0.010124156
       2665.0000       287.85616       98834.264       14730.493       3.4537500     -0.74150000     -0.18725000       341.12700       1.9120678     0.012369134
       2670.0000       287.84623       98833.935       14701.510       3.1762500     -0.80900000      0.21775000       341.21200       1.9416766     0.010111488
       2675.0000       287.85685       98838.450       14659.650       2.8742500      -1.3520000     -0.32575000       341.17100       1.9172734     0.012449234
       2680.0000       287.85293       98834.125       14628.443       2.3085000     -0.70550000     -0.15625000       341.22900       1.9330573     0.012075296
       2685.0000       287.83196       98828.677       14587.997       2.4697500      -1.3270000      0.17800000       341.29300       1.9208034     0.013176824
       2690.0000       287.78803       98831.123       14516.163       3.6937500      0.10525000      0.36975000       340.86000       1.8518507     0.017253032
       2695.0000       287.71122       98828.934       14423.235       2.3095000     -0.57000010      0.37425000       341.13200       1.9314736     0.012988305
       2700.0000       287.68510       98829.058       14368.849       2.0935000     -0.32600000      0.51600000       341.18600       2.0491220     0.015628873
       2705.0000       287.66068       98843.134       14292.253       3.4667500     -0.80800000     -0.43575000       341.04600       1.8732743     0.016304365
       2710.0000       287.63416       98848.997       14233.978       2.7875000      -2.8830000      0.27025000       341.10800       1.8073253     0.016571203
       2715.0000       287.64436       98849.797       14220.032       3.6850000      -1.2895000     -0.61875000       341.02700       1.9332654     0.012149559
       2720.0000       287.65448       98844.714       14207.660       2.6335000      -1.3897500       1.0572500       341.07900       1.9640091     0.011421493
       2725.0000       287.65629       98829.455       14193.909       3.7095000      -1.4030000      0.53625010       340.94600       1.9137130     0.010088602
       2730.0000       287.64649       98828.594       14172.534       3.4852500      -1.5030000     -0.20175000       341.09500       2.0194216    0.0095074513
       2735.0000       287.65823       98832.788       14176.233       3.7275000    0.0092500000      0.34700000       340.82600       1.8248456     0.015519701
       2740.0000       287.65444       98828.903       14165.354       3.4330000     -0.95050010      0.30950000       341.04100       1.9205351     0.013584969
       2746.0000       287.59042       98828.577       14095.179       5.2542500      -1.0945000     -0.32325000       340.84000       1.9179732     0.014676180
       2751.0000       287.59292       98832.650       14104.661       3.8892500      -2.8767500     -0.52350000       340.85000       1.9287240     0.010669165
       2756.0000       287.65378       98830.833       14172.853       4.5692500      -2.1497500     0.071750000       340.96500       1.8755982     0.014320672
       2761.0000       287.65779       98828.436       14199.382       3.6832500      -1.5667500      0.13425000       340.84300       2.0000304    0.0089265527
       2766.0000       287.66840       98834.292       14273.060       5.0247500      -2.7972500     -0.13175000       340.75200       1.9114134     0.011880413
       2771.0000       287.64612       98838.755       14257.981       3.8755000      -1.8050000      0.64175000       340.86300       1.8836265     0.017110645
       2776.0000       287.54753       98836.230       14151.893       2.3397500      -1.7872500     -0.66925000       340.85900       1.9028727     0.013522120
       2781.0000       287.53022       98833.248       14116.475       2.7715000      -2.2460000     -0.23725000       340.97200       1.8983893     0.017279162
       2786.0000       287.53248       98834.043       14059.662       3.5722500      -1.7750000      0.33300000       340.97600       1.9347895     0.010976764
       2791.0000       287.55521       98837.124       14044.559       5.7330000      -3.1405000     0.019750000       340.70300       1.8804460     0.022275008
       2796.0000       287.65304       98836.511       14103.151       4.4600000      -2.9770000      0.50300000       340.78900       1.8447016     0.015836004
       2801.0000       287.67057       98833.493       14098.845       4.1317500      -3.3835000     -0.20775000       340.77400       1.7793723     0.022427353
       2806.0000       287.65741       98834.340       14064.585       4.7225000      -3.0587500      0.16275000       340.81600       1.9507762     0.010975537
       2811.0000       287.65121       98837.406       14054.689       3.9795000      -3.0575000    0.0012500000       340.79200       1.8736862     0.015516885
       2816.0000       287.58956       98834.232       14014.126       4.0535000      -3.7710000     -0.43125000       340.72100       1.9666907     0.011634971
       2821.0000       287.59173       98834.469       14031.101       4.7840000      -2.1697500     -0.45950000       340.71800       1.8756155     0.013274460
       2826.0000       287.64171       98844.757       14103.263       3.9392500      -2.6827500       1.1790000       340.89700       1.9514184     0.010259011
       2831.0000       287.66211       98848.431       14142.336       4.7765000      -2.1502500     -0.38175000       340.86300       1.9044068     0.015349429
       2837.0000       287.70300       98845.593       14208.853       3.4085000     -0.41150000     -0.21775000       340.87500       1.8993543     0.011252058
       2842.0000       287.71464       98844.665       14239.175       5.4032500      -1.1350000     -0.19375000       340.79900       1.8991948     0.012806873
       2847.0000       287.68161       98845.936       14220.209       3.8177500      -1.8475000    0.0055000000       340.83800       1.9185318     0.013257864
       2852.0000       287.71866       98845.051       14278.597       3.3130000   -0.0047500000     -0.30575000       340.83200       1.9139656     0.012116029
       2857.0000       287.79238       98840.095       14375.034       3.2400000     -0.38475000    -0.060250000       340.88700       1.8806927     0.017833136
       2862.0000       287.83226       98839.036       14443.418       4.0380000      0.62025000     -0.16125000       340.73200       1.9331003     0.012461222
       2867.0000       287.91517       98840.465       14566.145       3.4685000     -0.43000000     -0.30950000       340.90200       1.9760147    0.0087911633
       2872.0000       287.91805       98840.491       14594.082       4.1875000      -2.2540000     -0.30650000       340.74700       1.9150675     0.011428491
       2877.0000       287.85389       98839.297       14554.055       2.8060000      -2.6965000      -1.2472500       340.73400       1.8071019     0.020787574
       2882.0000       287.83386       98841.161       14549.363       2.5010000     -0.14300000      0.83500000       340.92100       1.9223093     0.012449534
       2887.0000       287.78727       98845.662       14507.453       1.5475000     -0.43925000      0.76575010       340.93400       1.9176869     0.010850358
       2892.0000       287.79462       98845.741       14519.875       2.0367500     -0.44125000     -0.12550000       340.93500       1.9359569     0.010696186
       2897.0000       287.85510       98846.079       14588.935       3.1307500     -0.41500000    -0.031250000       340.85600       1.8369832     0.016233245
       2902.0000       287.85621       98845.219       14575.779       3.6282500      -1.1857500     -0.49675000       340.81900       1.8791579     0.021420655
       2907.0000       287.85733       98839.193       14545.412       3.3620000     -0.82125000      0.20750000       340.91300       1.9114868     0.015659389
       2912.0000       287.84886       98839.937       14516.743       2.6775000     -0.28600000     -0.23900000       341.04900       1.9111897     0.013008893
       2917.0000       287.79705       98844.805       14425.100       1.9045000      0.39350000    -0.034000000       341.14900       1.8936300     0.013503349
       2923.0000       287.78504       98847.209       14407.322       2.5392500     -0.57825010      0.42200000       340.95500       1.9827284     0.012296167
       2928.0000       287.79991       98851.444       14438.331       3.2635000     -0.11625000      0.56200000       340.90700       1.9266513     0.012683670
       2933.0000       287.80032       98845.620       14453.988       2.8450000     -0.40150000      0.35250000       340.99800       1.8340216     0.022550322
       2938.0000       287.80055       98844.389       14468.368       3.4570000      -1.7202500      0.24775000       341.01100       1.9468080     0.011626138
       2943.0000       287.81519       98844.801       14485.545       3.7452500     -0.97275010     -0.61275010       340.78000       1.9127898     0.017875689
       2948.0000       287.80662       98844.685       14495.554       4.0955000     -0.85775010     -0.10700000       340.92800       1.9380805     0.013626768
       2953.0000       287.78577       98845.792       14502.220       3.1662500      -1.2065000     -0.22425000       340.84300       1.9408136     0.011332461
       2958.0000       287.75041       98851.474       14511.069       2.1107500     -0.72950010      0.40575000       340.92500       2.0026370     0.010248748
       2963.0000       287.73004       98850.130       14501.170       3.0030000     -0.94725010      0.63750000       340.86800       1.8478441     0.016293654
       2968.0000       287.69364       98844.719       14479.636       4.1272500     -0.85900000      0.61975000       340.73800       1.9682999    0.0090964193
       2973.0000       287.68535       98846.221       14433.283       2.5295000     -0.55275010      0.33825000       341.03100       1.9147810     0.012906236
       2978.0000       287.69412       98845.214       14410.711       3.1437500     -0.13275000     -0.46325000       340.99900       1.9028218     0.011632260
       2983.0000       287.73017       98841.276       14402.360       3.9302500      -1.6522500      0.30400000       340.89400       1.9891558    0.0094543503
       2988.0000       287.74980       98844.004       14390.751       2.7697500      -2.1067500      0.48075000       340.83600       1.8736820     0.014007708
       2993.0000       287.79998       98858.356       14409.998       2.6887500      -1.3990000      0.36450000       341.01700       1.9794006     0.010164450
       2998.0000       287.81242       98857.933       14403.684       4.3087500      -1.8792500     -0.17875000       340.94500       1.9811377    0.0099344254
       3003.0000       287.80022       98852.608       14383.401       2.9842500      0.18200000      0.22700000       340.92800       1.9025005     0.012682187
       3008.0000       287.75057       98844.084       14339.641       4.8895000     -0.54100000      0.28925000       340.91500       1.8777614     0.016280925
       3014.0000       287.69630       98849.363       14300.575       3.2000000      -2.6032500      0.39125000       340.89300       1.9648078    0.0096465012
       3019.0000       287.68869       98844.266       14303.042       4.5867500      -1.1377500       1.0812500       340.95100       2.0077230     0.010487554
       3024.0000       287.74887       98840.966       14376.678       3.1665000      -1.2765000      0.30275000       340.94400       1.9636687    0.0095266794
       3029.0000       287.75810       98845.888       14396.663       3.5160000     -0.97550000      0.35500000       340.92200       1.9800317     0.010238017
       3034.0000       287.74211       98849.200       14390.427       3.6292500     -0.55550000     -0.12925000       340.92500       1.9127962     0.011453912
       3039.0000       287.75206       98844.184       14407.199       3.6382500     -0.84850000     -0.18200000       340.79800       2.0063294     0.010071453
       3044.0000       287.72808       98841.455       14387.200       4.4412500      0.27850000    -0.051500000       340.84400       2.0717655     0.012258392
       3049.0000       287.74081       98846.404       14403.666       4.0560000      -1.9230000     -0.96700010       340.84700       1.9938859     0.014271327
       3054.0000       287.82416       98849.353       14489.458       3.2935000    -0.082000000      0.28250000       340.77100       1.8298362     0.017279508
       3059.0000       287.86320       98844.257       14528.824       2.9945000      -2.2782500     0.069500010       340.81100       1.9114837     0.014580267
       3064.0000       287.90474       98841.196       14566.236       1.9292500      -2.1307500      0.10200000       341.01000       1.8860784     0.014724270
       3069.0000       287.91267       98846.146       14574.784       3.2685000     -0.72975000     -0.76100000       340.90500       1.9604419     0.013765758
       3074.0000       287.86554       98849.000       14528.051       2.6587500      -1.2497500     0.083000000       341.06000       1.9555931    0.0092483248
       3079.0000       287.84560       98843.963       14510.075       1.8002500     -0.61250000     -0.28150000       341.09800       1.9328740     0.010653369
       3084.0000       287.81004       98845.505       14486.417       3.2712500     -0.51125000     -0.17225000       341.04100       1.9761878     0.010324630
       3089.0000       287.79145       98847.086       14469.865       2.1340000     -0.95250000     -0.15600000       340.96600       1.9346924     0.012881006
       3094.0000       287.81510       98831.788       14499.556       3.3845000      -1.2835000      0.14550000       340.83500       1.9031638     0.011600860
       3099.0000       287.80385       98826.434       14476.377       2.1575000    -0.076000010      0.38000000       341.06100       1.9489556     0.010649335
       3105.0000       287.74997       98838.049       14391.764       3.0850000      -1.2750000     -0.23075000       340.99200       1.9699169     0.010049850
       3110.0000       287.74408       98842.821       14353.365       3.9567500      -1.5047500     -0.63150000       340.95300       1.8582477     0.022502126
       3115.0000       287.73073       98845.575       14271.027       3.0227500      -1.2417500     -0.13600000       340.86300       1.9700602     0.010232229
       3120.0000       287.74789       98846.294       14262.342       2.5847500     -0.41800000     -0.11550000       341.11500       1.8705024     0.014484469
       3125.0000       287.83318       98844.716       14336.031       1.8302500     -0.59300010       1.8242500       341.19800       1.8965828     0.016783208
       3130.0000       287.86912       98845.724       14370.753       2.4822500     -0.49925000      0.22125000       341.11400       1.8757052     0.021848451
       3135.0000       287.89547       98844.489       14433.128       1.6890000     -0.68575000      0.55750000       341.22700       1.8869971     0.018754780
       3140.0000       287.91175       98844.888       14468.798       1.9610000     -0.52800000      0.18200000       341.14200       1.9832530    0.0092955202
       3145.0000       287.87488       98851.053       14446.588       3.8157500      -1.2342500      0.33650000       341.01100       2.0456636     0.012653258
       3150.0000       287.90284       98851.330       14493.040       1.6767500     -0.35700000      0.14750000       341.19300       1.8830808     0.018985829
       3155.0000       287.99045       98842.423       14593.166       4.0120000    -0.095000010     -0.29850000       341.19800       1.8625150     0.014157436
       3160.0000       288.01700       98844.463       14649.078       3.0252500       1.6382500       1.1010000       340.99800       1.9156173     0.012709016
       3165.0000       288.05227       98858.807       14735.509       3.8985000     -0.27925000      0.25300000       341.13300       1.9262682     0.012401126
       3170.0000       288.06445       98856.345       14777.154       5.5240000     -0.95800010     -0.82975010       340.76100       2.0305770     0.010095391
       3175.0000       288.00523       98843.244       14761.777       3.3787500     -0.75450000     -0.16600000       341.05400       1.8805028     0.012324962
       3180.0000       287.98910       98844.938       14755.898       3.0095000      -1.9822500      0.33525000       341.06800       1.9453197     0.014292664
       3185.0000       288.00010       98848.064       14744.485       3.0485000      -1.1487500     -0.18125000       340.78700       1.9332479     0.010060705
       3190.0000       288.00026       98843.094       14725.050       2.5160000     -0.66400000      0.27075000       340.92900       1.9466713     0.012219276
       3196.0000       288.00018       98843.240       14681.523       2.2947500     -0.33150000      0.14200000       340.95200       1.9808651    0.0087452861
       3201.0000       288.00035       98848.380       14647.954       2.6362500     -0.42175000     -0.36025000       340.94800       1.8714653     0.014424622
       3206.0000       288.00035       98847.659       14606.062       3.3752500     0.077750000     -0.22750000       340.98800       1.9099679     0.014294904
       3211.0000       288.00042       98842.692       14577.274       4.0535000     -0.28425000     -0.36700000       340.91500       1.9708075     0.010220541
       3216.0000       287.98882       98845.660       14530.495       2.6637500     -0.25075000      0.16325000       341.19700       1.7906245     0.019010830
       3221.0000       288.00500       98847.462       14537.521       3.4097500     -0.25950000      0.28700000       340.83800       1.9765153    0.0094742335
       3226.0000       288.04109       98834.064       14584.965       3.2132500      0.34700000     0.044250000       340.90200       1.9328913    0.0099008384
       3231.0000       288.06116       98831.644       14616.191       4.1917500     -0.72350000     -0.35400000       340.86300       1.9448666     0.011033832
       3236.0000       288.12093       98844.733       14699.479       3.1395000     0.021750000     0.066250000       340.80200       1.9834749    0.0092568423
       3241.0000       288.10199       98848.558       14709.716       3.2202500    -0.044250000      0.43500000       340.88800       1.9472794     0.010943475
       3246.0000       287.99216       98844.570       14640.424       2.5670000      0.42875000    -0.093000000       341.09900       1.8823562     0.015455458
       3251.0000       287.98450       98845.172       14661.196       3.0395000      0.13025000     -0.44925000       340.96700       1.9641899     0.017128300
       3256.0000       287.99688       98853.707       14712.255       2.4632500      0.42225000      0.35925000       341.07100       1.9288347     0.010621626
       3261.0000       287.99342       98850.264       14728.332       2.7640000      -1.2695000     -0.24750000       340.96000       1.8789411     0.015623146
       3266.0000       288.07855       98832.101       14824.928       3.0182500     -0.72425000      0.13175000       341.12600       1.9487363     0.012122907
       3271.0000       288.05401       98834.161       14791.552       1.5665000     -0.98150000      0.33025000       341.04600       1.9035643     0.010276160
       3276.0000       287.91822       98846.911       14628.638       2.6497500      -2.4577500      0.22425000       340.89400       1.9036559     0.019720524
       3281.0000       287.86416       98844.668       14551.167       2.5300000     -0.64550000     -0.28225000       340.91500       1.9337690     0.010010749
       3287.0000       287.79508       98848.598       14439.677       3.2892500      0.51350000      0.23225000       341.00000       1.8941536     0.013298297
       3292.0000       287.77233       98844.308       14372.389       3.5462500     -0.34000000     0.013500000       340.94000       1.9421274     0.010141644
       3297.0000       287.78184       98814.263       14330.766       3.8075000    -0.063500000     -0.11300000       341.11400       1.8972108     0.014009040
       3302.0000       287.81901       98817.920       14324.927       3.4885000     -0.26425000      0.56200000       341.21400       1.8211689     0.018718183
       3307.0000       287.89198       98843.451       14329.364       3.4042500     -0.48700000     -0.35900000       340.84000       1.9537733    0.0094708536
       3312.0000       287.93150       98853.407       14352.143       2.5682500     -0.50950000     -0.63625000       340.78400       1.9311362     0.011829477
       3317.0000       288.00661       98874.777       14443.768       3.2667500      -1.2142500    -0.023500000       340.83800       1.8828701     0.013616413
       3322.0000       288.02880       98874.612       14474.913       3.1192500      -1.1735000     -0.52400000       340.90800       1.9085001     0.011992197
       3327.0000       287.99975       98855.570       14478.208       3.8727500     -0.47700000     -0.33100000       341.00400       1.9697270     0.010340446
       3332.0000       287.99970       98851.435       14494.939       3.0672500     -0.74175010      0.10775000       340.91400       1.9468730     0.012020116
       3337.0000       287.99083       98841.954       14487.436       3.7020000     0.080500010      0.15350000       340.97800       1.8798956     0.019920165
       3342.0000       288.00942       98844.246       14540.064       2.5880000     -0.71825000     -0.17600000       341.00400       1.9902011    0.0091787657
       3347.0000       288.05534       98864.296       14633.017       1.7035000     -0.57250010      0.24475000       341.17100       1.9317485     0.012266253
       3352.0000       288.05663       98860.050       14686.608       1.8840000    0.0077500000     -0.54300000       340.94800       1.9349664    0.0097637206
       3357.0000       288.05689       98843.551       14779.385       2.8112500      -1.4505000     0.011000000       340.86400       1.9729665     0.010702856
       3362.0000       288.04831       98845.194       14798.013       3.4747500     -0.24675000     -0.40700000       340.95800       1.9013356     0.013699271
       3367.0000       288.00676       98846.357       14766.515       3.3287500      0.26950000    -0.044500000       340.86600       1.9574973    0.0099678446
       3372.0000       287.97676       98841.479       14722.783       2.5730000     -0.70225000     -0.18225000       340.81800       1.8576978     0.021212350
       3378.0000       287.95065       98845.534       14630.616       2.5967500     -0.16725000     0.010750000       340.95000       1.9139759     0.010819643
       3383.0000       287.91462       98847.443       14557.139       2.2320000     -0.71300010      0.18175000       341.12500       1.9276277     0.011377096
       3388.0000       287.89280       98844.196       14488.388       1.7962500     -0.11725000      0.36925000       341.10300       1.9648141    0.0094581363
       3393.0000       287.90002       98852.306       14423.967       1.9292500     -0.87450000   -0.0080000000       340.99400       1.9107899     0.011565856
       3398.0000       287.90005       98857.735       14374.054       2.3497500    -0.069500010      0.39525000       341.10200       1.8756839     0.016041093
       3403.0000       287.90012       98858.247       14331.370       2.7480000     -0.57675000     0.018500000       341.01600       1.9016439     0.011907051
       3408.0000       287.89387       98843.377       14274.351       2.1500000     -0.49850000    -0.076750000       340.91800       1.8886539     0.017902025
       3413.0000       287.91561       98842.815       14287.057       1.8512500    -0.079000000    -0.094250000       341.04200       1.9757893    0.0094605727
       3418.0000       287.95013       98852.634       14339.237       1.1897500     -0.28350000      0.31225000       341.27200       1.9098695     0.014674136
       3423.0000       287.99983       98833.661       14433.654       2.2645000     -0.20825000     -0.25300000       341.11400       1.9252899     0.011422577
       3428.0000       288.01257       98831.876       14479.686       1.7007500     -0.74100010     0.093000000       341.17700       1.9450672     0.010352335
       3433.0000       287.95502       98848.862       14463.432       1.3935000     -0.36125000    -0.015750000       341.28300       1.9351618     0.010383046
       3438.0000       287.94415       98847.235       14485.257       2.1147500      0.41000000     -0.10575000       341.24200       1.9943779    0.0097887361
       3443.0000       287.94504       98838.866       14515.366       2.1312500     -0.14100000     0.095500010       341.21200       1.9395443     0.010634011
       3448.0000       287.94368       98841.007       14530.295       2.9822500     -0.33725000     -0.21775000       340.94100       1.8849491     0.020358761
       3453.0000       287.95460       98841.925       14548.478       1.7242500     -0.91050000     -0.30625000       341.37900       1.9514272     0.010186161
       3458.0000       288.00707       98826.456       14600.897       2.3110000     -0.83125000    -0.011250000       340.95000       1.8811207     0.020201090
       3464.0000       287.98638       98847.696       14566.451       3.0907500     -0.63225000     -0.16650000       341.09800       1.8966926     0.012917735
       3469.0000       287.99791       98854.187       14565.642       3.2575000     -0.78750000     -0.36175000       340.95000       1.9849384    0.0092193551
       3474.0000       288.02075       98842.479       14581.070       4.1767500     -0.72800000     -0.30775000       341.04600       1.9103767     0.011672962
       3479.0000       288.05215       98843.724       14592.573       2.6935000      -1.1980000     -0.18200000       341.09000       1.9246431     0.010966962
       3484.0000       288.13879       98858.672       14638.338       2.5402500     -0.64175000      0.13275000       341.11100       1.9908150     0.011948509
       3489.0000       288.16601       98857.229       14641.908       3.5727500     -0.83000000      0.15625000       340.89900       1.8808721     0.021688038
       3494.0000       288.15743       98843.325       14604.029       3.0695000     -0.93750010     -0.29725000       341.03300       1.8149981     0.023883507
       3499.0000       288.15604       98844.534       14587.789       2.9360000      -2.0565000     0.043500000       340.93200       1.9237297     0.010595894
       3504.0000       288.09585       98845.058       14539.416       3.5545000      -1.7882500     -0.27225000       341.12200       2.0061710    0.0098264540
       3509.0000       288.08833       98843.340       14530.716       3.4957500     -0.92225000     -0.31450000       341.11500       2.0237491     0.011748552
       3514.0000       288.13491       98859.986       14576.407       1.9855000      0.39025000      0.51950000       341.37700       2.0089003     0.011296599
       3519.0000       288.15524       98864.297       14592.930       3.6357500     -0.57925000      0.25225000       341.08000       1.9072766     0.015435399
       3524.0000       288.19048       98844.541       14604.789       1.9657500     -0.78125010    -0.016750000       341.19700       1.8975645     0.013313070
       3529.0000       288.20883       98842.268       14623.870       2.2567500      -1.3202500     -0.45000000       341.07400       1.9129012     0.015395367
       3534.0000       288.18589       98858.664       14610.797       2.5570000     -0.16250000      0.46600000       341.30300       1.8786436     0.014091195
       3539.0000       288.19708       98857.260       14640.411       3.8610000      -1.6360000      0.15825000       340.98600       1.9794591     0.010658492
       3544.0000       288.24735       98843.331       14744.179       3.0637500     -0.33200000     -0.32125000       341.12100       1.9398390     0.012650642
       3549.0000       288.25576       98844.597       14779.771       2.9152500  -0.00075000000      0.56175010       341.20100       1.9680941    0.0097302702
       3555.0000       288.24419       98844.616       14796.403       1.6117500      -1.1572500    -0.084000010       341.28200       1.9371711    0.0098831689
       3560.0000       288.25461       98843.699       14813.414       2.9740000      -1.8125000      0.29100000       341.11200       1.8975075     0.019712377
       3565.0000       288.23046       98861.330       14775.391       2.1065000      -1.6822500     0.053250000       341.34600       1.8869683     0.015487851
       3570.0000       288.24755       98864.171       14774.559       3.6342500     0.023250000    0.0082500000       341.17800       1.9232096    0.0098566687
       3575.0000       288.34622       98843.556       14835.498       2.6135000      -1.0912500      0.50175010       341.29600       1.9266303     0.010742283
       3580.0000       288.36851       98842.446       14834.689       3.0950000     -0.78400000      0.18575000       340.99900       2.0439570     0.013752797
       3585.0000       288.35808       98858.695       14792.827       2.0457500     -0.40800000      0.12975000       341.17500       1.9172917     0.013186753
       3590.0000       288.35414       98856.123       14774.248       2.4122500     -0.79000000      0.63875000       341.26200       2.0232320    0.0091371336
       3595.0000       288.29236       98843.278       14720.299       2.7717500     -0.79475000     0.010000000       341.29500       1.9288346     0.011733311
       3600.0000       288.28983       98845.116       14712.156       3.0510000     0.034250000     -0.31500000       341.02500       2.0308593    0.0096666147
       3605.0000       288.35195       98841.900       14769.962       2.0135000     -0.59050010      0.24800000       341.41800       1.8359049     0.017053202
       3610.0000       288.35850       98843.715       14769.919       2.3840000     -0.67050000      0.12475000       341.18300       1.9076716     0.024389997
       3615.0000       288.34427       98874.350       14749.907       2.6205000     -0.63500010     -0.33300000       341.20300       1.9464815     0.011474668
       3620.0000       288.35418       98875.446       14740.458       2.2820000      -1.2227500      0.25325000       341.34400       1.9134845     0.016851007
       3625.0000       288.31718       98844.833       14676.333       2.7187500      -1.1775000     -0.19575000       341.29100       1.9573853     0.010311557
       3630.0000       288.34801       98841.695       14680.721       2.3427500     -0.24400000      0.13900000       341.54000       1.8403292     0.018299449
       3635.0000       288.46895       98845.244       14731.942       2.1890000    -0.090250010     -0.17750000       341.14700       1.8616739     0.015117492
       3640.0000       288.52511       98842.966       14784.465       1.6272500      0.10350000      0.55525000       341.50800       1.8859039     0.015802170
       3646.0000       288.59733       98855.924       14905.860       2.0977500     -0.60000000      0.20950000       341.30300       1.9666414     0.010356209
       3651.0000       288.62509       98858.446       14959.725       2.8037500     -0.61425000     -0.33100000       341.37100       1.8821183     0.014963265
       3656.0000       288.57765       98842.454       14990.493       2.7397500      0.12525000    -0.069750000       341.08700       1.8889951     0.013214629
       3661.0000       288.60990       98843.492       15034.208       2.1982500      0.37575000     -0.16300000       341.52200       1.8485494     0.017936502
       3666.0000       288.68461       98864.236       15070.106       2.5607500     -0.34050000     -0.49500000       341.24800       1.8382279     0.018844089
       3671.0000       288.72443       98861.480       15088.597       2.9305000     -0.58300000     0.049500000       341.03200       1.9101520     0.018467439
       3676.0000       288.79866       98846.047       15122.335       2.4245000      0.39450000     -0.28000000       341.33300       1.9376061     0.010527650
       3681.0000       288.82576       98843.614       15115.860       2.7602500     0.077500000     0.088250000       341.82600       1.7993254     0.022289225
       3686.0000       288.80017       98833.645       15059.425       3.4935000      0.40725000      0.22625000       341.56400       1.8829296     0.012643957
       3691.0000       288.80034       98832.852       15028.019       3.1430000     0.014750000      0.66650000       341.74100       1.9689843    0.0099336087
       3696.0000       288.77793       98853.393       14982.172       2.7652500      0.34400000      0.39725000       342.09200       1.8066171     0.025392845
       3701.0000       288.81027       98852.639       14962.399       3.4657500      0.31375000      0.22425000       341.91500       1.9788207     0.012041031
       3706.0000       288.88415       98832.085       14964.142       2.4660000     -0.42700000      0.39250000       342.16800       1.8421840     0.026223512
       3711.0000       288.92373       98834.244       14948.600       2.1842500      -1.6770000     -0.25825000       341.11000       1.8753082     0.014469783
       3716.0000       289.04381       98844.862       14950.967       3.1855000      0.22925000     -0.10450000       341.09800       2.1525845     0.024289706
       3721.0000       289.00732       98845.825       14920.531       2.7462500     -0.39525000     -0.52000000       341.55000       1.9616305     0.011593420
       3726.0000       288.82426       98857.634       14865.969       2.3077500     -0.54400000     0.024000000       342.50800       1.9112240     0.018993675
       3731.0000       288.76017       98858.443       14812.143       2.6835000     -0.67350010     -0.43150000       341.97800       1.8808121     0.013369424
       3737.0000       288.63566       98836.864       14731.233       2.3200000      0.80125000      0.51025000       342.65700       1.8697252     0.020050107
       3742.0000       288.60995       98839.051       14663.909       2.0922500      0.20175000      0.52750000       342.79400       1.9510781     0.010211491
       3747.0000       288.69384       98857.017       14579.204       2.1837500     0.047500000     0.058000000       341.75400       1.8457808     0.020542151
       3752.0000       288.72363       98857.443       14532.142       1.9212500     -0.29200000     -0.40875000       342.23400       1.9012592     0.014253398
       3757.0000       288.72840       98857.234       14473.701       3.1197500      0.29400000     -0.19325000       341.97100       1.8741800     0.016191886
       3762.0000       288.78539       98854.567       14492.693       4.1542500      0.32675000      0.25925000       341.49900       1.9670727     0.011649887
       3767.0000       288.90285       98836.572       14583.949       2.7575000      -1.2115000     -0.20025000       341.65200       1.7233001     0.030861958
       3772.0000       288.93524       98838.968       14623.477       3.1482500      0.22300000      0.44225000       342.05500       1.7878956     0.029714774
       3777.0000       288.95073       98858.524       14682.398       2.9780000      -1.1540000     0.022000000       342.09500       1.9233134     0.011135286
       3782.0000       288.97227       98855.165       14745.650       2.8247500      0.75500010      0.23075000       342.42500       1.8811209     0.010076051
       3787.0000       288.92621       98845.205       14764.625       3.6407500       1.7330000      0.55050000       342.01000       1.9372193     0.010463672
       3792.0000       288.97236       98844.210       14866.678       2.5627500      -1.4122500      0.22200000       342.54100       1.8315874     0.016008765
       3797.0000       289.09564       98830.714       15061.837       4.5457500     -0.33175000    -0.033000000       342.22800       1.8854923     0.014849946
       3802.0000       289.14640       98834.858       15153.342       2.9377500     -0.92250000      0.64100000       342.19000       1.9955405     0.010635267
       3807.0000       289.20540       98864.903       15249.893       3.0860000      -1.7110000     -0.29125000       341.75600       1.8907449     0.013141903
       3812.0000       289.22775       98863.007       15284.102       2.1592500      -1.3772500      0.26225000       341.91000       2.0272730     0.013628134
       3817.0000       289.19032       98843.635       15230.134       3.3240000      -1.6055000      0.17700000       342.18500       1.9729501     0.011473999
       3822.0000       289.20905       98845.231       15232.014       4.2755000      -2.4482500      0.26150000       341.86700       1.8747959     0.014226680
       3828.0000       289.23782       98842.257       15227.621       4.9297500      -2.1760000      0.18100000       342.20800       1.8676330     0.013162843
       3833.0000       289.34606       98870.327       15246.370       4.3917500      -1.3457500     -0.59075000       341.91600       1.8802914     0.015404332
       3838.0000       289.40816       98876.899       15276.844       3.2497500      -2.1250000      0.42700000       341.80800       1.9676655     0.014945886
       3843.0000       289.44076       98847.646       15313.117       3.6835000      -2.3785000     -0.11925000       342.14000       1.8821051     0.016127961
       3848.0000       289.50049       98842.067       15367.832       3.8820000      -1.9485000   0.00025000000       341.55300       1.9591006    0.0095655099
       3853.0000       289.56021       98842.612       15438.515       5.0715000      -1.7462500     -0.22800000       340.91300       2.0033678     0.012880864
       3858.0000       289.59782       98841.926       15535.527       3.5610000     -0.99600010      0.86125000       341.72600       1.8980841     0.012123821
       3863.0000       289.63810       98847.832       15597.776       3.3065000     -0.34275000      0.23275000       341.93700       1.8703942     0.013322896
       3868.0000       289.74140       98876.227       15680.146       4.2535000      -1.0382500     -0.40025000       341.67100       1.9184417     0.011028489
       3873.0000       289.54674       98847.489       15671.605       1.9975000      -1.9682500      0.29400000       342.39100       1.9513723     0.010550426
       3878.0000       289.44549       98841.645       15633.114       4.1932500      -1.8642500      0.15900000       342.12900       2.0172297     0.012165791
       3883.0000       289.25804       98845.771       15517.821       4.2350000      -1.2302500     -0.22925000       341.81000       1.9331565    0.0096505870
       3888.0000       289.16215       98843.474       15423.170       5.1862500     -0.88775000     -0.60925000       341.06900       1.9342534     0.016035694
       3893.0000       289.21513       98861.206       15291.648       3.8652500     -0.65175000      0.23325000       341.96900       1.9174647     0.011779942
       3898.0000       289.24374       98865.172       15201.124       3.8375000     -0.99900010     -0.94650010       342.12500       1.9033290     0.010590896
       3903.0000       289.28464       98859.292       15133.210       3.3470000     -0.22275000     -0.54500000       341.40400       1.8871995     0.010286708
       3908.0000       289.35504       98831.048       15086.984       4.4375000     -0.94625000      0.53125000       342.22200       1.9186167     0.013549232
       3913.0000       289.38378       98833.993       15046.144       2.7570000     -0.24075000      0.23925000       341.93000       1.9508206     0.010446980
       3919.0000       289.40637       98844.750       15027.639       2.8705000      0.22950000      0.12550000       342.57700       1.9405435    0.0094058243
       3924.0000       289.46271       98872.430       15029.764       3.1590000      0.26400000      0.19275000       342.31400       1.9889113     0.010492569
       3929.0000       289.46076       98876.406       15019.443       2.5430000     -0.36225000     -0.14600000       342.31500       1.7839005     0.023762438
       3934.0000       289.39377       98846.203       14996.811       2.1940000      -1.7610000     0.018250000       342.85600       1.8418479     0.012546611
       3939.0000       289.39511       98841.926       15012.626       2.6065000      -1.0597500     -0.21300000       342.65100       1.8745234     0.012238023
       3944.0000       289.40080       98844.751       15053.760       1.9547500      -1.4092500     -0.12800000       342.81100       1.8943477     0.012989951
       3949.0000       289.39233       98843.178       15075.759       2.4222500     -0.68375000      0.45800000       343.12800       1.8260138     0.012868106
       3954.0000       289.44626       98862.572       15145.791       3.4050000     0.067250010     -0.40600000       341.23300       1.9314953     0.011833856
       3959.0000       289.46409       98864.545       15166.000       1.6925000     -0.44550000      0.88400010       342.42000       1.8773178     0.013667257
       3964.0000       289.39505       98834.670       15114.867       3.3880000      -1.0665000     -0.15050000       342.17100       1.8659063     0.012042792
       3969.0000       289.38705       98830.353       15098.163       3.4107500     -0.41375000     -0.12100000       342.36000       1.9263767     0.011442114
       3974.0000       289.39148       98843.076       15053.497       3.1300000      -1.2780000      0.23500000       342.39900       1.9316718     0.010379279
       3979.0000       289.44499       98845.208       15062.714       3.7315000    -0.078250010      0.55700000       342.22100       1.9119352    0.0087160786
       3984.0000       289.60652       98862.787       15139.997       3.1032500     -0.32300000     -0.10775000       342.21500       1.8551514     0.013736809
       3989.0000       289.67379       98864.784       15178.529       3.3362500      -1.8755000    -0.053250000       341.50400       1.8299605     0.014629347
       3994.0000       289.73719       98835.004       15236.500       1.5287500     -0.70600000   -0.0062500000       342.54900       1.9176806     0.010029931
       3999.0000       289.77303       98830.936       15276.748       2.1865000     -0.46875000      0.39600000       342.28900       1.7983629     0.016307058
       4004.0000       289.71049       98843.000       15276.212       3.1375000     -0.25050000     0.091750000       341.68700       1.9503534    0.0093590900
       4010.0000       289.68942       98845.588       15295.948       4.1272500    -0.091250000     -0.29575000       341.47300       1.9709092     0.010764598
       4015.0000       289.72598       98863.915       15355.191       3.9900000      0.62600000      0.71175000       341.98600       1.8105407     0.013931826
       4020.0000       289.69893       98864.070       15345.992       6.1077500     -0.67725000     -0.21500000       341.44100       1.8570541     0.010512341
       4025.0000       289.61099       98833.461       15288.930       5.4770000     -0.65350000    -0.093250010       341.59200       1.9473496    0.0088133360
       4030.0000       289.58505       98831.184       15251.323       3.4147500     -0.66250000     -0.10175000       341.67500       1.9582370    0.0094367639
       4035.0000       289.53388       98840.485       15148.054       3.3140000     -0.20475000    -0.076000010       342.24000       1.8395631     0.013820548
       4040.0000       289.53579       98845.741       15119.119       3.7182500      0.92000000      0.35700000       342.50400       1.8339705     0.026901811
       4045.0000       289.67073       98874.078       15146.164       3.8332500      0.66100000      0.15700000       341.61000       1.8557332     0.014433960
       4050.0000       289.66525       98875.316       15160.672       2.8865000      -1.4475000     -0.28175000       341.55800       1.9068888     0.010219879
       4055.0000       289.57840       98846.950       15239.980       2.8192500      -1.2082500      0.43300000       342.15800       1.9514276    0.0086936924
       4060.0000       289.53425       98840.958       15231.575       4.0472500      -1.9007500      0.51025000       341.73700       1.8533022     0.017767063
       4065.0000       289.44021       98830.428       15180.411       3.6497500     -0.21025000     -0.10025000       341.93000       1.9540627    0.0093322372
       4070.0000       289.36479       98832.572       15119.167       3.6472500     -0.24500000      0.17000000       341.78700       1.9312714    0.0085252333
       4075.0000       289.33694       98864.106       15007.085       3.9175000     -0.79425000      0.31125000       341.74900       1.8666678     0.013064066
       4080.0000       289.28358       98870.869       14895.512       1.9407500     -0.46325000       1.0987500       342.45100       1.8551760     0.016751106
       4085.0000       289.17337       98868.997       14746.377       3.7342500     -0.49200000     -0.15750000       342.09000       1.9009104     0.010604732
       4090.0000       289.12103       98866.455       14655.541       3.4142500     -0.92350010     -0.58325000       341.86700       1.8804870     0.011620270
       4096.0000       289.10107       98843.082       14545.737       2.5320000     -0.48400000     -0.38200000       341.95500       1.8748693     0.011360248
       4101.0000       289.08704       98841.795       14496.943       2.8240000     -0.70350000     -0.14625000       342.39000       1.9347426     0.012415112
       4106.0000       289.08864       98856.488       14510.612       1.8567500      -1.8077500      0.15725000       342.41700       1.8713419     0.011291788
       4111.0000       289.10462       98856.305       14516.228       2.8162500      -2.0115000      0.21200000       342.44900       1.8363044     0.012464709
       4116.0000       289.16473       98859.961       14539.721       2.4062500     -0.85950010      0.53150000       343.00800       1.8395845     0.015443742
       4121.0000       289.15235       98855.007       14552.974       3.3560000      -2.3510000     -0.24825000       341.53000       1.8856697     0.011984687
       4126.0000       289.10508       98826.419       14576.629       2.5407500      -1.1767500     -0.41450000       342.09300       1.8787885     0.010953835
       4131.0000       289.09486       98826.610       14602.384       1.9577500     -0.84250000      0.36025000       342.61700       1.9837678     0.012398015
       4136.0000       289.05580       98843.813       14633.976       1.9490000      -2.0242500      0.48625000       342.15300       1.9657592     0.010230567
       4141.0000       289.03210       98847.842       14639.962       3.5997500      -2.4202500      0.57475000       342.24700       1.9374221     0.012515231
       4146.0000       289.05672       98864.880       14647.961       2.4207500      -1.2677500      0.14300000       342.25500       1.9022969    0.0090602470
       4151.0000       289.05057       98862.964       14640.095       3.6107500      -1.8517500     -0.54825000       342.05600       1.8469924     0.012114174
       4156.0000       289.00089       98832.305       14590.525       4.2210000      -2.6402500      -1.3355000       342.06400       1.8370752     0.021999286
       4161.0000       288.98741       98831.792       14572.963       3.6290000     -0.96875010     -0.40625000       341.86900       1.8412346     0.015264087
       4166.0000       289.00012       98841.547       14567.137       3.3517500      -1.9992500    -0.041000000       342.07400       1.9348265     0.010119997
       4171.0000       289.00012       98847.326       14561.118       3.2772500      -2.1715000      0.18225000       341.98400       1.8707089    0.0091334304
       4176.0000       288.98870       98873.542       14546.868       3.2790000      -2.5165000     -0.38050000       341.78800       1.8282995     0.014297656
       4181.0000       289.00530       98875.478       14568.415       2.7607500     -0.63025000   -0.0060000000       341.82000       1.9317913     0.010287516
       4187.0000       289.03714       98855.608       14612.092       1.1395000      -2.2005000      0.60325000       342.07300       1.8706353    0.0081705176
       4192.0000       289.07615       98851.463       14667.979       4.0495000      -1.3900000     -0.30225000       341.64500       1.8805419    0.0092053824
       4197.0000       289.14968       98841.314       14767.723       4.2325000      -1.0497500    0.0055000000       341.91700       1.9238846    0.0092370829
       4202.0000       289.18097       98845.507       14826.915       4.0187500      -2.2040000     0.095500010       341.54600       1.8911653    0.0089038402
       4207.0000       289.20310       98865.405       14884.596       4.4040000      -1.3235000     -0.88550000       341.53700       1.9704467     0.012621721
       4212.0000       289.21426       98870.639       14923.124       3.7742500     -0.73950000      0.19850000       341.84200       1.9352839     0.013688781
       4217.0000       289.19042       98879.399       14927.056       4.2010000      -1.0435000     -0.18325000       341.57800       1.9975925    0.0080445692
       4222.0000       289.20925       98874.921       14972.916       3.5365000      -1.9257500     -0.37525000       341.91000       1.9281727     0.011098981
       4227.0000       289.25469       98853.539       15034.764       1.7567500    -0.082250010       1.2425000       342.23600       1.9176913    0.0086836598
       4232.0000       289.25587       98852.046       15073.620       3.3257500      -3.6677500    -0.097250010       341.30900       2.1597242     0.023233926
       4237.0000       289.27422       98853.217       15140.839       3.4037500      -1.6680000     -0.41000000       341.74500       1.9043956     0.011812019
       4242.0000       289.22806       98855.812       15142.331       3.9302500      -1.6200000     -0.10700000       341.37200       2.0160089     0.012664906
       4247.0000       289.09550       98873.946       15085.408       2.8812500      -2.3680000      0.62100010       341.45300       1.8743527     0.011211914
       4252.0000       289.06322       98871.668       15067.820       2.3470000      -1.1130000     -0.18800000       341.53300       1.9239221    0.0090656584
       4257.0000       289.04052       98855.758       15034.483       2.8262500      -1.7097500      0.40475000       341.88900       1.9563038     0.010466306
       4262.0000       289.03796       98851.692       15021.089       2.9837500      -1.5565000     -0.34575000       341.65200       1.8678035     0.015465392
       4267.0000       289.12199       98841.052       15053.062      0.79575000      -2.0155000      0.42050000       341.89300       1.8826594     0.010891313
       4272.0000       289.09517       98845.388       15004.724       3.2945000      -2.1585000      0.65825000       342.06900       1.9561520     0.010919642
       4278.0000       288.99997       98866.252       14906.230       4.0982500     -0.30600000     -0.52625000       341.49700       1.8504020     0.012743965
       4283.0000       288.91522       98877.174       14794.834       3.8445000     -0.52950000      0.20375000       341.73600       1.8635242     0.012272888
       4288.0000       288.88058       98879.052       14716.335       3.5930000    -0.068250000     -0.89075010       341.22400       1.8864287     0.010546754
       4293.0000       288.93013       98858.274       14655.554       1.9217500     -0.92500010     -0.14550000       341.81500       2.0053833    0.0096853853
       4298.0000       288.94993       98852.845       14626.404       3.2675000     -0.35625000     -0.34350000       341.83400       1.9691679    0.0077530842
       4303.0000       288.96972       98852.333       14621.742       4.7795000      0.36075000      0.26275000       341.62400       2.0105049     0.012737338
       4308.0000       289.00692       98852.696       14636.047       4.5232500     -0.49000000     -0.29225000       341.50700       1.8835367     0.014127777
       4313.0000       289.01554       98858.415       14676.328       3.4650000     -0.16650000     -0.12325000       341.52700       1.9573488    0.0085745270
       4318.0000       289.00536       98879.443       14754.480       4.3782500     -0.12925000     -0.33200000       341.33900       1.8818696     0.010952869
       4323.0000       288.96910       98866.413       14851.074       1.9380000     -0.59675000      0.77900000       342.02900       1.8718329     0.011727661
       4328.0000       288.94872       98860.421       14909.709       4.1902500    -0.029750000    -0.050250000       341.41900       1.9031536    0.0086320644
       4333.0000       288.91477       98840.188       14971.730       3.4422500     -0.55775000     -0.59600000       341.60800       1.7980912     0.020681190
       4338.0000       288.89390       98835.336       14993.044       2.6790000     -0.30225000     -0.10575000       341.73200       1.8498219     0.016153945
       4343.0000       288.90007       98853.930       14948.747       4.9207500     -0.15175000    -0.083000000       341.62800       1.8067846     0.022289326
       4348.0000       288.90019       98861.072       14920.741       4.5277500     0.034250000    -0.047500000       341.43000       1.8637001     0.013554313
       4353.0000       288.90031       98866.978       14886.047       3.4665000     -0.29550000     -0.23400000       341.54800       2.0727178     0.015777556
       4358.0000       288.90646       98879.829       14837.354       4.0027500      -1.0530000    -0.075000000       341.59800       1.9176874    0.0089476316
       4363.0000       288.88475       98874.782       14772.239       3.5232500     -0.17750000      0.10100000       341.67800       1.9143774    0.0083297137
       4369.0000       288.84315       98852.953       14689.176       3.2455000      -1.1065000     -0.64525000       341.55800       1.9433568     0.010957619
       4374.0000       288.85856       98842.391       14637.719       3.8595000     -0.33650000     -0.27650000       341.57800       1.9137243    0.0089879663
       4379.0000       288.84872       98841.975       14586.396       2.8670000     -0.69175000    -0.070500000       341.76400       1.8955447    0.0097706756
       4384.0000       288.85648       98861.178       14569.209       3.2120000      -1.9305000     -0.21875000       341.74700       1.8589903     0.016355040
       4389.0000       288.85530       98867.955       14539.904       2.8155000      -1.0652500      0.37450000       341.63800       1.8803302    0.0094598071
       4394.0000       288.80962       98878.418       14473.925       4.8277500     -0.15600000     0.025000000       341.65100       1.9644188    0.0094111410
       4399.0000       288.79098       98878.525       14443.961       4.4705000      -2.7715000      -1.0235000       341.19400       1.8615727     0.013062962
       4404.0000       288.81433       98856.901       14452.144       4.1117500     -0.95325010      0.10400000       341.40100       1.9671211    0.0097773427
       4409.0000       288.80311       98852.461       14439.748       4.7765000      0.25825000      0.28575000       341.56800       1.9083237     0.011432193
       4414.0000       288.76581       98852.325       14424.959       6.5387500    -0.093250010     -0.52725010       341.19300       1.9458341    0.0083110349
       4419.0000       288.74583       98853.861       14421.061       6.4677500      -1.7635000      0.42075000       341.33300       1.8735336     0.012579569
       4424.0000       288.72372       98872.174       14407.037       5.5197500      0.56575000     -0.43625000       341.44300       1.8834776     0.010952421
       4429.0000       288.69409       98878.518       14404.880       5.5835000     -0.24300000      0.47150000       341.33400       1.9952829     0.013062024
       4434.0000       288.66603       98883.009       14446.771       4.1920000      -1.2415000    -0.032250000       341.62500       1.8400683     0.013764158
       4439.0000       288.64609       98877.304       14443.311       3.8315000      -1.3247500     -0.18250000       341.59500       1.7993401     0.015912483
       4444.0000       288.62467       98850.326       14425.503       2.2605000      0.83700000      0.24425000       341.63500       1.8588271     0.018652596
       4449.0000       288.59471       98841.835       14387.360       4.3062500      -1.0565000     -0.66475000       341.44700       1.9272139    0.0083161974
       4454.0000       288.56613       98831.498       14290.443       5.0162500      -1.2445000      0.50200000       341.36900       1.9416020    0.0081525447
       4460.0000       288.54215       98832.743       14222.295       4.9267500     -0.28850000      0.56200000       341.37100       1.8693665     0.017923365
       4465.0000       288.51859       98861.806       14206.713       4.8060000      -1.6442500     -0.79550000       341.23700       1.9100781     0.011037601
       4470.0000       288.48881       98871.474       14129.549       3.5820000      -2.0782500     -0.44050000       341.31600       1.9218551     0.010952913
       4475.0000       288.47500       98881.389       14029.798       4.2947500      -1.5755000     -0.77525000       341.30600       1.8887912    0.0088635949
       4480.0000       288.44157       98877.368       13937.567       2.0820000     -0.94375000      0.43875000       341.44800       1.9554860     0.011742752
       4485.0000       288.35419       98849.495       13748.438       1.9412500      -1.5775000      0.32325000       341.56700       1.9646390    0.0098955339
       4490.0000       288.33200       98840.655       13682.934       2.4095000      -2.1175000      0.55175000       341.54300       1.8944601     0.010183795
       4495.0000       288.35607       98830.596       13709.512       3.2027500      -2.2327500    -0.042500000       341.51200       1.8829241     0.010025013
       4500.0000       288.34593       98826.473       13706.519       5.9132500      -2.4290000     -0.15350000       341.26300       1.9472903    0.0081440480
       4505.0000       288.36933       98834.149       13756.163       4.7965000     -0.35825000     0.044750000       341.26300       1.8106183     0.020409883
       4510.0000       288.35197       98842.881       13779.357       4.2502500      -1.3067500      0.10600000       341.19900       1.9336697    0.0094793094
       4515.0000       288.24069       98860.809       13743.198       5.0325000      -1.4550000     -0.18100000       341.21500       1.9408195    0.0092006666
       4520.0000       288.23225       98863.283       13784.788       3.5620000      -1.3472500     -0.42975000       341.24600       1.9059275     0.010965862
       4525.0000       288.29413       98863.065       13909.426       3.9967500      -1.7795000    -0.047750000       341.37900       1.8927662     0.011360093
       4530.0000       288.30404       98861.606       13958.491       3.6555000      -1.5987500     -0.28300000       341.13600       1.8786594     0.011814189
       4535.0000       288.35304       98838.257       14028.653       5.1112500      -1.3827500     -0.58300000       341.03200       1.9523696     0.013231953
       4540.0000       288.36544       98835.949       14050.586       3.5257500     -0.94575010     -0.12300000       341.18000       1.9838645    0.0096677499
       4545.0000       288.29264       98850.408       13964.980       2.2255000      -2.7932500      0.22750000       341.29200       1.8974433     0.010863126
       4551.0000       288.29262       98859.486       13961.557       2.3767500     -0.59800000      0.31200000       341.39400       1.8984319     0.013913083
       4556.0000       288.34298       98877.645       13989.789       4.7855000      -2.1377500     -0.85550000       341.10900       1.9833190     0.012486725
       4561.0000       288.36293       98878.956       14015.061       5.9762500     -0.64525000     -0.18425000       341.13000       1.9455430    0.0086037903
       4566.0000       288.41070       98868.775       14087.759       4.9047500      -1.3032500     -0.70450000       341.18500       1.9444094     0.010299835
       4571.0000       288.40827       98862.593       14105.441       5.7710000      -2.2175000     -0.43175000       341.09400       1.8591918     0.010165995
       4576.0000       288.34667       98845.075       14078.158       3.4997500      -1.2980000     -0.21400000       341.24300       1.9161558    0.0099110621
       4581.0000       288.34279       98840.587       14095.721       3.6057500     -0.80825000      0.19100000       341.40400       1.9894627     0.010275051
       4586.0000       288.34269       98841.393       14113.441       5.2945000      -1.6242500      0.44975000       341.08200       1.9154286    0.0097975288
       4591.0000       288.34878       98846.987       14133.373       4.9192500      -1.1930000     -0.18875000       341.10100       1.9856061    0.0083209375
       4596.0000       288.41070       98864.142       14197.662       4.2750000      -2.1307500    -0.050500000       341.29200       1.9584631    0.0090562031
       4601.0000       288.40841       98869.913       14212.065       2.0512500      -1.1122500     -0.98050000       341.20900       1.9529801     0.010349149
       4606.0000       288.33582       98879.184       14157.395       5.0650000     -0.57700000     -0.79725000       341.18300       2.0404508     0.011413600
       4611.0000       288.34851       98876.398       14194.298       4.3272500     -0.35225000      0.43775000       341.19000       1.8993303     0.010821499
       4616.0000       288.38429       98857.657       14266.294       4.6107500      -1.1612500      0.27800000       341.27300       1.9627637    0.0092811176
       4621.0000       288.41009       98850.265       14324.718       5.9867500      -1.2472500     -0.29425000       341.11700       1.9689003    0.0085843209
       4626.0000       288.50961       98836.873       14458.016       2.9267500     -0.29875000      0.57475000       341.23000       1.9614246     0.011432447
       4631.0000       288.52042       98837.631       14504.606       4.9827500      -1.5875000     -0.42200000       341.26100       1.9628085    0.0097263644
       4636.0000       288.45833       98851.795       14490.805       5.0025000      -1.2180000     -0.40575000       341.17100       1.8790236     0.017148899
       4642.0000       288.43430       98861.176       14491.340       4.7865000     -0.54975000     -0.25325000       341.01500       1.9809330    0.0097605402
       4647.0000       288.39635       98876.769       14465.002       3.5872500     -0.69100000      0.48925000       341.18900       1.8769393     0.010966676
       4652.0000       288.38482       98880.313       14454.893       3.6907500      0.17200000     -0.43825000       341.30300       1.8581496     0.014984931
       4657.0000       288.40010       98878.625       14447.458       2.5290000     -0.59525000      0.62350000       341.43300       1.8554220     0.010657565
       4662.0000       288.40017       98872.213       14439.525       2.2945000     -0.54175000     0.068250000       341.38900       1.9062115    0.0093347458
       4667.0000       288.40036       98855.637       14429.937       3.2380000      -1.7532500       1.2162500       341.36500       1.9503625    0.0096372806
       4672.0000       288.40054       98850.448       14428.690       2.8460000      -1.4355000     -0.38800000       341.14600       1.9597595    0.0091583534
       4677.0000       288.39962       98842.468       14426.663       3.8095000      -1.7652500     0.016000000       341.32100       1.9861694    0.0096412926
       4682.0000       288.39939       98844.932       14437.912       3.0332500     -0.20525000     -0.41350000       341.40000       1.9516423    0.0096738569
       4687.0000       288.41779       98859.019       14474.184       4.9467500      -1.1472500     0.025500000       341.10600       1.9927386    0.0097848856
       4692.0000       288.38037       98865.973       14467.560       4.9492500     -0.36975000     0.065250000       341.13200       1.9186771     0.010259837
       4697.0000       288.30749       98875.611       14451.840       3.5837500      -1.3245000     -0.11650000       341.22500       1.8659960     0.011876809
       4702.0000       288.26779       98879.852       14427.510       4.3635000     -0.60175000      0.24450000       341.41800       1.9067100     0.011098772
       4707.0000       288.19406       98884.382       14368.309       4.0875000     -0.22225000      0.16550000       341.37100       1.8781317     0.011523199
       4712.0000       288.17129       98878.190       14337.478       2.7360000    -0.020000000     -0.14200000       341.47000       1.8632941     0.011394760
       4717.0000       288.20955       98862.398       14329.145       3.7107500      0.76300000       1.1605000       341.34200       1.9722288     0.010036484
       4722.0000       288.19064       98854.383       14285.813       2.5710000      0.39175000      0.97425000       341.27300       1.9194680     0.011435213
       4728.0000       288.15036       98835.607       14220.631       5.8865000      0.53550000     -0.53725000       340.93700       2.0524684     0.010758071
       4733.0000       288.10018       98852.438       14134.387       5.1482500      0.15625000     0.015250000       340.98600       1.9163467    0.0097526727
       4738.0000       288.08714       98860.506       14085.819       5.3182500     -0.56125000    0.0010000000       341.07100       1.9211451    0.0099688849
       4743.0000       288.13038       98876.069       14067.906       6.1025000      0.28325000    -0.089500000       341.18800       1.8648474     0.011019308
       4748.0000       288.15031       98883.723       14053.954       5.8032500       2.1620000     0.063250010       340.93600       1.9585372    0.0090167437
       4753.0000       288.17030       98885.252       14053.988       6.2697500     -0.55275010     0.072750000       341.00600       1.9193549     0.011284210
       4758.0000       288.20708       98877.609       14077.716       3.1035000       1.1157500     -0.21850000       341.14500       1.9210777    0.0092741937
       4763.0000       288.21597       98869.193       14100.015       5.4132500      -1.7000000     -0.63350000       340.99400       2.0412147     0.011573951
       4768.0000       288.19410       98854.229       14120.938       3.7827500     -0.65325000     -0.38725000       341.16000       1.8550040     0.012300300
       4773.0000       288.24534       98844.662       14189.401       3.9667500      0.93050000     -0.19000000       341.12800       1.7816634     0.025239477
       4778.0000       288.25682       98841.908       14240.535       4.7692500    -0.074750010     -0.30400000       341.00600       1.9942671     0.012744708
       4783.0000       288.27023       98853.452       14307.720       5.2042500       1.1307500     -0.55525000       341.11200       1.9411833     0.011314147
       4788.0000       288.26248       98860.445       14352.080       3.6702500       1.0665000      0.21700000       341.20600       1.8001496     0.019900267
       4793.0000       288.18496       98871.895       14379.533       3.9532500     -0.55075000      0.69725000       341.18100       1.9021766     0.010255305
       4798.0000       288.14389       98877.296       14388.940       5.3772500     -0.37300000     -0.19000000       341.06100       1.9224406     0.012155487
       4803.0000       288.11511       98879.004       14381.976       5.6172500      0.33050000     -0.42250000       341.05200       1.9188561    0.0096323352
       4808.0000       288.09416       98878.326       14357.659       4.9865000      0.67625000      0.60650000       341.08700       1.8585658     0.011989039
       4813.0000       288.08559       98870.840       14330.386       5.1300000     0.068250000      0.21750000       340.96800       1.9508094     0.011725577
       4819.0000       288.09786       98853.121       14274.713       5.3552500     -0.76200000     -0.57750000       341.00900       1.9760429     0.010801839
       4824.0000       288.13449       98838.994       14266.456       4.9832500     -0.70325010    -0.017750000       340.91900       1.8998789     0.016107673
       4829.0000       288.15471       98836.631       14265.303       5.4690000      -1.0457500     0.048500000       341.07700       1.9796583     0.010713407
       4834.0000       288.20470       98849.165       14308.444       5.0057500      -1.0472500     -0.80750010       341.02700       1.9251800    0.0094060108
       4839.0000       288.21216       98856.249       14313.521       3.6922500     -0.70600000      0.19750000       341.23400       1.8800115     0.012997834
       4844.0000       288.16687       98870.789       14285.487       4.6185000     -0.60550000     -0.34575000       341.12700       1.8291758     0.019151130
       4849.0000       288.14685       98878.372       14281.936       3.1887500     0.079750000      0.12950000       341.17100       1.9333600     0.010446704
       4854.0000       288.10981       98883.334       14264.804       3.3582500     -0.42900000      0.31400000       341.22000       1.9309995     0.010750776
       4859.0000       288.09079       98881.708       14265.329       3.7100000      -1.6657500      0.13225000       341.14600       2.0120536     0.010397219
       4864.0000       288.09991       98869.868       14304.046       2.9257500     -0.51100000     -0.22875000       341.23900       1.8618994     0.025320552
       4869.0000       288.09991       98863.828       14324.096       3.7940000      -1.1965000     -0.21325000       341.07000       1.8938618     0.013914653
       4874.0000       288.10016       98850.390       14338.007       3.1000000     -0.95200000     -0.13475000       341.20300       1.8513956     0.018999985
       4879.0000       288.10012       98847.130       14350.502       3.5232500     -0.69000010     -0.30225000       341.26600       1.8990653     0.014694738
       4884.0000       288.10017       98855.718       14353.941       3.6422500     -0.51450000      0.12025000       341.21300       1.9138524     0.020992940
       4889.0000       288.10032       98860.853       14364.075       3.1045000      -1.0622500     0.073250000       341.19100       1.8041989     0.021324718
       4894.0000       288.09959       98871.638       14371.645       2.7750000     -0.76125000    -0.041500000       341.31900       1.8706045     0.015641364
       4899.0000       288.09932       98877.408       14386.934       1.9015000     -0.33225000      0.82275000       341.26800       1.9872748    0.0098427361
       4904.0000       288.11385       98880.781       14436.268       3.5270000      -1.3145000      0.37900000       341.22400       1.9407150     0.011749523
       4910.0000       288.09868       98881.484       14436.799       3.3377500      0.70275000     0.080500010       341.32100       1.9301836     0.012985842
       4915.0000       288.04864       98880.315       14401.483       3.8850000     -0.91350010      0.45975000       341.16700       1.6926509     0.033646336
       4920.0000       288.04210       98874.261       14388.288       3.3572500    0.0017500000     -0.39275000       341.16400       1.8389684     0.018647943
       4925.0000       288.04314       98858.176       14357.701       4.2330000      -1.0265000     -0.36575000       341.21900       1.8788862     0.015329613
       4930.0000       288.04690       98852.030       14330.432       3.6892500     0.090250010      0.53775000       341.18800       1.9563841     0.010164596
       4935.0000       288.10875       98841.425       14337.695       6.3065000       1.8415000      -1.2950000       340.92100       1.8278669     0.014973934
       4940.0000       288.11084       98842.783       14307.837       7.3477500      -2.9380000     -0.42075000       341.03500       1.9118726     0.011804682
       4945.0000       288.04924       98861.059       14207.079       5.1077500      -1.4392500      0.27500000       341.17900       1.9579828    0.0097862319
       4950.0000       288.04322       98868.662       14192.277       3.3132500     -0.28150000       1.3557500       341.10300       1.8254889     0.017757723
       4955.0000       288.05642       98878.678       14228.174       6.5345000      -3.0057500     -0.98400000       340.97700       1.9302858     0.013439196
       4960.0000       288.04657       98883.534       14234.427       3.9870000      0.29650000   -0.0082500000       341.15600       2.0071749     0.012542217
       4965.0000       288.05732       98881.627       14290.175       4.1247500     -0.63650000    -0.027750000       341.12300       1.9703541     0.011079786
       4970.0000       288.05353       98880.254       14300.276       3.3740000      -2.8280000      0.88150010       341.07300       1.9753286    0.0096486798
