MIRICO/SHELL project - Processed LDS file generated on
Fri Jul 21 03:19:33 2017
Time stamp for record start
05/12/2017  10:37: 2.0000
Nb of points in the record
         985
Beam position index
       3.0000000
Beam angle (degrees)
     -0.96000000
Open Path length (m)
       44.550000
****************** Temporal data record ************************
Elapsedtime_sec Temp_K Press_Pa Humidity_ppmv WindX_m/s WindY_m/s WindZ_m/s Speedofsound_m/s CH4vmr_ppmv CH4vmrerror_ppmv  
      0.00000000       287.65099       98809.029       15069.463       5.3020000      -1.2825000     -0.21950000       340.72900       1.9384056    0.0095169762
       6.0000077       287.65696       98801.897       15100.407       2.1067500      -3.4430000      0.45750000       340.59600       2.0169936     0.016811732
       11.000021       287.66754       98790.403       15137.625       4.6255000      -1.5937500      -1.0500000       340.61900       1.9953715     0.013189714
       15.999994       287.64508       98786.258       15119.308       5.1792500      -1.5382500     -0.50150000       340.50300       2.0594209     0.016377074
       21.000007       287.55847       98790.350       15031.280       4.8002500      -2.6187500    -0.085250010       340.58100       1.9747835     0.011600826
       26.000020       287.52509       98790.365       14978.975       5.3165000      -2.2840000     -0.30600000       340.74000       1.9150215     0.010041417
       30.999993       287.48927       98787.935       14887.446       3.6050000     -0.47725000      0.40050000       340.94800       1.9612504     0.010770941
       36.000006       287.49128       98791.091       14867.725       3.9120000      -1.5730000     -0.75225000       340.59200       2.0252878     0.015527721
       41.000019       287.56477       98797.570       14909.432       1.7710000     -0.38975000      0.17925000       340.78900       2.0406013     0.013932545
       45.999992       287.55220       98803.306       14902.037       1.9800000       1.4482500      0.57750000       340.96900       1.9161114     0.010024545
       51.000005       287.51526       98814.240       14913.376       2.4390000      0.16950000      0.25925000       340.91400       2.0234237     0.016368967
       56.000018       287.48923       98819.060       14906.616       3.3510000     -0.69400000     0.099250000       340.80400       2.0916335     0.023209036
       60.999991       287.40116       98820.212       14851.913       2.7397500     -0.30375000     -0.28625000       340.71600       1.9982819     0.014968266
       66.000004       287.37337       98821.608       14833.673       3.2777500     -0.27150000     0.079000000       340.72200       1.8012731     0.016246634
       71.000017       287.40002       98820.385       14846.020       2.9302500     -0.19400000     -0.21475000       340.72200       2.0099799     0.010912377
       75.999990       287.40002       98820.429       14837.199       4.0572500     -0.71275000     -0.21975000       340.77100       1.9670030     0.011293627
       81.000003       287.39985       98821.502       14826.085       5.3280000     -0.87825010     -0.53675000       340.72900       1.9616589     0.011498097
       86.000016       287.39990       98819.884       14806.104       3.6322500      0.43850000     -0.19875000       340.72700       1.9552942     0.012602562
       90.999989       287.40080       98818.433       14765.934       3.4055000     -0.91550000      0.65200000       340.78600       1.9158567     0.010603841
       96.999997       287.40122       98811.860       14756.717       2.4607500    0.0087500000      0.60600000       340.88300       2.0158196     0.016047722
       102.00001       287.40920       98801.396       14755.035       3.5890000     -0.72950010     -0.10650000       340.74100       2.0299694     0.013181173
       106.99998       287.39060       98794.383       14759.531       2.7117500     0.089000000     -0.10125000       340.83700       1.9596442     0.012465271
       112.00000       287.36269       98784.336       14803.771       2.0807500     -0.32800000      0.26200000       340.73100       1.9705173     0.010995331
       117.00001       287.32416       98782.067       14782.899       1.5345000     -0.35675000     0.026000000       340.89600       1.8942593     0.012311045
       122.00002       287.25088       98781.962       14729.659       3.9072500     -0.33775000      0.35125000       340.72500       1.9776360     0.012582050
       127.00000       287.21946       98788.368       14687.280       4.1307500     -0.90025000     -0.35725000       340.58200       1.9182114     0.011663669
       132.00001       287.18827       98802.191       14604.703       2.7752500     -0.21625000      0.13350000       340.68200       1.9664872     0.011168531
       137.00002       287.19629       98813.167       14579.036       2.8072500     -0.32850000     -0.68000000       340.74400       1.9715488     0.010997925
       141.99999       287.25463       98830.286       14590.190       5.0717500      0.38625000      0.20500000       340.53500       1.9163945     0.010783453
       147.00001       287.25585       98837.796       14569.149       4.7515000      -1.2585000     -0.58325000       340.55600       1.9328382    0.0099021297
       152.00002       287.25663       98842.634       14550.482       4.2532500     -0.83600000     -0.24250000       340.67000       1.8537038     0.012631648
       156.99999       287.24811       98841.193       14541.119       4.0817500     -0.64525000     -0.37150000       340.66600       1.9441809     0.011567417
       162.00001       287.19703       98831.013       14512.829       3.0675000     -0.98775010     -0.10225000       340.63300       2.0251936     0.015553140
       167.00002       287.18580       98827.030       14515.523       3.1942500     -0.20375000    -0.064750000       340.73300       2.0672332     0.022106730
       171.99999       287.20899       98820.747       14566.081       2.8532500      -1.1525000      0.39800000       340.75100       2.0624470     0.017562187
       177.00001       287.18979       98816.658       14552.365       3.3082500     -0.59950000      0.66925000       340.76600       1.9901164     0.014770151
       183.00001       287.15028       98816.289       14510.906       4.1272500      -2.5145000      0.25900000       340.65100       2.0661172     0.019050793
       187.99999       287.08514       98807.094       14440.336       3.6815000      -1.5020000      0.18375000       340.51900       2.0561050     0.021823587
       193.00000       287.08097       98800.039       14421.212       3.8640000     -0.32825000      0.50650000       340.54100       2.0009060     0.011491699
       198.00001       287.16081       98784.212       14471.738       4.1517500     -0.47875000      0.23050000       340.63600       1.9473825     0.012050931
       202.99999       287.20048       98781.551       14493.218       4.2970000      -1.6867500      -1.0367500       340.62100       1.9981301     0.014403977
       208.00000       287.26992       98793.813       14530.396       2.3877500     -0.80675010     -0.67775010       340.70000       1.9912614     0.010022369
       213.00001       287.31210       98799.637       14558.571       3.7637500     -0.73950000     -0.10100000       340.62000       1.8411809    0.0094258473
       217.99998       287.32965       98806.670       14575.422       4.3977500     -0.70325010     -0.15550000       340.55200       1.9898635     0.014201756
       223.00000       287.29377       98821.497       14557.172       4.6480000     -0.31475000     -0.33825000       340.46200       1.9850427     0.011954310
       228.00001       287.31541       98829.230       14594.404       5.6845000      -3.2657500     -0.59675000       340.41200       1.9285422     0.010704569
       232.99998       287.35599       98830.153       14660.339       3.4745000      -1.3265000     0.062000000       340.53900       1.9425464     0.014726227
       238.00000       287.35436       98840.166       14686.518       3.4407500      -1.4912500     -0.18700000       340.49100       1.8253753     0.021050830
       243.00001       287.35558       98842.738       14711.381       3.6072500      -1.0615000     -0.11050000       340.49000       1.9693362     0.010534177
       247.99998       287.29969       98835.915       14687.262       3.3907500      -1.6090000      0.33050000       340.53800       1.9566724    0.0082731608
       253.00000       287.28720       98831.136       14691.713       2.8565000      -1.0920000    -0.048000000       340.61400       2.0859427     0.016826383
       258.00001       287.29929       98825.121       14711.843       3.1162500    -0.093500000      0.26100000       340.56700       2.0217958     0.012254749
       263.00002       287.34922       98815.365       14760.629       3.3872500      -1.2472500    -0.083500010       340.53700       1.9200411     0.011007953
       267.99999       287.36947       98807.296       14780.977       2.7662500      -1.1450000    -0.031250000       340.61100       1.9951026     0.012602393
       274.00000       287.40806       98798.429       14809.926       2.9172500     -0.52125000      0.65000000       340.70500       1.9990840     0.013006802
       279.00002       287.38573       98785.112       14759.325       3.8497500      -1.5382500     -0.13975000       340.48200       1.9658800     0.011364151
       283.99999       287.39678       98786.910       14761.770       4.1927500      -1.1420000     -0.12175000       340.57500       2.0164891     0.015589353
       289.00000       287.43437       98814.567       14781.614       4.3165000      -1.2512500     -0.22675000       340.45500       1.9951417     0.015426125
       294.00001       287.45413       98818.837       14803.482       4.1020000     -0.51175000      0.54050000       340.58300       2.1398838     0.025199291
       298.99999       287.49027       98815.542       14855.901       2.4895000      -2.4862500      0.21625000       340.65000       1.9191418    0.0087200688
       304.00000       287.50897       98817.183       14914.422       3.7222500      -1.2817500     -0.27575000       340.58300       2.0252303     0.017249061
       309.00001       287.52979       98800.198       15007.155       4.8827500     -0.33150000     -0.18250000       340.66700       2.0475480     0.014703160
       313.99999       287.50726       98795.924       15042.372       2.2500000      -1.6605000    -0.051750000       340.80000       1.9733800     0.013183032
       319.00000       287.43244       98815.701       15080.003       2.6225000      -2.2077500     -0.96450010       340.82300       1.9497267     0.011951895
       324.00001       287.39236       98818.049       15076.857       2.8160000      -1.5165000      0.14000000       340.67800       2.0162305     0.013725923
       328.99999       287.30528       98808.816       14982.732       5.5932500      -1.3300000      0.20600000       340.60900       1.9898278     0.012448173
       334.00000       287.27823       98804.638       14925.152       3.3820000      -1.8922500     -0.24475000       340.68900       2.0583768     0.014775551
       339.00001       287.33398       98793.179       14868.789       3.1180000      0.19025000     -0.18575000       340.81100       1.7270114     0.018113225
       343.99998       287.35362       98787.581       14817.472       3.5135000     -0.53950000     0.068750000       340.79500       2.0110460     0.012163867
       349.00000       287.36118       98785.904       14736.372       3.6895000      -1.4117500    0.0052500000       340.66300       2.0085206     0.011277226
       354.00001       287.40263       98789.300       14726.426       3.6372500     0.063500000     -0.17275000       340.61100       2.0220964     0.016059306
       358.99998       287.46842       98797.661       14769.090       2.9012500     -0.59575000      0.43150000       340.99600       2.0362575     0.012910554
       364.99999       287.51679       98807.957       14813.620       3.6565000     -0.89675000      0.20600000       340.74500       1.9792902     0.010329251
       370.00000       287.60362       98829.227       14929.899       2.9270000     -0.53700000      0.74975000       340.73600       1.9774506     0.012571795
       375.00002       287.62273       98835.417       14981.882       3.4125000      0.93075010     -0.42300000       340.75200       2.0388384     0.014270325
       379.99999       287.56185       98832.859       14970.155       4.2527500     -0.59875010      0.17500000       340.45300       2.0561607     0.013991837
       385.00000       287.54201       98830.680       15006.171       3.5472500     -0.70025000     0.035750000       340.75700       2.0150325     0.015073837
       390.00002       287.50535       98820.152       15052.266       3.9342500      0.24725000     -0.45075000       340.55800       1.8210491     0.011490564
       394.99999       287.48922       98812.211       15089.165       2.0307500      0.54425000      0.56700000       341.01900       2.0146018     0.017077036
       400.00000       287.51311       98803.239       15188.546       2.7440000     -0.13250000      0.54450010       341.03100       1.9693050     0.011304021
       405.00002       287.49896       98797.535       15190.442       3.3330000     -0.10125000      0.37525000       340.97200       2.1441021     0.028627256
       409.99999       287.44976       98787.616       15111.355       3.8760000     -0.77150010      0.11350000       340.70000       1.8470726     0.014129439
       415.00000       287.44371       98788.539       15068.131       2.8800000      0.59475000      0.45850000       340.84400       1.9375297     0.013508798
       420.00002       287.41765       98799.437       14952.776       2.3977500     -0.61025010      0.43775000       340.87800       1.9599448     0.012507821
       424.99999       287.44824       98808.222       14923.016       1.8982500    -0.042000000      0.22350000       340.92100       2.0307699     0.016351800
       430.00000       287.57094       98826.365       14961.951       2.2125000      -1.0222500     -0.14150000       340.94600       1.9685299     0.011603258
       435.00001       287.62651       98835.159       14987.798       2.8752500     -0.13375000     -0.16700000       341.30400       1.9818881     0.013164683
       439.99999       287.70368       98843.298       15068.320       3.2817500     -0.84350000    -0.036000000       340.89400       1.9408613     0.010592563
       445.00000       287.72182       98842.298       15099.523       1.9917500     -0.81800000      0.74400000       341.17900       1.9343574    0.0084122777
       450.00001       287.64962       98831.570       15093.099       3.1612500     0.043000000      0.46875000       341.30000       2.0228059     0.023148462
       456.00002       287.64404       98820.794       15127.677       1.8360000    -0.072500010      0.53500000       341.40500       1.9832386     0.015510109
       460.99999       287.63186       98801.829       15136.579       1.8387500      0.17550000     -0.20450000       341.24900       2.0463255     0.014444202
       466.00001       287.65414       98793.692       15190.395       2.6127500     0.016500000     0.064500000       341.24600       1.9699198     0.010524618
       471.00002       287.74170       98787.227       15310.632       3.5940000      0.42850000     0.088000010       340.74000       2.0242906     0.018127223
       475.99999       287.77508       98789.430       15371.416       3.6197500     -0.18075000     0.039750000       340.76500       1.9872660     0.016465064
       481.00001       287.77628       98800.561       15427.031       3.0957500      0.13175000     -0.54650000       340.68500       1.8808586     0.011667014
       486.00002       287.82205       98809.702       15468.501       1.9912500      0.56025000     0.024750000       341.01700       1.8940382     0.011808977
       490.99999       287.88216       98828.222       15473.523       2.4150000     0.062750000     0.068750000       341.46600       2.0361820     0.012717463
       496.00001       287.92235       98836.298       15495.340       3.6372500      -1.9017500      0.52825000       340.77100       2.0822166     0.022679050
       501.00002       288.00874       98842.230       15537.903       2.8105000      -1.3795000      0.50075000       341.12700       2.0530346     0.011581136
       505.99999       288.02048       98841.741       15537.357       3.0975000      -1.3577500      0.23350000       340.91400       2.0556029     0.019367188
       511.00000       287.96888       98835.075       15517.089       3.5760000     -0.62825000     0.014250000       341.28200       1.9819480     0.013628468
       516.00002       287.93280       98826.203       15486.774       3.7315000      0.22575000     -0.12200000       340.87300       1.9978070     0.010711742
       520.99999       287.84741       98807.713       15414.220       3.3152500     -0.18550000   -0.0022500000       341.13700       1.9644897     0.011918516
       526.00000       287.82994       98799.021       15375.475       2.5035000     -0.48050000     -0.78550000       340.94800       1.9303493     0.010464752
       531.00002       287.86549       98788.045       15366.355       2.6337500     -0.68450000     -0.59050010       341.17100       2.0743514     0.021971670
       535.99999       287.83927       98787.247       15306.259       2.2237500      0.73475000      0.11200000       341.24700       1.9554811     0.012229782
       541.00000       287.79287       98795.323       15197.090       2.4427500     -0.73125000     -0.56225000       341.11700       1.9991139     0.020047938
       547.00001       287.80232       98806.472       15168.004       3.8477500      0.13625000    -0.071250010       340.98000       1.9439099     0.013209946
       551.99998       287.76000       98826.687       15124.409       3.1062500      0.52675000     0.072500010       340.70100       2.0865727     0.020377430
       557.00000       287.83343       98831.178       15169.500       2.7997500      0.48500000    -0.048750000       341.09300       1.9316703     0.010221397
       562.00001       288.02714       98834.789       15319.775       3.5605000    -0.069250000     0.064750000       341.04700       2.0019787     0.011136766
       567.00002       288.14612       98828.588       15425.528       1.6857500      -1.1285000      0.24475000       341.53300       1.8222996     0.012009053
       572.00000       288.31867       98805.852       15548.207       3.4105000     -0.14825000      0.37250000       340.89600       1.9746360     0.012140524
       577.00001       288.35533       98797.635       15667.092       3.6527500      0.28850000     -0.27300000       340.85100       2.0453985     0.016611479
       582.00002       288.30612       98789.346       15797.908       3.8192500     -0.49925000     -0.28825000       340.79100       1.9956514     0.013655658
       586.99999       288.30682       98785.993       15907.654       3.6242500      0.21150000     -0.13650000       340.56800       2.0827051     0.020171190
       592.00001       288.25868       98787.712       16052.146       2.9817500      0.25350000    -0.044000000       341.49800       2.0389332     0.015804804
       597.00002       288.21853       98793.425       16061.111       5.0247500      0.98675010      0.28425000       340.59800       2.0050560     0.012040350
       601.99999       288.21930       98802.388       16007.962       3.7272500      0.85450010     -0.34750000       341.00100       1.9654368     0.018007484
       607.00001       288.17242       98812.062       15931.343       3.4747500     0.085000000     0.094750000       341.16100       2.6207715     0.012476848
       612.00002       288.04780       98832.247       15741.436       3.1360000      0.93375000     -0.20150000       341.26600       3.4791589     0.011720514
       616.99999       288.00544       98835.856       15632.346       4.4102500     -0.76100000      0.53400000       340.87200       2.6494789     0.017578080
       622.00001       288.00652       98834.873       15549.967       3.6050000      0.61550000     -0.67075000       340.75500       2.5502199     0.014779889
       627.00002       287.97652       98827.407       15439.747       3.7100000    -0.044500000     -0.50750010       341.04500       2.1413397     0.010780472
       631.99999       287.95445       98805.976       15318.298       3.5477500      0.36700000     -0.19825000       340.70600       2.7114234     0.015242354
       638.00000       287.87031       98790.231       15153.712       2.5817500    -0.020000000      0.59100000       341.32100       2.7057103     0.011362940
       643.00001       287.87468       98786.350       15079.948       3.2140000     -0.46875000      0.17425000       341.21100       2.8506890     0.019628127
       647.99999       287.97610       98796.571       15054.504       3.1662500      0.54025000     -0.19775000       341.13800       3.0933433     0.012133248
       653.00000       288.04449       98804.372       15062.043       5.3317500     0.054500000     -0.50275000       340.95600       3.0555715     0.012812769
       658.00001       288.20011       98824.838       15144.126       5.0280000      0.16600000     -0.15825000       340.28400       2.4488417     0.017878396
       662.99998       288.27480       98833.417       15224.390       3.6545000      0.24725000     0.040500000       340.96700       2.1377627     0.016350737
       668.00000       288.30032       98835.845       15321.022       4.9650000     -0.20775000     -0.10775000       340.56700       2.4319524     0.023965625
       673.00001       288.25071       98832.509       15429.139       4.2770000      0.44850000     -0.83500000       341.24300       2.3220275     0.016278210
       677.99998       288.26066       98828.095       15587.665       5.4275000      0.47275000      0.35025000       341.48100       2.6861665     0.021529969
       683.00000       288.23812       98815.361       15786.912       4.7977500      0.61950000     -0.16800000       340.35400       2.5625896     0.011169255
       688.00001       288.38968       98802.650       16043.394       3.5065000      0.59075000     0.082750010       340.82500       2.5806928     0.019775668
       692.99998       288.38885       98798.105       16127.333       2.6812500      0.16525000      0.17475000       341.86200       2.4862603     0.013369491
       698.00000       288.26448       98794.932       16036.910       3.1575000     -0.49750000     -0.15650000       341.39600       3.7233061     0.011461378
       703.00001       288.16873       98797.364       15937.190       4.1032500      0.98100010    -0.070000000       341.43200       3.1528244     0.011404449
       708.00002       288.03605       98805.949       15772.687       3.2210000     -0.63275000     -0.12825000       340.81600       3.0460671     0.016450570
       713.00000       287.76398       98827.744       15470.136       2.8017500     -0.21725000      0.22650000       341.77400       2.3070606     0.012413279
       718.00001       287.70249       98831.258       15300.082       3.6632500     -0.73425000     -0.64075010       340.84400       2.1117953     0.013561257
       724.00002       287.73645       98832.456       15119.065       3.4597500      0.91750000     -0.16450000       341.31600       2.3606067     0.018020475
       728.99999       287.80439       98821.452       15007.833       4.5852500      0.66175000     -0.31750000       340.73100       2.7195918     0.016820180
       734.00000       287.81205       98813.365       14902.763       4.1690000     -0.49100000    -0.040750000       340.87000       2.3560980     0.013287930
       739.00001       287.73735       98801.520       14790.695       2.8272500     -0.77350000      0.16550000       341.41400       2.7160218     0.011710796
       743.99999       287.74004       98797.962       14729.544       4.0580000      -1.0185000     0.088250000       341.50200       2.2250227     0.013306984
       749.00000       287.74924       98794.922       14692.871       2.4907500      -1.3730000      0.52175000       341.26500       2.0656180     0.013546618
       754.00001       287.79233       98798.535       14692.730       1.9880000      0.64425000     -0.45950000       341.68500       2.0582769     0.013697964
       758.99999       287.94695       98821.293       14751.294       3.4140000      -2.6290000      0.50875000       341.28700       2.0749540     0.022073557
       764.00000       288.02439       98828.802       14813.640       3.6622500     -0.84200010     -0.25175000       340.29100       1.9521068     0.016750068
       769.00001       288.07946       98834.633       14893.677       3.9520000      -2.0022500    -0.084750000       341.19200       2.0205759     0.014610457
       773.99999       288.11743       98832.893       14999.536       3.9765000     -0.52525000     -0.20675000       340.49700       2.0113019     0.012349450
       779.00000       288.08583       98811.801       15154.574       3.5962500     -0.22250000      0.28375000       340.73500       2.0336881     0.014219377
       784.00001       288.09693       98801.936       15276.528       3.1947500      -1.5722500     -0.47425000       341.27600       2.0466801     0.015399050
       788.99999       288.11996       98788.989       15428.764       2.6142500      -2.2260000      0.55400000       341.41100       2.0523760     0.018107837
       794.00000       288.15101       98786.796       15530.139       3.2267500     -0.43275000      0.62025000       341.57000       2.1613326     0.024345989
       799.00001       288.22409       98797.357       15581.732       3.6647500      -1.1790000      0.21200000       341.22600       1.9127158     0.011571435
       803.99998       288.26279       98805.655       15630.126       2.8255000     -0.64450000    0.0097500000       341.62600       2.0790488     0.020928027
       809.00000       288.30405       98826.690       15662.688       4.2807500     -0.82200000      0.11625000       341.17600       2.0835859     0.013060054
       815.00001       288.31004       98834.714       15668.583       2.9605000     -0.91025010     -0.29150000       341.47000       2.1610450     0.015089989
       820.00002       288.27449       98832.737       15666.005       3.3655000      -1.6860000     -0.13600000       340.92500       1.9885535     0.011187730
       824.99999       288.24092       98830.584       15620.768       4.7045000      -1.7067500    -0.092250000       341.28100       1.8901295     0.013035287
       830.00000       288.16682       98820.025       15512.180       3.5812500     -0.12125000     -0.80300000       340.95600       2.0002666     0.014336762
       835.00002       288.13105       98812.084       15435.399       2.1815000     -0.11100000     -0.46650000       341.10600       2.0690630     0.013930301
       839.99999       288.11808       98799.253       15341.712       2.0797500     -0.41000000      0.60125010       341.72200       2.0047378     0.015679664
       845.00000       288.08833       98797.707       15257.803       4.8427500     -0.35650000      0.15675000       341.61200       1.9389680     0.020078268
       850.00002       288.04935       98799.490       15162.985       4.5730000      0.17550000    -0.081750010       341.06400       2.0497261     0.018844800
       854.99999       288.04323       98804.959       15119.432       5.0525000      0.73000000      0.44375000       341.00400       1.9627505     0.011578847
       860.00000       288.04344       98828.854       15089.931       4.2330000      0.19950000      0.29875000       340.71600       2.0151977     0.013951864
       865.00002       288.04711       98835.042       15084.774       4.7907500     -0.15975000     -0.85850010       340.85100       2.0487050     0.012836128
       869.99999       288.09472       98835.597       15141.404       3.6902500      -1.4875000      0.35975000       341.11700       1.9744981     0.010841733
       875.00000       288.11099       98830.866       15178.059       3.3757500     -0.88675000      0.28125000       341.55500       1.9608326     0.011709795
       880.00001       288.04851       98807.371       15183.400       4.6572500      -2.3827500      0.43750000       340.95900       2.0045496     0.011918008
       884.99999       288.10334       98800.988       15255.455       4.8275000     -0.93050000     0.031000000       340.96000       1.9017880     0.010379133
       890.00000       288.23543       98799.232       15357.946       3.9637500      -1.2287500      0.12475000       340.70100       2.0397236     0.012221550
       895.00001       288.32963       98798.431       15485.573       5.1612500      -1.3790000    -0.015500000       340.72700       2.0916051     0.017523037
       899.99999       288.52898       98807.878       15698.824       3.5482500     -0.60225000     -0.27175000       340.56200       2.0334491     0.012006512
       905.99999       288.60692       98813.325       15878.812       3.2115000      -1.0062500   -0.0035000000       341.08000       1.9211693     0.010930572
       911.00001       288.56804       98815.599       16052.967       3.3520000     -0.94025000     -0.30050000       341.30900       2.1012785     0.016727041
       916.00002       288.54581       98815.950       16124.915       3.3600000      -1.3835000     -0.60200010       341.08100       2.0007598     0.012807374
       920.99999       288.46940       98819.511       16143.544       3.2970000     0.021750000     -0.43650000       340.98700       2.0673449     0.017481462
       926.00001       288.41970       98814.069       16107.458       4.1580000      -1.8540000     -0.19050000       340.49700       2.0160906     0.012542219
       931.00002       288.35928       98794.438       15963.728       3.5407500      -2.0330000     0.086500000       340.49400       2.0958051     0.016115153
       935.99999       288.32588       98791.949       15874.084       3.3180000     -0.65525000      0.34350000       340.93300       1.9369050     0.013168874
       941.00001       288.30069       98789.517       15741.758       2.9420000      -1.4697500      0.63900010       341.10200       1.9342311     0.011296757
       946.00002       288.28698       98796.420       15666.689       3.4680000     -0.62450000     -0.48700000       341.04000       2.1467500     0.018246782
       950.99999       288.31118       98824.800       15641.465       2.7360000     -0.75750010     -0.36450000       341.10300       2.1342929     0.017565535
       956.00000       288.29488       98831.747       15581.132       1.2962500      0.81800000     -0.58350000       341.42900       1.9755516     0.012208735
       961.00002       288.29090       98834.901       15541.770       3.1912500     -0.37625000    -0.010250000       341.06600       2.4931990     0.015989980
       965.99999       288.22267       98830.232       15460.154       4.0852500     -0.62550000      0.16825000       340.70500       3.0941964     0.010537938
       971.00000       288.07437       98807.851       15333.357       4.2475000       1.1485000     -0.11125000       341.18500       3.6743314     0.013347563
       976.00002       288.00108       98799.175       15236.657       3.9035000     -0.68175010      0.18450000       340.66000       3.6484896     0.017833638
       980.99999       287.89012       98784.777       15110.294       3.3305000    -0.021750000     -0.44625000       341.00500       2.6984789     0.027901373
       986.00000       287.86577       98788.967       15046.614       2.8705000      0.80800000    -0.051250000       341.17400       2.5968134     0.012365067
       991.00002       287.95304       98813.570       15026.366       3.6657500     -0.34525000     -0.33425000       340.85000       2.6925538     0.016664272
       996.99998       287.95602       98821.415       14990.576       4.4880000     -0.28675000     -0.21200000       340.92600       2.5241234     0.013103341
       1002.0000       287.96589       98835.294       14986.390       3.0860000     -0.88550000     -0.16775000       341.43500       2.1507696     0.014771881
       1007.0000       287.93855       98831.337       14986.800       3.8027500     -0.30650000     -0.28275000       340.80300       2.0964905     0.013120462
       1012.0000       287.84176       98805.701       14980.067       2.9220000     -0.40575000    -0.069000010       341.39100       2.0612863     0.011094026
       1017.0000       287.82939       98797.524       15000.898       2.0172500      0.67450000      0.15725000       341.60000       2.1974293     0.011389122
       1022.0000       287.85236       98786.769       15070.184       3.0365000      0.15675000     -0.20750000       340.99700       2.1809341     0.012394762
       1027.0000       287.84252       98788.941       15077.615       3.3355000     -0.81025000     -0.11475000       340.86100       2.1889596     0.018183100
       1032.0000       287.85812       98803.676       15071.495       2.8842500     -0.88125000     -0.17700000       341.23900       2.0001580     0.010156938
       1037.0000       287.84907       98809.656       15056.590       3.8240000      -2.7087500    -0.089750010       340.91500       1.9737861     0.010597457
       1042.0000       287.78898       98821.852       14993.361       1.6735000      -2.3047500      0.78175000       341.38400       2.0769354     0.014082799
       1047.0000       287.79656       98823.386       14992.318       2.8500000     -0.67450000      0.18650000       341.40100       2.0372113     0.016285874
       1052.0000       287.85614       98818.223       15023.638       3.0542500      -2.4010000     -0.31900000       341.16100       1.9846459     0.012244689
       1057.0000       287.85781       98810.635       15031.957       3.7455000     -0.89200000    -0.068250000       341.24700       1.9515783     0.011458748
       1062.0000       287.86624       98792.520       15072.001       3.5385000     -0.92250000      0.35275000       341.29900       1.9745427     0.011526106
       1067.0000       287.83909       98792.835       15047.336       3.8310000     -0.43325000    -0.096750010       341.30200       2.0598414     0.013776873
       1072.0000       287.75165       98795.518       14986.839       2.8742500      0.31450000      0.69875000       341.57900       2.7757781     0.016015681
       1077.0000       287.72036       98804.058       14919.037       3.8535000      0.58050000     -0.11925000       340.91900       2.3341641     0.011319108
       1082.0000       287.69749       98832.354       14812.491       3.0490000      -1.1392500     -0.40700000       341.14500       2.3703396     0.017443809
       1088.0000       287.68530       98835.633       14684.971       2.6335000     -0.40450000     -0.33325000       341.13100       2.2247203     0.013381211
       1093.0000       287.69394       98833.277       14625.669       2.0280000      0.23575000      0.89175000       341.38600       2.5437745     0.011792871
       1098.0000       287.71532       98809.693       14580.274       3.9987500     -0.47450000    -0.038250000       341.21700       3.2509696     0.012255744
       1103.0000       287.74401       98802.278       14585.206       3.6817500     -0.48675000      0.47150000       340.93400       3.8691504     0.017821033
       1108.0000       287.83022       98800.784       14675.937       2.7310000       1.1847500     -0.21250000       341.24200       4.0668454     0.016528331
       1113.0000       287.86267       98802.124       14749.867       3.5162500      0.11550000      0.36825000       341.34500       4.3307519     0.028159427
       1118.0000       287.87050       98809.603       14835.717       3.0527500      0.82150010       1.0587500       341.72100       4.6193172     0.015061584
       1123.0000       287.86381       98833.117       14970.970       3.3505000      -1.4682500      0.68175010       341.24000       3.4111405     0.011566356
       1128.0000       287.83072       98835.417       15006.862       4.1642500     -0.32875000      0.48625000       341.04000       2.4627065     0.012861796
       1133.0000       287.74430       98833.201       15007.023       3.6777500      -2.2312500      0.57075000       340.98300       2.0924190     0.013966734
       1138.0000       287.70034       98811.219       14950.798       5.3045000      0.28975000      0.10050000       341.03900       2.0536058     0.012881489
       1143.0000       287.68726       98802.549       14918.753       4.6072500      -1.3615000      0.60000000       340.84900       2.0157755    0.0093624862
       1148.0000       287.73030       98796.226       14910.863       4.2502500     -0.23075000     -0.59100000       340.95800       2.3231398     0.030557743
       1153.0000       287.75020       98796.505       14881.059       3.4027500     -0.53500000     0.034250000       341.10800       2.0301988     0.011805529
       1158.0000       287.77011       98804.171       14843.621       3.3102500     -0.68200000    -0.096750010       341.19900       2.0671571     0.015874005
       1163.0000       287.80634       98828.224       14803.948       2.8322500     -0.46450000      0.45650000       341.14900       2.1093082     0.013418817
       1168.0000       287.81492       98829.516       14762.015       4.4125000      0.19775000     -0.21525000       340.97900       2.2415757     0.015271710
       1173.0000       287.79505       98828.443       14688.296       2.5237500      -1.5572500      0.33850000       341.49900       2.4208673     0.026385614
       1179.0000       287.84865       98801.856       14741.550       4.2115000     -0.89000000      0.24175000       341.18500       2.0550235     0.012019858
       1184.0000       287.85770       98795.438       14759.908       2.9310000     -0.61925010      0.15100000       341.47900       2.0822558     0.022079246
       1189.0000       287.84209       98799.743       14784.286       3.6850000      -1.4130000     -0.28800000       340.95500       2.0293264     0.010910596
       1194.0000       287.85189       98804.285       14833.598       3.6160000     -0.95375010      0.21175000       341.05600       2.0009366    0.0098993206
       1199.0000       287.84363       98827.083       14883.358       2.6447500      0.14075000      0.89750000       341.22200       1.9495094     0.010531820
       1204.0000       287.84472       98834.492       14922.431       3.5130000      -1.0682500      0.62175010       341.03900       1.7831715     0.015956983
       1209.0000       287.87539       98836.069       15004.559       5.3655000     -0.55600010     -0.37225000       340.80900       1.9850252     0.011452318
       1214.0000       287.90531       98832.383       15055.020       3.8435000     -0.84100000     -0.20600000       341.00100       2.1181046     0.018922704
       1219.0000       287.92000       98805.240       15064.402       5.1957500      -2.1922500     -0.63400000       340.82400       2.0596011     0.014110273
       1224.0000       287.95156       98801.130       15077.045       4.2567500      -1.1547500     -0.37350000       340.72000       1.9416838     0.012005189
       1229.0000       287.99688       98810.416       15052.756       2.6935000      -1.0042500     -0.15725000       340.98000       2.1158593     0.018290597
       1234.0000       288.05831       98814.767       15087.046       3.3387500     -0.28950000     0.087500010       340.63700       2.0721742     0.012293357
       1239.0000       288.15870       98839.998       15156.672       3.7972500     -0.42500000    -0.093750010       340.78300       2.0376994     0.016814625
       1244.0000       288.21685       98846.005       15214.182       3.4780000     -0.90200010      0.50175010       341.12200       2.0225344     0.013933225
       1249.0000       288.25196       98833.388       15312.797       3.3437500     -0.60950010      0.32775000       341.05500       2.1660716     0.021991823
       1254.0000       288.31223       98825.170       15402.507       3.1820000     -0.87975000      0.30400000       340.93200       2.0679253     0.017899810
       1259.0000       288.38201       98799.662       15472.225       3.0335000    -0.030500000    0.0077500000       340.97300       2.1091548     0.016348580
       1265.0000       288.41482       98796.238       15560.860       2.9100000     -0.12300000      0.40450000       341.02900       2.2898755     0.016710605
       1270.0000       288.45199       98813.149       15676.966       3.5572500     -0.17475000     -0.23800000       340.97300       2.2334148     0.011771684
       1275.0000       288.46487       98817.171       15734.551       4.0895000      0.33500000      0.44675000       341.15700       2.5814967     0.015695996
       1280.0000       288.43040       98834.300       15775.341       2.7722500      0.18825000     0.034250000       341.21300       2.5504730     0.020701399
       1285.0000       288.38684       98834.271       15764.603       2.2322500       1.1030000      0.57500000       341.39300       3.8004167     0.014570064
       1290.0000       288.32419       98807.195       15676.165       3.6625000     -0.29050000     -0.23775000       341.21300       3.6042899     0.020768812
       1295.0000       288.28445       98800.672       15628.786       3.4772500     -0.98950000      0.13650000       341.06100       3.4493957     0.013944682
       1300.0000       288.21008       98795.261       15557.227       3.1870000    -0.066500000     -0.34175000       341.30400       3.2478411     0.013799538
       1305.0000       288.17779       98798.658       15501.894       3.3350000      0.37500000     -0.23500000       341.18000       3.0665775     0.011588445
       1310.0000       288.21295       98823.099       15512.096       4.9690000     -0.29850000    -0.090500000       341.03400       2.7113938     0.013226292
       1315.0000       288.19921       98829.636       15435.229       4.5815000      0.39325000      0.14700000       340.96300       2.3810688     0.013681500
       1320.0000       288.14834       98834.862       15267.553       4.1367500     -0.39175000    -0.022750000       341.09900       2.1797061     0.020940658
       1325.0000       288.14164       98831.679       15179.219       4.1735000     -0.23950000      0.62750010       341.33300       2.0514420     0.016429112
       1330.0000       288.11727       98807.259       15041.079       3.4730000     -0.54875000      0.21825000       341.16900       1.9573557     0.014291938
       1335.0000       288.14844       98800.816       15011.485       3.2637500      0.14100000     -0.82825010       340.81500       1.9949086     0.010195893
       1340.0000       288.25690       98797.998       15085.232       2.7312500      0.82300000      0.16300000       341.13000       2.0771458     0.017032253
       1345.0000       288.32730       98798.603       15159.907       2.4780000      -1.7405000    -0.068000000       341.34400       2.4965627     0.017853015
       1350.0000       288.43985       98814.341       15314.913       2.1035000      -1.6825000   0.00025000000       341.18600       2.5787163     0.013856498
       1356.0000       288.48177       98818.612       15435.283       2.8370000      -2.2440000   -0.0017500000       341.13500       2.4086391     0.016610616
       1361.0000       288.44548       98818.116       15543.321       2.6162500      -1.6092500      0.16725000       341.70000       2.0868003     0.015953532
       1366.0000       288.45541       98814.225       15617.422       3.1477500      -1.8322500     0.048750000       341.77400       2.0194490     0.012444878
       1371.0000       288.44318       98796.399       15664.758       3.1947500      -1.6300000     -0.35850000       341.69800       2.0586585     0.014130786
       1376.0000       288.44967       98799.214       15688.027       1.7087500      -1.5735000      0.28800000       342.36500       2.0301454     0.012892517
       1381.0000       288.52179       98813.771       15706.359       3.0080000      -1.5272500     -0.56175010       341.00900       1.9725693     0.010893340
       1386.0000       288.50354       98817.785       15670.780       1.8382500     -0.89275000      0.16550000       342.60000       2.0406458     0.014433874
       1391.0000       288.41801       98835.354       15573.086       2.6692500      0.14775000      0.49900000       342.57400       2.0454308     0.013713383
       1396.0000       288.37783       98833.307       15497.901       1.4457500     -0.11425000    -0.069750000       342.48100       2.6357040     0.015695328
       1401.0000       288.26984       98804.561       15377.826       3.6675000     0.046000000     -0.22075000       342.07000       3.1832631     0.014323583
       1406.0000       288.29126       98800.663       15312.942       4.4400000      0.14975000     -0.35750000       340.88600       3.2017537     0.015535689
       1411.0000       288.42813       98800.964       15273.711       4.4800000     -0.67275010     -0.22950000       340.95500       2.3565537     0.018481354
       1416.0000       288.48830       98805.995       15237.495       4.0270000      0.54350000     -0.10000000       341.71300       2.0727125     0.012880472
       1421.0000       288.58646       98830.912       15198.103       3.6085000     -0.53200000      0.57475000       341.59300       2.3225270     0.010417946
       1426.0000       288.64340       98835.810       15216.681       4.6277500       1.4017500     -0.60250000       341.27700       3.1939312     0.020303521
       1431.0000       288.62978       98832.928       15255.800       7.0432510      0.55775000      0.70250000       341.11300       2.7459096     0.015218576
       1436.0000       288.66649       98829.914       15337.323       5.7670000       1.1192500     -0.66950010       340.87600       3.0004772     0.013514106
       1441.0000       288.74152       98813.065       15515.388       4.4267500     -0.43550000     0.016250000       341.71800       2.5142082     0.014081471
       1447.0000       288.78089       98814.039       15627.722       2.9155000     -0.17625000      0.92000000       342.07100       2.2924221     0.024019737
       1452.0000       288.79453       98823.992       15708.787       5.1070000      0.27750000     -0.15475000       341.69000       2.2434031     0.013497703
       1457.0000       288.82461       98828.865       15783.014       3.5147500     -0.12575000      0.96650000       342.56300       2.1022125     0.012758074
       1462.0000       288.83745       98845.675       15821.130       5.5782500     -0.98900000     -0.65300010       341.03000       1.9870450     0.011193445
       1467.0000       288.87597       98839.651       15870.756       5.1725000     -0.23775000     -0.10625000       340.83400       2.1462872     0.013062869
       1472.0000       288.94877       98814.641       15950.099       3.7825000     -0.37300000     -0.28000000       341.88600       2.2287545     0.012949434
       1477.0000       288.97989       98810.252       15957.469       4.9085000     -0.59450000     0.084500010       341.41000       2.3854033     0.014246709
       1482.0000       289.00349       98802.685       15917.494       5.5857500     -0.72050010     0.059250000       340.53700       2.2257861     0.014167479
       1487.0000       289.01480       98803.285       15892.869       5.6705000      0.32975000     -0.18800000       341.50300       2.0020745     0.010925982
       1492.0000       288.99986       98821.179       15834.862       4.9760000     -0.19100000    -0.024000000       340.73700       2.0894695     0.013159605
       1497.0000       288.99975       98824.671       15796.030       3.8797500      0.39000000      0.21925000       341.50200       2.0970375     0.014894851
       1502.0000       289.00895       98820.110       15773.522       4.6935000       1.2682500       1.4165000       341.39000       2.1174577     0.010563484
       1507.0000       288.99034       98820.051       15731.392       4.2487500     -0.34300000      0.11975000       341.78500       2.2421638     0.013581475
       1512.0000       288.95406       98818.525       15662.716       3.7572500      0.58025000      0.60225000       341.92500       2.1405250     0.017695736
       1517.0000       288.93427       98822.252       15638.461       4.5022500      0.33400000     -0.17150000       341.32400       2.0565795     0.010940431
       1522.0000       288.88785       98831.101       15625.191       4.3392500     -0.60050000      0.27350000       341.76900       2.2533793     0.010631306
       1527.0000       288.89588       98831.291       15623.086       3.0450000     -0.60300000      0.50450000       341.96500       2.1240121     0.011613810
       1532.0000       288.94630       98834.055       15660.313       4.8950000     -0.36700000      0.48900000       341.14500       2.0087986     0.011907173
       1538.0000       289.01471       98806.540       15639.248       3.7692500     -0.41650000     -0.77750000       341.46500       1.9886270     0.014440341
       1543.0000       289.01889       98800.452       15625.242       2.8905000     -0.83025000      0.63475000       341.94900       2.0270846     0.012017645
       1548.0000       288.93941       98809.812       15583.597       3.9787500      -1.0780000      0.65725000       341.72900       2.0715616     0.016233182
       1553.0000       288.89969       98813.442       15569.192       3.3210000      0.45300000    -0.099750000       341.18400       1.9832602     0.012663282
       1558.0000       288.83023       98840.354       15601.118       4.4147500      -2.1582500     -0.35175000       341.11300       2.0385674     0.010342223
       1563.0000       288.78816       98846.645       15598.087       3.8495000      -1.1560000     0.057000000       341.28600       1.9107191     0.013230686
       1568.0000       288.77073       98840.646       15585.487       4.5417500     -0.99375000     -0.33250000       341.35900       2.0277965     0.013019387
       1573.0000       288.79381       98813.807       15587.126       3.8737500     -0.81625000      0.38450000       341.94300       2.0883773     0.016064441
       1578.0000       288.81537       98810.126       15527.973       3.9022500    -0.030500000      0.22725000       342.13100       2.2229388     0.021377964
       1583.0000       288.83804       98801.216       15399.922       3.1245000      -1.0135000      0.38400000       341.92800       2.0409457     0.010519411
       1588.0000       288.96058       98826.275       15385.912       2.5737500      -1.0782500      0.82025000       341.88800       2.0916640     0.020984643
       1593.0000       289.01416       98834.261       15385.578       3.7487500      -1.8470000      0.23650000       341.34100       1.9510535     0.012354015
       1598.0000       289.07007       98826.863       15510.706       2.3965000      -2.0292500      0.53350000       342.13700       1.9948391     0.011719526
       1603.0000       289.07467       98825.995       15557.208       1.5562500     -0.60100000      0.70800000       342.50500       2.0321583     0.010965148
       1608.0000       289.03004       98823.890       15568.041       2.6340000      -1.1295000      0.25825000       341.90300       1.9655665     0.012998224
       1613.0000       288.91526       98812.123       15556.141       2.7242500      -1.3012500     -0.27150000       341.19900       1.9524925     0.011147109
       1618.0000       288.80149       98815.916       15479.494       3.1055000      -1.6517500      0.76225010       341.52100       2.2181384     0.028579923
       1623.0000       288.63208       98832.523       15332.668       3.4845000     -0.73750000      0.39900000       342.01300       2.0425693     0.013025696
       1629.0000       288.56324       98827.895       15195.758       3.9095000      -1.2455000      0.27400000       341.95500       2.0688473     0.012226331
       1634.0000       288.52670       98825.584       15105.070       2.7040000     -0.26350000     0.073000010       342.34400       2.1196180     0.014614176
       1639.0000       288.60512       98808.779       15070.238       4.4067500      0.87425010     -0.32300000       341.79200       2.0856817     0.022987789
       1644.0000       288.61232       98806.585       15001.253       3.0490000     -0.23100000  -0.00050000000       342.07600       2.0100547    0.0095161858
       1649.0000       288.56626       98823.513       14896.468       3.7235000     -0.72150000      0.31550000       341.18700       2.0823241     0.016905926
       1654.0000       288.54662       98827.326       14832.911       4.1092500     -0.67150000      0.11100000       341.47000       1.9976964     0.012157647
       1659.0000       288.49465       98832.161       14753.630       5.0180000      -1.5570000    -0.070750010       341.01500       2.0836530     0.011789731
       1664.0000       288.48710       98832.600       14725.712       5.1105000     -0.66600000      0.16875000       341.12400       1.9851559    0.0093872074
       1669.0000       288.54747       98814.718       14777.663       5.2600000     -0.20275000     -0.13850000       340.78400       2.0116019     0.011975423
       1674.0000       288.55602       98812.295       14791.067       4.8375000      -2.1752500     -0.48000000       340.99000       2.0167034     0.012014015
       1679.0000       288.54153       98824.430       14806.614       4.2560000      -1.2932500    -0.031500000       341.02700       2.1364755     0.017685397
       1684.0000       288.55149       98826.381       14828.649       5.1212500     -0.65050010      0.31800000       341.64300       2.0291339     0.013343718
       1689.0000       288.52952       98834.889       14822.728       5.0310000     -0.99200000     -0.26575000       341.20900       1.9126298     0.013574266
       1694.0000       288.54197       98833.115       14846.981       4.5402500      0.87750010     -0.44675000       340.63300       1.9352365     0.010618996
       1699.0000       288.62386       98804.871       14918.742       3.1757500      0.49725000      0.88425000       341.42100       1.9980937     0.010800245
       1704.0000       288.66242       98800.835       14961.320       3.3517500    -0.076250000    -0.073250000       341.78200       2.9333429     0.011417669
       1709.0000       288.67615       98813.175       14976.902       4.3975000      -1.3720000      0.25850000       341.18700       3.7495087     0.014523114
       1714.0000       288.70647       98815.296       15031.772       4.5967500      -1.4825000      0.27600000       341.31700       3.4162092     0.017345880
       1720.0000       288.76473       98831.383       15125.020       4.0355000     -0.37325000      0.36325000       341.60800       2.9762282     0.015813110
       1725.0000       288.75759       98834.163       15179.991       3.0520000     -0.27425000     -0.37400000       341.72900       3.9542365     0.012304381
       1730.0000       288.71868       98813.419       15294.149       3.5275000      0.19650000      0.29525000       340.84900       4.3262665     0.016892425
       1735.0000       288.69498       98812.317       15309.925       3.8805000    -0.030500000    -0.095000010       340.88900       4.3834146     0.013449880
       1740.0000       288.58393       98824.693       15220.023       4.3622500     -0.50200000     -0.21925000       341.18700       3.0414674     0.020323154
       1745.0000       288.57849       98826.263       15188.894       4.4075000       1.4932500     -0.36175000       341.32800       2.4069553     0.013491315
       1750.0000       288.66042       98835.328       15098.822       2.5192500     -0.60950010      0.13425000       341.74700       2.3748152     0.020154188
       1755.0000       288.71425       98831.972       15095.744       5.1987500     -0.41000000     -0.30875000       340.83900       2.2286684     0.013478295
       1760.0000       288.86524       98803.716       15214.024       4.2197500     -0.26025000    -0.054500000       340.65900       2.0691911     0.012115633
       1765.0000       288.87665       98801.361       15225.480       4.1402500     0.025500000       1.0145000       341.41500       2.1266977     0.017481132
       1770.0000       288.77923       98813.617       15228.914       4.6990000    -0.033500000     -0.63000010       340.83800       2.0191132     0.010194198
       1775.0000       288.73521       98816.010       15206.963       3.5947500     -0.40250000    -0.092750010       341.23800       2.0684336     0.011830124
       1780.0000       288.61468       98831.287       15070.949       4.8707500      -1.6872500      -1.0255000       341.20100       2.0689920     0.011975618
       1785.0000       288.56636       98833.920       15035.182       3.3305000     0.017750000     -0.30500000       340.95600       2.0877106     0.021825666
       1790.0000       288.61362       98812.234       15074.425       4.4022500      -1.3540000    -0.037000000       341.05200       2.0888611     0.011741480
       1795.0000       288.59980       98812.622       15061.883       4.5362500      -1.4395000     0.072000000       341.48400       1.9174178     0.014238063
       1800.0000       288.56197       98827.418       15069.325       2.5962500      -1.3930000     0.058000000       341.82000       2.0806053     0.019299597
       1805.0000       288.54199       98832.477       15050.011       4.1652500     -0.67450000     -0.19325000       341.16700       1.8950571     0.012774680
       1811.0000       288.47813       98848.006       14933.318       4.3392500     -0.85575000      0.74700000       341.62900       2.0822514     0.015782507
       1816.0000       288.49655       98848.330       14939.998       3.2727500     -0.67500000      0.15300000       341.01900       2.0814438     0.020237141
       1821.0000       288.59550       98828.614       15010.672       4.1172500      -1.0730000      0.12500000       341.34300       1.9288278     0.014179586
       1826.0000       288.61893       98828.175       15057.737       3.3207500     -0.40425000      0.26525000       341.62700       2.0044237     0.010613676
       1831.0000       288.67907       98836.373       15185.181       4.2562500      0.49575000     -0.31500000       340.87100       2.0092103     0.013976891
       1836.0000       288.65476       98834.773       15219.843       2.9912500      0.39900000      0.19225000       341.37300       2.1327006     0.020921097
       1841.0000       288.51893       98838.757       15196.683       2.9932500     -0.30575000     -0.27575000       342.18700       2.4403805     0.017179750
       1846.0000       288.46515       98835.146       15180.028       4.2555000      0.18475000    -0.056750000       341.64100       2.2086504     0.012337534
       1851.0000       288.39135       98811.993       15122.380       2.8652500     -0.23375000      0.10925000       341.89200       2.1927748     0.011203533
       1856.0000       288.37984       98812.342       15096.410       4.0975000     -0.22775000     0.076000010       342.33300       2.4169707     0.018450528
       1861.0000       288.43191       98831.954       15083.165       3.9407500      0.87375000      0.39025000       341.85700       2.1223125     0.015361024
       1866.0000       288.46812       98832.164       15054.724       5.0785000     -0.69675000     -0.17275000       341.47900       2.3181282     0.018693234
       1871.0000       288.55266       98832.936       15039.062       4.0365000      -1.1797500      0.57750000       341.33300       2.1586180     0.010610735
       1876.0000       288.57002       98830.378       14992.836       3.9557500      -1.5352500      0.20025000       341.55100       2.1125715     0.019271697
       1881.0000       288.54674       98806.924       14890.757       3.1240000     -0.92375000     0.030750000       341.46000       2.0080245     0.011707668
       1886.0000       288.55670       98806.399       14865.278       3.1245000      -2.1787500      0.75025000       341.73000       1.9723932     0.011570815
       1891.0000       288.54330       98826.140       14853.490       2.7787500     -0.57125000     0.073500000       341.77400       2.0923094     0.020798297
       1897.0000       288.55248       98826.992       14873.878       2.1562500     -0.36150000     0.041000000       341.99000       2.0861838     0.017519465
       1902.0000       288.59465       98824.504       14956.434       2.1135000     -0.38425000      0.47425000       342.16200       2.1694351     0.022974030
       1907.0000       288.62479       98827.473       15002.113       4.0890000     -0.84950010      0.15525000       341.13200       2.2512204     0.012313549
       1912.0000       288.64608       98823.352       15027.908       3.9342500     -0.93425010      0.27350000       341.48400       2.1269751     0.015112639
       1917.0000       288.66587       98826.049       15096.198       3.0175000     -0.19325000      0.54725000       341.82700       1.9700059     0.012053176
       1922.0000       288.71222       98845.629       15203.046       3.1265000     -0.22025000      0.83750000       341.76900       2.0751961     0.017391377
       1927.0000       288.70525       98839.762       15251.145       2.8575000     -0.47500000      0.45000000       341.95300       1.9930128    0.0096167885
       1932.0000       288.65517       98812.956       15319.621       4.8617500      0.61575000     -0.42800000       341.11400       2.1879670     0.017198978
       1937.0000       288.63517       98812.302       15311.124       3.2212500      0.25675000     0.088750000       341.68700       2.0835638     0.014000868
       1942.0000       288.58871       98811.894       15214.230       3.3615000     -0.99400000      0.55150000       341.49500       2.0013248     0.011399329
       1947.0000       288.59617       98816.218       15187.753       6.2055000      -1.8705000      -1.1922500       341.22300       2.0002475     0.017909577
       1952.0000       288.65546       98844.410       15167.744       5.3400000     -0.89175000     0.062500000       340.85800       2.0291493     0.011839733
       1957.0000       288.65672       98844.485       15122.527       3.7580000     -0.56900000     -0.28375000       341.29800       2.0153827     0.012218881
       1962.0000       288.64806       98823.773       15079.289       4.5712500      -1.0560000      0.37950000       341.29700       2.0407377     0.016248941
       1967.0000       288.65808       98823.384       15055.930       4.0227500      -1.1120000     -0.68325000       341.47100       2.0626990     0.011934402
       1972.0000       288.62352       98825.944       14979.808       5.6437500      -1.2467500     -0.73025010       340.67400       2.1046990     0.011815165
       1977.0000       288.67070       98823.002       15019.279       5.1942500      0.10925000     -0.35600000       341.52100       1.9569926     0.013135553
       1982.0000       288.80315       98828.985       15159.852       6.3415000     -0.88225010     -0.53475000       341.10100       2.0144638     0.011573904
       1988.0000       288.85436       98801.157       15249.369       5.0300000      -1.9490000     -0.36475000       341.17300       2.0874695     0.014971981
       1993.0000       288.86834       98794.955       15309.557       3.1512500     -0.85350010     -0.22850000       341.33900       2.0228677     0.010862931
       1998.0000       288.78435       98816.034       15292.612       3.7372500      -1.2332500      0.77675000       341.08200       2.0762292     0.015326584
       2003.0000       288.74360       98817.442       15315.665       4.2915000      -2.5745000      0.97275010       341.54100       1.7590194     0.029010287
       2008.0000       288.73037       98813.394       15407.361       2.6772500     -0.42475000     -0.19575000       341.88000       2.2221036     0.020604270
       2013.0000       288.70076       98816.690       15434.645       4.0045000      0.27675000     -0.63175000       341.37000       1.9269733     0.020048221
       2018.0000       288.67121       98817.529       15437.307       3.7562500     -0.14225000     -0.61850010       341.33000       2.0454770     0.012128585
       2023.0000       288.65777       98800.198       15448.384       3.6100000     -0.70450000     -0.76450000       341.07300       2.2811984     0.011938024
       2028.0000       288.61608       98808.502       15369.436       3.8602500      0.11450000    -0.095750000       341.74200       2.3192158     0.017511084
       2033.0000       288.54480       98839.183       15205.807       4.0572500       1.6612500      0.25125000       341.32700       2.0790464     0.012070074
       2038.0000       288.51499       98829.087       15095.421       4.4655000     -0.17100000     -0.77825000       341.33600       2.0964348     0.013788981
       2043.0000       288.49340       98830.016       14986.751       2.8765000     -0.63075000       1.0165000       342.17900       2.4999270     0.024225726
       2048.0000       288.51527       98825.330       14899.239       4.6292500     -0.21550000     0.076500010       341.24500       2.3794950     0.011640178
       2053.0000       288.50672       98822.901       14812.668       2.8892500     -0.96200010      0.11925000       341.36100       2.2550003     0.017871826
       2058.0000       288.48594       98825.401       14724.881       2.9177500     -0.13875000      0.29675000       342.17900       2.2480838     0.028970691
       2063.0000       288.45155       98844.345       14615.200       2.6320000     -0.71875010      0.63500010       342.18000       1.9936914     0.012313913
       2068.0000       288.43161       98840.492       14559.491       2.8372500     -0.57375000      0.20675000       342.06000       2.1197508     0.019476068
       2073.0000       288.39369       98823.713       14522.518       5.1542500      -1.9590000      -1.6002500       341.41500       1.9354422     0.012606140
       2079.0000       288.39977       98823.543       14536.382       4.1385000      -1.4542500     -0.56800000       341.39900       1.9301166     0.013229556
       2084.0000       288.39966       98823.926       14542.325       2.0692500      -1.7427500    0.0092500000       341.41900       2.0633470     0.021263836
       2089.0000       288.37200       98837.623       14540.934       3.1800000      -1.4877500      0.19350000       341.91600       1.9828968     0.012643960
       2094.0000       288.39475       98843.252       14577.308       5.0200000     -0.71900000     -0.17275000       341.16700       2.0637635     0.016415725
       2099.0000       288.46804       98838.979       14635.344       4.0985000      -1.7437500     -0.30450000       341.58800       1.8909674     0.021053397
       2104.0000       288.50774       98840.105       14696.219       2.1982500     -0.94600000      0.44025000       342.05500       2.0387447     0.016542914
       2109.0000       288.58075       98849.643       14796.017       4.8392500      -1.4935000     -0.75775000       341.08600       2.1493120     0.015975294
       2114.0000       288.61822       98847.185       14886.001       3.7070000      -2.9977500     -0.11850000       341.60600       2.0296636     0.011753160
       2119.0000       288.61429       98830.064       15002.435       3.0392500      -2.2285000      0.10350000       341.63800       2.1043991     0.014554113
       2124.0000       288.60311       98828.435       15058.281       3.7055000     -0.73950000     -0.39150000       341.40200       2.0827465     0.019314646
       2129.0000       288.53679       98829.308       15063.997       2.9720000      -2.6902500     -0.48350000       341.20700       1.9490196     0.016261213
       2134.0000       288.53854       98828.654       15096.162       3.7985000      -1.0515000   -0.0020000000       341.71100       1.9198842     0.013343822
       2139.0000       288.59221       98847.345       15116.146       3.9900000     -0.62800000     -0.50800000       341.30900       2.0319405    0.0097284798
       2144.0000       288.60216       98849.430       15108.363       3.5575000      -1.8057500      0.34250000       341.46700       2.1162827     0.019856206
       2149.0000       288.64760       98825.490       15116.535       3.6717500      -1.6822500     0.048750000       341.57700       1.9975307     0.013809831
       2154.0000       288.66474       98822.231       15102.915       4.4922500     -0.45600000     -0.40575000       341.62400       2.0196799     0.011681927
       2159.0000       288.61000       98832.525       15011.023       3.2097500      -1.8812500      0.47050000       341.27900       2.0881273     0.013340272
       2164.0000       288.59113       98830.328       14973.672       2.3185000      -1.2305000      0.41600000       341.31700       2.1678801     0.028992465
       2170.0000       288.63830       98828.916       15002.600       3.8190000      -1.2005000      0.24525000       341.52700       1.9861799     0.011312795
       2175.0000       288.59721       98831.529       14964.278       3.8282500      -1.2222500      0.29400000       341.45900       2.1935051     0.022648753
       2180.0000       288.48554       98823.744       14895.060       2.5925000      -1.0652500     -0.12825000       341.48800       2.1107577     0.019351670
       2185.0000       288.42617       98823.325       14846.258       4.2727500      -2.4150000      0.47850000       341.18200       2.0781676     0.017221832
       2190.0000       288.30214       98842.789       14725.832       4.9445000      -1.1462500    -0.081750010       340.93800       2.1137220     0.023055447
       2195.0000       288.26707       98843.626       14696.065       4.2065000     -0.63800000     -0.20825000       341.27000       1.9161131     0.012496359
       2200.0000       288.35028       98823.694       14763.870       5.3945000      -1.4170000     -0.15175000       341.02700       1.8860496     0.014641730
       2205.0000       288.35633       98823.203       14770.070       4.3567500      0.35750000     -0.50075000       341.28800       2.0629557     0.011866729
       2210.0000       288.35711       98831.059       14777.893       2.3945000      0.45600000      0.98950000       341.51300       2.0283459     0.011007189
       2215.0000       288.35379       98830.030       14791.372       4.2467500      0.25175000     0.019500000       341.04300       2.0594569     0.013744774
       2220.0000       288.29161       98836.867       14766.715       5.6155000      0.88650010     -0.32975000       341.02300       1.9761039     0.012800330
       2225.0000       288.28862       98837.480       14776.267       5.6462500     -0.42075000      0.35150000       341.49500       2.0557928     0.012309249
       2230.0000       288.33829       98818.114       14837.835       4.0937500      -1.4480000     -0.39775000       341.57500       2.2294718     0.015021492
       2235.0000       288.35820       98817.496       14861.692       2.4055000      -1.1737500    -0.075750000       341.63400       1.8898122     0.016978080
       2240.0000       288.38160       98836.910       14855.028       4.2557500      -2.1132500     -0.20550000       341.16300       2.0428187     0.015202206
       2245.0000       288.41151       98837.361       14883.198       3.8222500     -0.31025000     -0.17725000       341.42400       1.8769594     0.016015102
       2250.0000       288.43791       98828.257       14918.659       5.4195000     -0.53400000     -0.23150000       341.27200       1.9893566     0.012157259
       2255.0000       288.45789       98830.646       14955.107       5.4012500     -0.30425000     0.054500000       341.10300       1.9641754     0.012830289
       2261.0000       288.51014       98828.578       15057.957       4.9162500     -0.96975000      0.50550000       341.30000       2.1990780     0.022646984
       2266.0000       288.50756       98829.394       15066.118       3.1515000      0.53150000      0.26125000       341.30100       2.0938899     0.017056847
       2271.0000       288.46913       98849.044       15024.771       2.7187500     -0.65200000     -0.11625000       341.39900       2.0798647     0.016802890
       2276.0000       288.43312       98847.529       14991.731       2.7747500     -0.23775000      0.74475000       341.81200       1.9138102     0.014866989
       2281.0000       288.35928       98823.552       14906.693       2.7727500      0.12325000     0.030500000       341.39600       2.0051689     0.014319638
       2286.0000       288.32588       98822.753       14861.875       3.1412500      0.16900000      0.51075000       341.40900       2.1037086     0.015505972
       2291.0000       288.30069       98831.527       14847.032       3.9230000    0.0050000000      0.12300000       341.24600       2.0651736     0.018296756
       2296.0000       288.28698       98828.849       14802.260       3.6262500     -0.95500000     -0.18625000       341.29600       2.0680736     0.015577950
       2301.0000       288.29993       98828.527       14748.744       3.9817500     -0.63600000     0.068250000       340.92500       1.9274472     0.013767107
       2306.0000       288.29993       98832.530       14697.207       5.0262500      0.19525000     -0.34200000       340.77500       2.0157300     0.012757036
       2311.0000       288.28936       98832.080       14602.713       3.3702500      0.32700000     -0.75600000       341.22600       2.0398516     0.016521554
       2316.0000       288.30574       98828.132       14586.654       3.3295000      -1.7245000      0.53950000       341.34100       2.0357930     0.012129083
       2321.0000       288.34203       98832.108       14614.380       4.9082500     -0.62275000    -0.050250000       341.10200       2.0382261     0.014069509
       2326.0000       288.36176       98831.234       14636.897       3.2620000     -0.88150010     -0.24150000       341.24100       2.0249324     0.015102067
       2331.0000       288.41107       98811.227       14719.395       2.9330000      -1.9752500     -0.65550010       341.21600       2.1380029     0.014107166
       2336.0000       288.40815       98812.760       14750.048       3.0120000      -1.7565000   -0.0092500000       341.33200       2.1443444     0.019962681
       2341.0000       288.35771       98837.129       14749.826       4.0110000      -1.6362500      0.16925000       341.49300       2.0643260     0.012467718
       2346.0000       288.33757       98837.977       14765.343       5.4450000      -1.5607500     -0.20150000       341.14900       2.0105002     0.012456841
       2352.0000       288.30577       98829.195       14786.908       5.9312500      -1.4612500     -0.54450010       340.98400       2.0607545     0.011836288
       2357.0000       288.27580       98832.098       14780.249       5.3665000      0.14450000      0.25825000       341.05900       1.8560038     0.015146213
       2362.0000       288.27160       98831.087       14787.977       3.7882500       1.5970000       1.3862500       341.09200       2.0001264     0.010695425
       2367.0000       288.21440       98827.163       14724.271       3.0372500      -1.2127500      0.12075000       340.87700       1.9466483     0.012225503
       2372.0000       288.10566       98829.295       14598.884       3.3030000      0.60775010      0.74475000       341.41200       2.1038058     0.012331111
       2377.0000       288.05475       98833.159       14514.713       4.6855000      -1.6675000     -0.57350000       341.00600       1.9632449     0.012881071
       2382.0000       287.98402       98828.148       14393.941       4.1532500      -1.0282500    0.0045000000       341.35300       1.9953327     0.017016099
       2387.0000       287.98024       98829.873       14322.471       4.0745000     -0.64375000     -0.25000000       341.05300       2.1040483     0.017191717
       2392.0000       288.05430       98848.334       14297.723       4.0232500     -0.48075000     0.054000000       341.34000       2.1503674     0.023180140
       2397.0000       288.05546       98847.076       14234.696       2.7080000      -1.1127500      0.36625000       341.34600       2.0298892     0.022096283
       2402.0000       288.05622       98827.700       14151.644       4.1900000    -0.072250000     0.027000000       341.38200       2.0400301     0.013530124
       2407.0000       288.04753       98828.067       14113.860       4.2390000     -0.56500000     -0.23875000       341.36500       2.0560060    0.0099724556
       2412.0000       287.99728       98837.048       14081.939       2.6170000       1.2337500      0.58700000       341.49300       2.0898727     0.017308896
       2417.0000       287.98617       98833.287       14071.361       3.8910000      -1.9042500     -0.45175000       341.06400       1.9737321     0.012277053
       2422.0000       288.00916       98829.448       14112.879       4.4177500     -0.82575010    -0.075750000       341.24800       1.9516276     0.013699090
       2427.0000       287.98997       98832.297       14105.330       4.0557500      -1.2535000     -0.19225000       341.31400       2.1162936     0.017894329
       2432.0000       287.94547       98830.241       14069.403       3.8065000      -1.3102500      0.15375000       341.18000       2.0813576     0.013607691
       2437.0000       287.94448       98828.108       14082.451       3.6812500      -1.2070000     -0.37850000       341.04600       1.9599518     0.016158592
       2443.0000       287.93843       98836.460       14099.794       2.4877500     0.021250000      0.39475000       341.47400       1.9846602     0.012043930
       2448.0000       288.01576       98830.559       14197.078       3.1420000      -2.0060000      0.19350000       340.93100       1.8564721     0.015094778
       2453.0000       288.05646       98828.180       14262.886       3.4412500      -2.3030000      0.63300000       341.12800       2.0033063     0.011977572
       2458.0000       288.08521       98840.332       14325.247       3.7277500     -0.86400000    -0.086500000       341.05900       1.9072600     0.014517955
       2463.0000       288.10635       98842.825       14379.803       4.8140000      -1.8357500     -0.71450000       341.18100       1.9618069     0.012988635
       2468.0000       288.11514       98840.374       14423.571       5.2812500      -2.0585000     -0.15900000       340.95900       2.0260029     0.012308106
       2473.0000       288.10004       98828.651       14449.556       5.0182500      -1.8035000     -0.60325000       340.72400       2.1043193     0.019317002
       2478.0000       288.10004       98831.111       14473.442       3.1167500     -0.26975000    -0.099250000       341.07800       2.0811586     0.019776198
       2483.0000       288.10589       98836.426       14501.939       3.2415000      -2.5287500     0.013000000       340.85100       1.9914705     0.012602682
       2488.0000       288.05503       98827.814       14444.255       4.3887500      -1.5705000      0.26625000       340.94500       2.0393310     0.017273447
       2493.0000       288.04345       98829.650       14429.710       2.2320000      -1.1790000      0.76900010       341.12700       2.0307489     0.012386396
       2498.0000       288.02975       98832.804       14395.102       2.3767500     -0.98675010      0.39525000       341.17700       2.0375093     0.015384225
       2503.0000       288.03718       98829.725       14399.762       1.4692500      -1.5355000      0.75800000       341.27100       1.9733973     0.010270559
       2508.0000       288.06926       98827.869       14438.328       3.2030000      -1.3560000    -0.018000000       341.23900       2.0249426     0.013642297
       2513.0000       288.16206       98836.772       14546.176       3.7805000      -1.4652500      0.15575000       341.13700       1.9869284     0.015559495
       2518.0000       288.16927       98838.442       14571.263       2.6982500      -1.6507500      0.92675010       341.18100       2.1039340     0.023525870
       2523.0000       288.15039       98828.706       14581.478       3.7825000      -1.3627500     -0.26400000       340.86500       1.9567675     0.013762481
       2529.0000       288.13031       98841.118       14595.166       4.9855000      -1.4892500      0.27825000       340.93100       1.9815575     0.015782926
       2534.0000       288.14272       98842.654       14641.322       3.9732500      -1.0967500     -0.26175000       340.98200       2.1322441     0.018716043
       2539.0000       288.25344       98829.231       14796.224       2.8647500     -0.78425000     0.081250000       341.02800       2.0255444     0.013327583
       2544.0000       288.26926       98828.657       14858.036       3.4270000     -0.80525000      0.66350000       341.20100       1.9951867    0.0099820517
       2549.0000       288.22198       98836.667       14866.958       2.6427500     -0.95750000     0.031000000       341.18800       2.0313276     0.014006195
       2554.0000       288.20087       98835.561       14890.435       3.0762500     -0.46550000     0.037750000       341.15300       2.0970423     0.014875659
       2559.0000       288.08991       98833.051       14833.281       2.9662500     -0.71125000      0.52175000       341.23600       1.9645991     0.013083841
       2564.0000       288.07511       98836.061       14848.918       4.1127500     -0.53925000     -0.18800000       341.00400       1.8992829     0.015348870
       2569.0000       288.16760       98839.039       14951.063       3.7620000     -0.87275000     -0.10000000       341.00100       2.0934855     0.017994277
       2574.0000       288.20768       98834.811       14999.047       3.9042500     -0.81425010     -0.31500000       340.91700       2.0117291     0.013247729
       2579.0000       288.28061       98827.884       15060.381       2.9327500      -1.6165000      0.26600000       341.05700       2.0547875     0.013197773
       2584.0000       288.31877       98829.941       15094.000       3.3430000      -1.7395000     -0.48550000       341.00600       2.0757757     0.013419579
       2589.0000       288.32840       98832.187       15066.056       3.2957500     -0.65200000     -0.14175000       341.10400       1.9713099     0.010262331
       2594.0000       288.30585       98829.392       15065.100       3.9177500      -1.0475000     -0.12500000       341.06400       2.0687863     0.016228103
       2599.0000       288.24885       98829.196       15099.211       2.9470000     -0.96975000     -0.40000000       341.03700       2.0736534     0.029819650
       2604.0000       288.19770       98836.357       15082.387       2.7722500     -0.78150000      0.15050000       341.13700       2.1011974     0.018202068
       2609.0000       288.08646       98844.410       15043.089       4.0442500     -0.91375010      0.31825000       340.94800       2.0872080     0.017197067
       2614.0000       288.02888       98845.316       14995.997       3.3732500     -0.76225010      0.63550000       341.03700       1.9588229     0.011855693
       2620.0000       287.99205       98855.033       14859.507       3.4625000       1.1152500     -0.61550000       341.18300       2.1056101     0.019082885
       2625.0000       287.98945       98858.588       14809.386       3.2447500      0.70475010    -0.090250010       341.25200       2.0377472     0.011711067
       2630.0000       288.03825       98846.977       14793.404       3.3995000      0.40225000      0.75750010       341.05200       2.1699448     0.022790839
       2635.0000       288.05804       98842.848       14782.490       4.1480000      0.50750010     -0.48100000       340.86800       2.0621937     0.017308708
       2640.0000       288.12115       98845.939       14829.972       2.1707500    -0.056000000    -0.066500000       341.14100       2.1167155     0.019337833
       2645.0000       288.11034       98845.575       14831.263       2.7225000     -0.75500010    0.0037500000       341.05200       1.9524552     0.012842959
       2650.0000       288.03888       98839.453       14818.224       2.7895000      0.51075000      0.14775000       341.25400       1.9228619     0.012989508
       2655.0000       287.98470       98839.219       14795.784       4.1147500      0.28925000     -0.10350000       340.99100       2.0292428     0.013284452
       2660.0000       287.86081       98847.986       14731.855       3.4912500     -0.61600010     -0.21175000       341.05900       2.1370545     0.016701000
       2665.0000       287.82208       98845.922       14711.121       2.5085000      0.27100000      0.62000000       341.16200       2.0349450     0.011360765
       2670.0000       287.85616       98834.264       14730.493       2.7225000      -1.0020000      0.32000000       341.24100       1.9563661     0.011801064
       2675.0000       287.84623       98833.935       14701.510       3.1290000     -0.99300000      0.15425000       341.26800       1.8614175     0.016946396
       2680.0000       287.85685       98838.450       14659.650       2.8240000      -2.0287500     -0.20975000       341.23200       2.0819217     0.012700644
       2685.0000       287.85293       98834.125       14628.443       2.4267500     -0.80200000     -0.14525000       341.19400       1.9451863     0.012052051
       2690.0000       287.83196       98828.677       14587.997       3.4282500     -0.68275000      0.35675000       341.07200       2.0084314     0.012160293
       2695.0000       287.78803       98831.123       14516.163       2.6310000      -1.4177500   -0.0042500000       341.07600       2.0356529    0.0095207145
       2700.0000       287.71122       98828.934       14423.235       1.8955000     -0.52075000      0.29050000       341.16600       1.9737003     0.012325089
       2705.0000       287.68510       98829.058       14368.849       2.8082500     -0.58000000     0.074250010       341.13500       2.0253850     0.010251872
       2711.0000       287.65437       98844.610       14279.057       3.3255000      -1.7945000     -0.46450000       341.03200       2.0924173     0.017101966
       2716.0000       287.63035       98849.715       14224.627       2.8072500     -0.96225010      0.14750000       341.13100       2.0466629     0.012918057
       2721.0000       287.64638       98849.076       14217.174       3.3730000      -1.9580000      0.77625010       341.21200       2.0730426     0.013792130
       2726.0000       287.65651       98843.254       14205.761       2.9770000      -1.6890000       1.1890000       341.19100       2.0771738     0.014447770
       2731.0000       287.65432       98828.986       14189.333       3.4572500      -1.8270000     0.084250000       340.99800       1.8986256     0.012764941
       2736.0000       287.64454       98828.867       14168.710       3.6970000      -1.5300000     -0.11125000       341.07200       2.0610200     0.012281564
       2741.0000       287.65850       98832.006       14174.841       3.9995000     -0.27325000      0.28600000       340.83200       2.0030000     0.013145900
       2746.0000       287.65215       98828.134       14162.003       5.2142500       1.0460000     0.027000000       340.88100       1.9682068     0.011502870
       2751.0000       287.59042       98828.577       14095.179       4.6912500      -1.8125000     -0.81425010       340.85200       1.9956140     0.012544827
       2756.0000       287.59292       98832.650       14104.661       4.0397500      -2.3012500      0.16475000       340.79300       1.9960731     0.013598743
       2761.0000       287.65378       98830.833       14172.853       4.7720000      -2.8572500      0.18675000       341.01500       2.0337465     0.017319169
       2766.0000       287.65779       98828.436       14199.382       4.4135000      -3.2400000     -0.98600010       340.82700       2.1009532     0.021113326
       2771.0000       287.66840       98834.292       14273.060       4.5137500      -2.1512500      0.13975000       340.78000       2.0474525     0.014302494
       2776.0000       287.64612       98838.755       14257.981       3.1455000      -1.1157500     0.061750000       340.79300       2.0618193     0.018379822
       2781.0000       287.54753       98836.230       14151.893       2.3607500      -2.2755000      0.37975000       340.89900       2.1677922     0.017181262
       2786.0000       287.53022       98833.248       14116.475       2.5075000      -2.1455000      0.57875000       340.88800       1.9438881     0.014849459
       2791.0000       287.53248       98834.043       14059.662       3.5305000      -1.9615000     -0.20925000       340.79100       1.9961509     0.013607952
       2796.0000       287.55521       98837.124       14044.559       5.2525000      -3.7630000     -0.86225000       340.68300       1.9541911     0.011006481
       2802.0000       287.65859       98835.912       14103.641       4.2645000      -3.6637500     -0.13050000       340.72900       1.9924518     0.010860609
       2807.0000       287.67100       98832.883       14095.960       4.8832500      -3.6852500     -0.51900010       340.77900       2.0503390     0.013178979
       2812.0000       287.65715       98834.952       14062.497       4.8830000      -3.6575000     -0.47725000       340.75500       2.1064487     0.013819936
       2817.0000       287.64849       98838.021       14052.873       4.1900000      -2.1720000     0.075000000       340.83800       2.0963812     0.014395148
       2822.0000       287.58803       98834.082       14015.235       4.1675000      -2.9637500     -0.38600000       340.79000       2.0587168     0.016528463
       2827.0000       287.59512       98834.813       14037.928       3.7540000      -2.7495000     -0.32075000       340.90100       2.1488321     0.020245102
       2832.0000       287.64576       98845.695       14110.997       4.4675000      -3.9650000      0.37200000       340.84900       2.0801851     0.011816831
       2837.0000       287.66624       98848.860       14150.273       5.6210000      -1.9492500      0.11200000       340.85100       2.0639386     0.013896292
       2842.0000       287.70300       98845.593       14208.853       3.7977500     -0.90150000     0.019250000       340.83400       1.9251817     0.012302286
       2847.0000       287.71464       98844.665       14239.175       4.4242500     -0.96200010      0.25750000       340.85200       2.0053316     0.010589126
       2852.0000       287.68161       98845.936       14220.209       4.0440000      -1.3577500      0.26000000       340.86100       2.0100059     0.010628429
       2857.0000       287.71866       98845.051       14278.597       3.9730000      0.12250000     0.018750000       340.87200       2.0737895     0.015098966
       2862.0000       287.79238       98840.095       14375.034       3.0405000     -0.28375000      0.61425000       340.92900       2.0902309     0.016509590
       2867.0000       287.83226       98839.036       14443.418       3.8507500      0.83625010     -0.20400000       340.71000       2.0103734     0.013063503
       2872.0000       287.91517       98840.465       14566.145       2.9890000      -1.5110000     -0.29825000       340.92200       2.0536341     0.015420011
       2877.0000       287.91805       98840.491       14594.082       3.7295000      -1.7960000     -0.45025000       340.77300       2.0052596     0.012873493
       2882.0000       287.85389       98839.297       14554.055       3.3155000      -2.4725000     -0.27800000       340.82300       1.9488125     0.012042516
       2887.0000       287.83386       98841.161       14549.363       2.2632500      -1.7005000     0.093000000       340.84500       1.9631032     0.010554996
       2893.0000       287.78671       98845.780       14508.174       2.2035000     -0.17800000     0.021750000       340.94200       2.1501496     0.025725539
       2898.0000       287.84533       98845.876       14581.838       2.5465000     -0.63500010     -0.17550000       340.87000       1.9873128     0.012681941
       2903.0000       287.85631       98846.006       14588.262       2.8215000     -0.43450000     0.085000000       340.88400       2.0497679     0.013512786
       2908.0000       287.85525       98840.368       14558.118       4.0472500     -0.80025010    -0.071250010       340.87700       1.9584493     0.011131035
       2913.0000       287.85662       98839.145       14540.813       3.7272500     -0.76300000     -0.19125000       340.91800       1.9963696     0.012572409
       2918.0000       287.84569       98840.380       14509.311       2.3307500     -0.71250000     -0.36600000       341.00000       2.0771718     0.012792937
       2923.0000       287.79380       98845.204       14419.428       2.4895000      0.65025000    -0.017750000       340.86800       2.1503548     0.025150445
       2928.0000       287.78504       98847.209       14407.322       2.5122500      -1.0530000    -0.052000000       340.89800       2.0764067     0.013324156
       2933.0000       287.79991       98851.444       14438.331       3.3985000    -0.099750000     0.096750010       340.91500       1.9877589     0.012380294
       2938.0000       287.80032       98845.620       14453.988       3.1287500     -0.89050010      0.37975000       341.06200       2.0273834     0.013088752
       2943.0000       287.80055       98844.389       14468.368       2.8267500     -0.57825010      0.22900000       341.04900       2.0062903     0.012915276
       2948.0000       287.81519       98844.801       14485.545       3.8057500      -1.1667500     0.089250010       340.83200       2.0310639     0.015959616
       2953.0000       287.80662       98844.685       14495.554       3.6447500      -1.2095000     -0.13975000       340.87000       2.1499179     0.034100361
       2958.0000       287.78577       98845.792       14502.220       2.5095000      -1.0485000     0.068750000       340.96300       2.1587726     0.022519636
       2963.0000       287.75041       98851.474       14511.069       3.2410000      -1.5392500     0.023750000       340.82300       2.1165792     0.014428575
       2968.0000       287.73004       98850.130       14501.170       3.5930000      -1.5702500      0.19325000       340.87400       1.9718634     0.011167271
       2973.0000       287.69364       98844.719       14479.636       3.6637500     -0.44075000      0.23550000       340.85600       1.9046903     0.013852653
       2978.0000       287.68535       98846.221       14433.283       3.9190000      -1.2735000     0.068500000       340.86100       2.0981274     0.016483251
       2984.0000       287.69738       98845.012       14407.392       3.9610000      0.64975010     -0.45500000       341.08000       2.0597383     0.020276368
       2989.0000       287.73410       98841.625       14399.570       3.6352500      -2.4337500     -0.42700000       340.73700       2.0789924     0.014094317
       2994.0000       287.75371       98844.844       14389.133       3.3195000      -1.8240000      0.29100000       340.86900       2.1791018     0.024689764
       2999.0000       287.80444       98858.664       14409.855       2.9012500      -1.6167500     -0.12900000       341.01700       2.0920581     0.016858111
       3004.0000       287.81195       98857.260       14400.743       4.0530000     -0.55425000      -1.0260000       340.88800       2.0608373     0.018407550
       3009.0000       287.76663       98843.325       14354.830       2.6032500      -1.3660000     0.045500000       340.98700       1.9348786     0.015740383
       3014.0000       287.74653       98844.515       14336.436       3.5457500      -1.0705000       1.1302500       340.95500       2.1383756     0.023188149
       3019.0000       287.69630       98849.363       14300.575       4.6810000      -2.6607500    -0.032000000       340.98500       1.9535607     0.011127869
       3024.0000       287.68869       98844.266       14303.042       5.1055000      -2.1430000     -0.19900000       340.79200       1.9000557     0.014734382
       3029.0000       287.74887       98840.966       14376.678       4.3210000      -1.0015000     0.071500000       340.81500       2.0988529     0.013636906
       3034.0000       287.75810       98845.888       14396.663       4.1700000      -1.8537500     -0.50550000       341.00100       2.0546270     0.010243977
       3039.0000       287.74211       98849.200       14390.427       3.9535000     -0.50225000     -0.14550000       341.01000       2.2108172     0.023014646
       3044.0000       287.75206       98844.184       14407.199       3.2217500    -0.027000000     0.018250000       340.80300       2.0702540     0.013504709
       3049.0000       287.72808       98841.455       14387.200       4.7122500     -0.10250000      0.29200000       340.86500       2.0461702     0.010559294
       3054.0000       287.74081       98846.404       14403.666       2.8507500      -1.1812500      0.45175000       340.96000       1.9520448     0.011353212
       3059.0000       287.82416       98849.353       14489.458       3.4750000     -0.75400000     0.022000000       340.75800       1.9319033     0.012799052
       3064.0000       287.86320       98844.257       14528.824       2.9665000     -0.98975000     -0.60300000       340.85400       2.0686961     0.016473319
       3069.0000       287.90474       98841.196       14566.236       2.8330000      -1.7277500     -0.31050000       340.95200       2.0206626     0.011968339
       3075.0000       287.91122       98847.143       14573.606       2.6262500     -0.81625000     0.071750000       340.93100       2.0601546     0.017687251
       3080.0000       287.86156       98847.993       14524.287       2.6592500     -0.48900000     -0.16650000       341.00800       2.0205487     0.017386796
       3085.0000       287.84160       98842.956       14506.733       1.7197500     -0.37125000      0.44175000       341.11200       1.9713766     0.011706454
       3090.0000       287.80534       98846.116       14482.470       2.6692500      -1.1310000      0.36775000       341.06900       2.0590581     0.013844823
       3095.0000       287.78921       98846.959       14467.508       2.8607500     -0.25800000     -0.11600000       341.03100       2.0442338     0.015452769
       3100.0000       287.81387       98830.211       14496.852       3.2830000     -0.98500010     -0.26350000       340.93300       2.0267572     0.015482705
       3105.0000       287.80006       98826.123       14468.847       3.0872500     -0.92450000    -0.070750010       340.98600       2.1373834     0.022780399
       3110.0000       287.74997       98838.049       14391.764       3.2415000     -0.75450000      0.16875000       340.96800       1.9495859     0.011158885
       3115.0000       287.74408       98842.821       14353.365       3.5677500      -1.9757500     -0.51175000       341.01600       2.1039956     0.018129150
       3120.0000       287.73073       98845.575       14271.027       3.2252500      -1.1222500    -0.045000000       340.83800       2.0487023     0.013991167
       3125.0000       287.74789       98846.294       14262.342       2.3817500    -0.067500000     0.015250000       341.14500       1.9023036     0.011777646
       3130.0000       287.83318       98844.716       14336.031       1.7147500      0.58025000       1.0835000       341.27700       1.9868675     0.010226150
       3135.0000       287.86912       98845.724       14370.753       2.0400000     -0.28050000      0.59100000       341.15200       2.0990941     0.019258071
       3140.0000       287.89547       98844.489       14433.128       2.0737500      -1.9247500      0.30475000       340.94300       2.0808043     0.015888647
       3145.0000       287.91175       98844.888       14468.798       2.5402500     -0.27200000      0.22425000       341.18100       1.9289105     0.011433192
       3150.0000       287.87488       98851.053       14446.588       3.8450000      -1.2105000     -0.42150000       340.95100       2.0725433     0.019593612
       3155.0000       287.90284       98851.330       14493.040       2.3990000     -0.40850000      0.43850000       341.17700       2.1181535     0.018064998
       3161.0000       287.99682       98842.525       14604.703       4.2097500     -0.98250010   -0.0010000000       341.10900       2.0381672     0.014338553
       3166.0000       288.02073       98845.330       14659.725       2.6387500      0.23350000       1.4787500       341.05900       2.2721292     0.031263898
       3171.0000       288.05667       98858.707       14746.192       4.4590000      -1.3030000    -0.029750000       340.87200       2.0407599     0.013734677
       3176.0000       288.06394       98855.264       14781.945       3.6455000     -0.58525000      0.25950000       340.94400       2.0203304    0.0098654662
       3181.0000       288.00102       98843.389       14761.241       2.7547500      -1.8507500     -0.60150000       341.05800       1.9996254     0.016925948
       3186.0000       287.98735       98845.568       14753.765       3.5017500     -0.63925000      0.31700000       341.06300       2.0464601    0.0093041546
       3191.0000       288.00012       98847.063       14741.323       3.3955000     -0.80625000    -0.097750010       341.00300       2.0978704     0.020347127
       3196.0000       288.00029       98842.110       14720.074       3.3000000      -1.9182500      0.16075000       341.08600       2.0204295     0.014139717
       3201.0000       288.00018       98843.240       14681.523       2.2660000     -0.53625010      0.52550000       341.03100       2.0922845     0.013390200
       3206.0000       288.00035       98848.380       14647.954       1.7780000     -0.68850000      0.22475000       341.12600       2.0860101     0.019053494
       3211.0000       288.00035       98847.659       14606.062       3.2602500     0.050500000     -0.12625000       340.99700       2.0113750     0.010507009
       3216.0000       288.00042       98842.692       14577.274       4.1445000     0.011250000     0.026750000       340.95900       2.1050260     0.015793012
       3221.0000       287.98882       98845.660       14530.495       3.4670000     0.080500010     -0.33975000       340.80000       2.2066975     0.026473429
       3226.0000       288.00500       98847.462       14537.521       3.4952500     -0.11925000     -0.37175000       340.79300       2.1937170     0.022377989
       3231.0000       288.04109       98834.064       14584.965       2.7512500      0.21400000      0.13000000       340.95700       2.0806363     0.018235978
       3236.0000       288.06116       98831.644       14616.191       3.9330000      -1.2175000    -0.062000000       340.85600       2.1863444     0.019068806
       3241.0000       288.12093       98844.733       14699.479       3.2980000     -0.73975000     -0.26850000       340.88500       2.0621937     0.011652124
       3246.0000       288.10199       98848.558       14709.716       3.0915000      0.26550000     -0.12350000       340.91200       1.9178798     0.014122907
       3252.0000       287.98856       98844.591       14642.640       3.2377500     -0.35125000     -0.27850000       341.03300       1.8747147     0.013004620
       3257.0000       287.98607       98845.441       14668.262       2.5197500     -0.45125000      0.15100000       341.00000       2.0619836     0.019354773
       3262.0000       287.99520       98853.410       14715.326       2.5567500      0.27350000      0.11900000       341.06600       2.1498083     0.021275536
       3267.0000       287.99421       98848.987       14731.766       2.3765000     -0.15900000      0.30150000       341.04500       1.9443098     0.013825581
       3272.0000       288.07758       98832.022       14823.357       3.4717500     -0.70375000    -0.020250000       341.04500       2.1664600     0.018247851
       3277.0000       288.04319       98835.310       14777.238       1.3635000     -0.57600000      0.55675000       341.13800       2.1247377     0.020743662
       3282.0000       287.90645       98846.658       14612.730       3.1882500      -2.6252500     0.065000010       340.94400       2.0925026     0.022805434
       3287.0000       287.85477       98843.926       14536.288       2.9900000      -1.3640000     0.079500000       340.97200       2.0420026     0.011103979
       3292.0000       287.79508       98848.598       14439.677       3.4772500     -0.14100000     0.075250010       340.94100       2.0193334     0.015514545
       3297.0000       287.77233       98844.308       14372.389       3.0482500     -0.44975000     -0.15775000       341.05800       1.9620331     0.012153852
       3302.0000       287.78184       98814.263       14330.766       3.3127500     -0.34250000      0.24650000       341.12000       2.0989481     0.016123403
       3307.0000       287.81901       98817.920       14324.927       4.1162500      -1.2085000      0.10825000       340.93100       2.0186272     0.012092523
       3312.0000       287.89198       98843.451       14329.364       2.9802500    -0.014750000     0.055750000       340.94800       2.0723532     0.017332828
       3317.0000       287.93150       98853.407       14352.143       2.3852500    -0.012000000     -0.14100000       340.75500       2.1013422     0.019719505
       3322.0000       288.00661       98874.777       14443.768       3.4620000      -2.0425000      0.30100000       340.80800       1.9546654     0.012511507
       3327.0000       288.02880       98874.612       14474.913       3.6145000    0.0082500000     -0.33725000       340.99100       2.0096273     0.010270212
       3332.0000       287.99975       98855.570       14478.208       3.8647500     -0.93450000     0.027250000       341.16300       1.9857071     0.014882983
       3337.0000       287.99970       98851.435       14494.939       3.3560000     -0.60750000     -0.27850000       340.91000       2.0093879     0.016130106
       3343.0000       287.99354       98841.908       14495.848       2.9852500    -0.080000010      0.13175000       340.87700       2.0098187     0.010365117
       3348.0000       288.04545       98862.383       14588.759       2.7237500     -0.73625000     -0.13875000       341.01800       2.1122982     0.032779794
       3353.0000       288.05658       98864.037       14643.891       1.6927500     -0.16125000      0.41700000       341.14300       1.9768596     0.012232668
       3358.0000       288.05490       98844.897       14738.315       2.5850000      0.29550000     0.084250000       341.15200       1.9989691     0.010870762
       3363.0000       288.05616       98843.584       14786.020       2.3527500     -0.36750000     0.058250000       341.01600       2.0081243     0.012270865
       3368.0000       288.04512       98845.966       14797.375       3.6532500     -0.69000010     -0.16275000       340.89200       2.0999906     0.017062242
       3373.0000       288.00077       98845.374       14759.739       3.6397500     -0.30900000     -0.19775000       340.80200       2.0324909     0.013563288
       3378.0000       287.97075       98840.514       14711.087       2.5275000     -0.66950010     -0.17200000       340.81500       2.2026275     0.022332385
       3388.0000       287.91462       98847.443       14557.139       1.7640000     -0.10200000      0.96350000       341.20300       2.0624127     0.016328929
       3393.0000       287.89280       98844.196       14488.388       1.9615000    -0.099000010      0.20050000       341.20900       2.0940390     0.017546733
       3398.0000       287.90002       98852.306       14423.967       2.0922500     -0.65400000      0.17650000       341.16700       2.0879323     0.023353756
       3403.0000       287.90005       98857.735       14374.054       1.7925000     -0.56125000      0.15450000       341.09400       2.0342146     0.013078251
       3408.0000       287.90012       98858.247       14331.370       2.8845000     -0.64150010     -0.12000000       340.84700       2.0722605     0.015697948
       3413.0000       287.89387       98843.377       14274.351       2.0690000     -0.27700000    -0.088750000       340.95600       1.8609745     0.018305944
       3418.0000       287.91561       98842.815       14287.057       1.8755000     0.064750000    -0.083500010       341.04200       2.1399269     0.026106763
       3423.0000       287.95013       98852.634       14339.237       2.0017500     -0.21175000     -0.11850000       341.21300       2.0994073     0.015482403
       3428.0000       287.99983       98833.661       14433.654       2.0877500     -0.49125000     0.064750000       341.14800       2.0846517     0.013101098
       3434.0000       288.01209       98832.282       14485.875       2.0650000     -0.30775000     -0.30050000       341.17500       1.9417451     0.013445509
       3439.0000       287.95186       98848.833       14467.339       2.1475000     -0.34825000      0.12475000       341.08500       2.0669044     0.017357486
       3444.0000       287.94345       98846.465       14490.313       2.0715000     -0.26600000    -0.023250000       341.18400       2.0164575     0.014130953
       3449.0000       287.94379       98839.392       14518.093       1.7455000     -0.31725000      0.12775000       341.30000       2.0170742     0.016715023
       3454.0000       287.94488       98841.288       14533.670       2.5880000     -0.18850000     -0.62900000       341.02400       1.9530715     0.014163234
       3459.0000       287.99087       98829.579       14583.568       2.0607500     -0.38450000      0.14600000       341.26900       2.0198238     0.016771088
       3464.0000       288.00987       98826.443       14603.251       2.6665000     -0.95000000    -0.073000010       341.06800       2.0579984     0.015874617
       3469.0000       287.98638       98847.696       14566.451       2.8522500     -0.31825000      0.16800000       341.17400       2.0678116     0.014876339
       3474.0000       287.99791       98854.187       14565.642       2.7272500     -0.31500000     0.057500000       341.05400       2.0204751     0.013581201
       3479.0000       288.02075       98842.479       14581.070       3.6815000    -0.099500010    -0.081000000       340.87700       1.9865688     0.012591326
       3484.0000       288.05215       98843.724       14592.573       2.2822500      -1.0795000      0.75400000       341.18200       2.0267331    0.0099000842
       3489.0000       288.13879       98858.672       14638.338       2.6650000     -0.77450000    -0.046750000       341.01900       2.0594751     0.011143688
       3494.0000       288.16601       98857.229       14641.908       3.3070000     -0.40875000     0.010000000       340.93600       2.0741342     0.018335627
       3499.0000       288.15743       98843.325       14604.029       2.6970000     -0.68500010     -0.25750000       341.10400       1.9933837     0.013914741
       3504.0000       288.15604       98844.534       14587.789       2.9502500      -2.0782500      0.14175000       341.24200       1.9746712     0.011861362
       3509.0000       288.09585       98845.058       14539.416       2.4762500      -1.7540000      0.24325000       341.16200       2.1264675     0.027449965
       3514.0000       288.08833       98843.340       14530.716       2.7965000      -1.0140000      0.51075000       341.11500       2.0035895     0.013074135
       3519.0000       288.13491       98859.986       14576.407       2.3227500    -0.031500000      0.16400000       341.08800       1.9848832     0.011102086
       3525.0000       288.15927       98864.252       14595.809       3.2810000     -0.76825000      0.15225000       341.04100       2.1418129     0.024250543
       3530.0000       288.19514       98843.594       14608.743       2.5330000     0.040000000      0.38275000       341.26700       1.8721057     0.014786171
       3535.0000       288.21102       98842.551       14627.479       2.3225000      -1.4410000    -0.060250000       341.12200       1.9870878     0.011683074
       3540.0000       288.18714       98858.775       14614.839       2.4572500      0.49675000     0.046250000       341.16100       2.0600360     0.011555994
       3545.0000       288.20080       98856.391       14649.159       3.9750000      -1.3020000      0.15675000       340.95200       2.1201172     0.018231809
       3550.0000       288.25002       98843.388       14752.980       2.9870000     -0.41550000      0.57075000       341.27500       1.9360532     0.011415952
       3555.0000       288.25596       98845.143       14784.360       2.2905000     -0.98900000      0.43600000       341.25400       2.0572408     0.020413168
       3560.0000       288.24419       98844.616       14796.403       1.5277500     -0.95200000      0.33725000       341.36500       2.0658365     0.018933622
       3565.0000       288.25461       98843.699       14813.414       2.8240000     -0.51975000    -0.028750000       341.23400       2.1110562     0.016542184
       3570.0000       288.23046       98861.330       14775.391       3.0967500      -1.1255000     -0.77525000       340.97200       2.0823384     0.018604394
       3575.0000       288.24755       98864.171       14774.559       3.4905000      -1.4792500     -0.34925000       340.94400       2.1018492     0.014427770
       3580.0000       288.34622       98843.556       14835.498       3.6275000      -1.2295000     0.054000000       341.11100       2.0683232     0.015912677
       3585.0000       288.36851       98842.446       14834.689       2.6600000      -1.1997500     -0.40750000       340.93700       2.0664047     0.017090380
       3590.0000       288.35808       98858.695       14792.827       3.6642500      -1.2107500      0.64025000       341.25300       2.0689013     0.014016917
       3595.0000       288.35414       98856.123       14774.248       2.7862500      -1.1617500      0.10025000       341.25900       1.9997663     0.011841945
       3600.0000       288.29236       98843.278       14720.299       2.5285000     -0.93000010    -0.092000010       341.25100       2.0699672     0.018939108
       3605.0000       288.28983       98845.116       14712.156       2.5570000     -0.92775010     -0.28750000       341.02400       2.0233008     0.020018300
       3611.0000       288.35429       98841.767       14771.199       2.6560000     -0.72175000    -0.038000000       341.23600       2.0671520     0.016610667
       3616.0000       288.35826       98844.822       14768.042       2.1550000     -0.63150000    -0.098000000       341.18500       2.1123626     0.018086118
       3621.0000       288.34626       98875.555       14748.582       2.2815000     -0.86775000     -0.22250000       341.24700       2.1204998     0.019214085
       3626.0000       288.35616       98874.187       14737.721       2.1737500     -0.25525000    -0.029750000       341.52000       2.0615269     0.012966161
       3631.0000       288.32039       98843.714       14674.636       2.9230000      -1.5185000      0.18425000       341.29200       2.1513550     0.021730920
       3636.0000       288.35860       98841.804       14685.461       2.1545000    -0.030500000     0.091000010       341.43200       2.0506082     0.012137375
       3641.0000       288.48114       98844.579       14741.006       2.0220000     -0.20775000      0.34250000       341.28800       2.0239855     0.013930020
       3646.0000       288.53491       98842.825       14797.140       1.5627500     0.093500000     -0.20750000       341.54200       1.9964041     0.011190915
       3651.0000       288.59733       98855.924       14905.860       2.2627500     -0.17550000    -0.038750000       341.47000       2.0190076     0.013310504
       3656.0000       288.62509       98858.446       14959.725       2.7845000     -0.91500000     0.076000010       341.40900       1.9653417     0.012168928
       3661.0000       288.57765       98842.454       14990.493       2.7487500    -0.062000000      0.10375000       341.18200       2.0889608     0.020332275
       3666.0000       288.60990       98843.492       15034.208       2.5620000      0.50925000     0.074250010       341.71300       1.9544474     0.012602776
       3671.0000       288.68461       98864.236       15070.106       2.3135000     -0.39850000      0.21175000       341.34200       2.1108693     0.019485607
       3676.0000       288.72443       98861.480       15088.597       1.5830000     -0.26150000      0.77975000       341.67100       2.0333089     0.014617299
       3681.0000       288.79866       98846.047       15122.335       3.2252500      0.42275000     -0.49300000       341.39500       2.1100789     0.016765038
       3686.0000       288.82576       98843.614       15115.860       1.6667500     -0.63925000      -1.0700000       341.24300       2.0649070     0.014621154
       3691.0000       288.80017       98833.645       15059.425       4.0900000     -0.37425000      0.60450010       341.57900       2.0274022     0.016660939
       3696.0000       288.80034       98832.852       15028.019       3.1292500     -0.47650000      0.38650000       341.62500       2.0236352     0.017138126
       3702.0000       288.78240       98853.849       14977.278       2.4120000      0.63525000    -0.088000010       341.88000       2.1247487     0.018269292
       3707.0000       288.81975       98851.578       14959.846       2.6275000      0.16025000    -0.067500000       341.55200       1.9683582     0.012485152
       3712.0000       288.89207       98832.026       14961.124       2.6327500      -1.0110000      0.35300000       341.26900       2.0607597     0.020762333
       3717.0000       288.93165       98835.412       14945.357       2.0695000     -0.66875000     0.052500000       341.21300       2.0810199     0.024593915
       3722.0000       289.04242       98845.055       14946.163       2.8695000      0.29750000    -0.043000000       341.12400       2.0160886     0.015279664
       3727.0000       288.99116       98846.016       14912.516       3.0525000     -0.25725000    -0.082000000       341.85100       2.0329279     0.012806321
       3732.0000       288.81054       98858.307       14855.871       2.2080000     -0.39350000      0.15725000       342.34500       1.9803376     0.014695949
       3737.0000       288.74871       98857.838       14800.384       3.4255000     -0.15000000      0.13375000       342.35700       1.9863950     0.013122293
       3742.0000       288.63566       98836.864       14731.233       2.5427500      0.45750000      0.85700010       342.02900       2.0414907     0.020049081
       3747.0000       288.60995       98839.051       14663.909       2.5947500    -0.038250000     -0.17650000       342.30400       1.9533020     0.017218108
       3752.0000       288.69384       98857.017       14579.204       3.0795000      0.41175000      0.18250000       342.08900       2.0411333     0.018152773
       3757.0000       288.72363       98857.443       14532.142       2.2040000      0.32400000     -0.48600000       342.38200       1.8866879     0.013512126
       3762.0000       288.72840       98857.234       14473.701       3.1440000      0.21275000     0.011750000       342.20800       1.9879274     0.013355543
       3767.0000       288.78539       98854.567       14492.693       4.2415000     -0.14975000      0.13550000       341.89200       2.0335672     0.012156673
       3772.0000       288.90285       98836.572       14583.949       3.5015000      0.10650000      0.79525010       342.36000       2.0600594     0.016644078
       3777.0000       288.93524       98838.968       14623.477       3.6167500      0.44875000     -0.45275000       341.25700       1.9118100     0.013241777
       3782.0000       288.95073       98858.524       14682.398       3.7737500      -1.3515000     -0.41750000       342.02400       2.0901586     0.014716053
       3787.0000       288.97227       98855.165       14745.650       3.3270000       1.1225000     -0.20425000       341.80400       2.1135879     0.023730227
       3793.0000       288.93244       98844.997       14781.783       3.9810000     0.094750000     -0.10750000       342.03400       1.9606422     0.012914923
       3798.0000       289.04614       98833.608       14970.997       2.5612500     -0.56175010      0.56450000       342.40800       1.9261097     0.014132222
       3803.0000       289.10678       98830.853       15082.108       4.4487500      0.39450000      0.28550000       341.86600       1.9575107     0.013455022
       3808.0000       289.16977       98859.330       15191.046       2.6662500     -0.94875000      0.51150000       342.18100       2.0242007     0.016467674
       3813.0000       289.21184       98865.312       15260.242       2.1395000      -1.9555000     -0.18725000       342.03000       1.9728939     0.015348150
       3818.0000       289.22927       98861.446       15285.674       2.3642500      -2.4922500     -0.21800000       341.67200       1.9975396     0.015133163
       3823.0000       289.19306       98843.660       15230.341       2.4147500      -1.5590000      0.20000000       342.25400       1.9976482     0.013632182
       3828.0000       289.21431       98845.992       15232.642       3.1810000      -2.0092500    -0.091750000       341.94600       2.0428523     0.020303287
       3833.0000       289.23782       98842.257       15227.621       4.6055000      -1.0342500     -0.36250000       342.11000       1.9145957     0.012716296
       3838.0000       289.34606       98870.327       15246.370       3.4850000      -1.3170000     -0.31950000       342.01400       2.1324309     0.025724706
       3843.0000       289.40816       98876.899       15276.844       2.7280000      -1.8082500      0.15800000       341.98600       2.0728815     0.015600248
       3848.0000       289.44076       98847.646       15313.117       3.8732500      -1.2267500     -0.90800010       342.32400       2.0031760     0.016705030
       3853.0000       289.50049       98842.067       15367.832       3.5255000      -2.2525000      0.71425000       341.79100       1.9875131     0.014310867
       3858.0000       289.56021       98842.612       15438.515       5.1952500      -1.5247500     0.021000000       341.08500       2.1081068     0.025429644
       3863.0000       289.59782       98841.926       15535.527       3.8885000     -0.59825000    -0.010000000       341.52000       2.1556376     0.025234841
       3868.0000       289.63810       98847.832       15597.776       3.9710000      -1.1980000     -0.29800000       342.22100       2.1226717     0.022613857
       3873.0000       289.74140       98876.227       15680.146       4.5770000      -1.8045000     -0.13050000       341.77700       1.9442243     0.012544579
       3878.0000       289.54674       98847.489       15671.605       2.7210000      -1.2315000      0.38100000       342.51100       1.9694778     0.011586313
       3884.0000       289.42544       98841.250       15620.950       4.3510000      -1.6527500    -0.061000000       341.76500       1.9909217     0.012694976
       3889.0000       289.23296       98845.017       15499.158       4.5667500      -1.8547500    -0.048000000       341.88200       1.9418923     0.011686101
       3894.0000       289.15182       98843.457       15403.845       4.8157500      -1.3027500      0.15350000       341.25900       1.9812670     0.015411517
       3899.0000       289.21987       98862.787       15271.726       3.8630000     -0.60625000     -0.19025000       341.32800       2.0887272     0.018699221
       3904.0000       289.25094       98864.784       15185.738       3.4120000      -1.3475000     -0.75575010       341.90300       2.0412022     0.015904706
       3909.0000       289.32319       98835.004       15130.284       3.7510000     -0.73200010     -0.36725000       342.01900       2.0835071     0.016975380
       3914.0000       289.36177       98830.936       15077.627       5.4065000      -1.0510000     -0.16625000       342.09600       2.0339984     0.012899052
       3919.0000       289.37593       98840.357       15045.965       3.8405000      0.49475000     0.082000000       341.66400       2.0792120     0.019470541
       3924.0000       289.40637       98844.750       15027.639       2.4380000      0.41200000      0.87225000       342.69800       2.1684384     0.030511563
       3929.0000       289.46271       98872.430       15029.764       2.8400000     -0.31025000      0.12350000       342.50100       1.9266810     0.012674335
       3934.0000       289.46076       98876.406       15019.443       3.4245000      -1.7367500     -0.35175000       342.19800       1.9573555     0.014989418
       3939.0000       289.39377       98846.203       14996.811       1.4660000      -1.7350000      0.64525000       343.02700       1.9662842     0.015920238
       3944.0000       289.39511       98841.926       15012.626       2.4055000      -1.5195000     -0.28550000       342.19200       2.0273742     0.015639883
       3949.0000       289.40080       98844.751       15053.760       2.8675000     -0.59575000      0.12675000       342.32200       1.9506770     0.013172945
       3954.0000       289.39233       98843.178       15075.759       2.3455000      -1.0450000    -0.045750000       342.68200       1.8568619     0.011637876
       3959.0000       289.44626       98862.572       15145.791       3.4040000     -0.77325000     -0.39750000       341.67500       1.8918825     0.010972607
       3964.0000       289.46409       98864.545       15166.000       1.4825000      -1.4112500      0.50675000       342.06600       1.9958802     0.012356045
       3969.0000       289.39505       98834.670       15114.867       2.8802500      0.33550000     -0.29700000       342.29200       1.9684616     0.014794714
       3975.0000       289.38848       98830.559       15095.319       2.9565000      -1.6690000    -0.022250000       342.38400       2.0582099     0.021930879
       3980.0000       289.39923       98843.403       15052.870       3.0805000      -1.3337500      0.32175000       342.37500       2.0616982     0.022750777
       3985.0000       289.46012       98845.783       15068.261       3.1530000     -0.24250000    -0.026500000       341.92400       1.9159961     0.012030920
       3990.0000       289.62194       98863.974       15147.775       3.1905000      -1.2547500     -0.21950000       342.44300       1.9294074     0.014336483
       3995.0000       289.68429       98864.002       15186.134       3.0412500      -1.6732500      0.71825000       341.89700       2.0349066     0.021921596
       4000.0000       289.74740       98833.489       15245.836       3.3937500     -0.92625000      0.44125000       341.74500       2.1847117     0.031236543
       4005.0000       289.77563       98831.174       15282.863       2.6852500      0.10325000      0.62300000       342.49000       1.9518905     0.012410879
       4010.0000       289.70572       98843.305       15279.025       4.5050000     -0.36100000      0.11575000       341.43900       2.0487069     0.017825019
       4015.0000       289.68942       98845.588       15295.948       3.7457500      0.35775000     -0.31600000       341.85300       1.9737034     0.014446311
       4020.0000       289.72598       98863.915       15355.191       4.0815000     -0.33900000     -0.28150000       341.99600       2.0303438     0.011627502
       4025.0000       289.69893       98864.070       15345.992       5.6500000     -0.92450000     -0.23800000       341.52800       2.1285035     0.022018130
       4030.0000       289.61099       98833.461       15288.930       4.9740000     -0.51000010    -0.074250010       341.45600       1.9992906     0.015401682
       4035.0000       289.58505       98831.184       15251.323       3.9695000     -0.43550000     -0.12000000       341.74800       2.1107466     0.023108420
       4040.0000       289.53388       98840.485       15148.054       3.7262500    -0.033250000     -0.61850010       342.15100       2.1184970     0.022833787
       4045.0000       289.53579       98845.741       15119.119       3.6312500      0.79900000      0.40825000       341.44600       2.0415718    0.0098564777
       4050.0000       289.67073       98874.078       15146.164       3.6027500      0.62700000      0.49400000       341.76000       1.9189218    0.0098058263
       4055.0000       289.66525       98875.316       15160.672       3.8692500      -1.5687500      0.31700000       341.98100       2.0083726     0.018034735
       4060.0000       289.57840       98846.950       15239.980       2.7177500      0.85850010      0.16425000       342.17300       1.7865646     0.019885013
       4066.0000       289.52402       98840.231       15225.375       5.2505000      -1.7567500     0.076750000       341.59100       2.0004532     0.017033810
       4071.0000       289.42414       98830.069       15170.342       2.6197500      -1.6162500      0.21925000       342.41600       2.0450719     0.022453434
       4076.0000       289.35118       98834.183       15103.666       2.5920000     -0.68975000     0.061250000       342.17900       2.0446289     0.018625320
       4081.0000       289.32726       98866.049       14985.591       3.6105000      -1.1662500      0.13825000       341.78200       1.9741110     0.017651301
       4086.0000       289.27143       98871.337       14871.976       3.1892500     -0.55925000     -0.30475000       342.12600       2.0996851     0.019943859
       4091.0000       289.16091       98868.899       14726.650       3.2847500    -0.070500000    -0.027750000       341.67100       2.0981406     0.026651488
       4096.0000       289.11354       98865.331       14639.697       2.3367500      -1.2362500     -0.14400000       342.20300       1.9102874     0.010751713
       4101.0000       289.10107       98843.082       14545.737       2.6505000     -0.21250000      0.51600000       342.20700       1.9142048     0.014102625
       4106.0000       289.08704       98841.795       14496.943       2.4775000      -1.2860000     -0.27150000       342.57400       2.0165628     0.020565250
       4111.0000       289.08864       98856.488       14510.612       2.0537500      -1.1582500     -0.14675000       342.31100       1.8996422     0.011561559
       4116.0000       289.10462       98856.305       14516.228       2.0640000      -1.6690000      0.37850000       342.29300       1.9688759     0.019216887
       4121.0000       289.16473       98859.961       14539.721       2.2240000     0.029250000      0.26975000       342.98100       1.9538638     0.016832334
       4126.0000       289.15235       98855.007       14552.974       3.1640000      -1.7695000     -0.26975000       341.54900       2.0320802     0.020050206
       4131.0000       289.10508       98826.419       14576.629       2.5167500      -1.8890000      0.29925000       342.27100       1.9655831     0.014128954
       4136.0000       289.09486       98826.610       14602.384       2.9760000      -1.7497500      0.55025010       341.93900       1.8780825     0.010625037
       4141.0000       289.05580       98843.813       14633.976       1.9230000      -1.9760000      0.86075000       342.40400       1.9134975    0.0092202908
       4146.0000       289.03210       98847.842       14639.962       1.7020000      -2.5647500      0.21700000       342.34900       1.9541015     0.012331102
       4151.0000       289.05672       98864.880       14647.961       4.1662500      -1.1495000      0.82025000       341.62300       1.9347361     0.023626525
       4157.0000       289.04786       98861.376       14636.721       3.5120000      -1.1987500     -0.77925000       342.11400       1.9879937     0.013250100
       4162.0000       288.99721       98831.514       14586.368       3.0230000      -3.7322500     -0.54975000       342.24300       1.9886795     0.017706496
       4167.0000       288.98619       98832.721       14570.416       3.0990000      0.92775010     -0.31950000       341.70100       1.9456798     0.015907943
       4172.0000       289.00012       98842.409       14565.608       3.7655000      -3.5690000     -0.69750010       341.56800       2.0068386     0.020033008
       4177.0000       289.00012       98848.923       14560.402       2.0650000      -3.1467500     -0.19900000       342.14800       1.9744776     0.015676145
       4182.0000       288.99100       98874.737       14549.707       3.6800000      -2.3562500     -0.48700000       341.41400       2.0233692     0.015539204
       4187.0000       289.01015       98874.653       14574.932       3.2410000      -1.2912500    -0.022250000       341.52500       1.8931439    0.0098948835
       4192.0000       289.03714       98855.608       14612.092       2.3832500      -1.4967500     -0.37725000       342.24900       1.8477183     0.011841264
       4197.0000       289.07615       98851.463       14667.979       3.7722500      -2.5317500      0.52475010       342.03300       1.9293304     0.014476403
       4202.0000       289.14968       98841.314       14767.723       4.4937500      -1.5440000      0.13150000       341.52100       1.8975930     0.012658279
       4207.0000       289.18097       98845.507       14826.915       3.5630000      -2.2112500     -0.42025000       341.43700       2.0302527     0.016670997
       4212.0000       289.20310       98865.405       14884.596       4.6290000      -1.9837500     -0.22875000       341.42500       1.9845575     0.013674405
       4217.0000       289.21426       98870.639       14923.124       3.7925000      -1.2665000      0.33050000       341.69600       2.1166559     0.025499299
       4222.0000       289.19042       98879.399       14927.056       4.6332500     -0.65725000     -0.43750000       341.52500       1.9684463     0.015484764
       4227.0000       289.20925       98874.921       14972.916       3.2827500      -1.6700000     -0.36575000       341.82400       1.9233676     0.011222491
       4232.0000       289.25469       98853.539       15034.764       3.0317500     -0.80050000     -0.20800000       342.16900       1.9205631    0.0092022335
       4237.0000       289.25587       98852.046       15073.620       4.1287500      -3.7550000     -0.25725000       341.54900       1.9178797     0.013304822
       4243.0000       289.26800       98853.438       15143.799       3.5810000      -1.9215000     -0.57600000       341.76800       1.8669259     0.011968035
       4248.0000       289.13899       98870.448       15099.157       3.1040000      -2.2877500      0.13975000       341.51500       2.0915410     0.020234656
       4253.0000       289.08708       98874.081       15081.922       2.0742500      -2.3875000      0.44925000       341.56600       1.9801770     0.015310757
       4258.0000       289.06031       98859.891       15052.381       2.3322500     -0.48975000      0.62150000       341.69500       2.0380986     0.019818720
       4263.0000       289.03804       98854.847       15031.007       2.4392500      -2.4132500    -0.093500000       341.56300       1.9777932     0.014640823
       4268.0000       289.04040       98851.025       15019.604       3.0197500      -2.0270000     -0.53575000       341.84700       1.9135399     0.011320126
       4273.0000       289.11968       98841.311       15045.891       2.7852500      -2.6077500      0.30200000       341.94400       1.9858693     0.012994203
       4278.0000       289.08524       98847.168       14991.326       2.3775000      -1.3320000      0.73175000       342.02800       1.8972747     0.010553289
       4283.0000       288.99997       98866.252       14906.230       3.7780000      0.31975000     -0.10925000       341.60500       2.0200996     0.018868580
       4288.0000       288.91522       98877.174       14794.834       3.3190000     -0.62150000      0.34175000       341.77900       2.0264252     0.015005042
       4293.0000       288.88058       98879.052       14716.335       2.9255000     -0.46825000     -0.92650000       341.43000       2.0322089     0.021987159
       4298.0000       288.93013       98858.274       14655.554       2.7607500      -1.2600000     -0.39175000       341.75500       2.1014159     0.020409342
       4303.0000       288.94993       98852.845       14626.404       2.9180000     -0.51900010      0.19525000       341.73500       1.9904642     0.011468840
       4308.0000       288.96972       98852.333       14621.742       3.9050000    -0.044250000     -0.85275010       341.59600       1.9391005     0.010977613
       4313.0000       289.00692       98852.696       14636.047       4.1630000     -0.37975000     -0.36125000       341.40800       2.0189544     0.015442099
       4318.0000       289.01554       98858.415       14676.328       3.9237500      0.14300000     -0.23325000       341.35200       1.9698517     0.016388014
       4323.0000       289.00536       98879.443       14754.480       4.7030000     -0.16175000      0.13875000       341.66500       2.1322960     0.020467740
       4328.0000       288.96910       98866.413       14851.074       1.8057500      -1.2415000      0.54175000       342.08300       2.0025491     0.015086403
       4334.0000       288.94467       98859.084       14919.380       3.9295000      -1.4170000      0.85575000       341.91400       1.8690374     0.012289746
       4339.0000       288.90962       98838.431       14978.658       2.5720000    -0.071000000       1.2270000       341.86100       1.9821959     0.017042400
       4344.0000       288.89120       98835.546       14993.317       3.3830000     -0.73500000      0.24100000       341.75000       1.8708596     0.011383066
       4349.0000       288.90010       98855.457       14943.681       4.9650000      0.17600000     -0.33800000       341.55400       2.0151780     0.016724263
       4354.0000       288.90021       98862.352       14914.337       4.2632500     -0.46100000     -0.44950000       341.42600       1.9827226     0.012788765
       4359.0000       288.91463       98877.464       14881.395       3.4127500     -0.79625000      0.72925000       341.78400       2.0430939     0.019632340
       4364.0000       288.90314       98879.531       14825.222       3.9097500      0.46175000     -0.59825000       341.57800       1.9205006     0.012014197
       4369.0000       288.85193       98859.731       14739.981       3.8047500     -0.68375000     -0.27575000       341.44300       2.0817948     0.023491827
       4374.0000       288.84315       98852.953       14689.176       2.6492500    -0.052750000      0.50850000       341.84600       2.0223879     0.015720697
       4379.0000       288.85856       98842.391       14637.719       3.6295000     -0.23825000     -0.57175000       341.53000       2.0346593     0.018136935
       4384.0000       288.84872       98841.975       14586.396       3.7865000     -0.96975000       1.0520000       341.92900       2.0491325     0.020020790
       4389.0000       288.85648       98861.178       14569.209       3.9530000     -0.80750010     -0.29300000       341.53400       2.0172182     0.012561159
       4394.0000       288.85530       98867.955       14539.904       4.9590000     -0.27925000      0.10100000       341.56500       1.9519360    0.0096901165
       4399.0000       288.80962       98878.418       14473.925       7.1162510      0.23725000      0.50425000       341.53800       2.1018296     0.018492364
       4404.0000       288.79098       98878.525       14443.961       4.2825000      -2.1675000    -0.029500000       341.33000       1.9890678     0.012398220
       4409.0000       288.81433       98856.901       14452.144       3.8187500     -0.38700000     -0.64725010       341.32900       2.0167568     0.014947011
       4414.0000       288.80311       98852.461       14439.748       4.6152500      -1.4515000     -0.12275000       341.23400       1.9347709     0.013531514
       4419.0000       288.76581       98852.325       14424.959       5.3347500       1.0872500     -0.27925000       341.18700       1.9451206     0.014947371
       4425.0000       288.74186       98854.763       14420.483       4.9052500      -1.0037500     -0.11325000       341.39200       1.9898484     0.012045858
       4430.0000       288.71780       98873.838       14405.827       5.2757500     -0.69950000     -0.16150000       341.47600       1.9606735     0.011230609
       4435.0000       288.68817       98879.193       14405.614       4.9407500     0.048250000     -0.71875010       341.40000       2.1815295     0.024845464
       4440.0000       288.66205       98882.460       14447.621       3.2050000     -0.90300010      0.51975000       341.58400       1.8192645     0.018401688
       4445.0000       288.64209       98875.274       14440.309       3.3130000     -0.42425000     -0.27675000       341.42400       2.1110547     0.019268546
       4450.0000       288.61869       98848.237       14419.633       3.8315000     -0.58025000      0.94850000       341.51300       1.9533744     0.011609173
       4455.0000       288.58870       98840.724       14377.099       4.5795000      0.75025000     -0.69075010       341.29700       2.0205899     0.019201608
       4460.0000       288.56213       98830.700       14278.073       5.2457500      -1.2622500     -0.12775000       341.37300       2.0061158     0.014815205
       4465.0000       288.54215       98832.743       14222.295       4.7392500      0.15100000     -0.28075000       341.40400       2.2100912     0.032529613
       4470.0000       288.51859       98861.806       14206.713       4.5410000      -1.0155000     -0.24750000       341.25700       1.9932104     0.012195972
       4475.0000       288.48881       98871.474       14129.549       3.1705000     -0.62000000      0.21300000       341.44400       1.9443791    0.0098240643
       4480.0000       288.47500       98881.389       14029.798       4.2040000      -1.8990000     -0.13975000       341.29900       2.0584329     0.018477746
       4485.0000       288.44157       98877.368       13937.567       2.6850000      -1.5572500      0.61175000       341.44200       2.0409111     0.014094049
       4490.0000       288.35419       98849.495       13748.438       1.7190000     -0.76400010      0.66600000       341.62400       2.0817102     0.022018839
       4495.0000       288.33200       98840.655       13682.934       3.4165000      -1.8100000      0.56375000       341.61200       2.0308681     0.014580174
       4500.0000       288.35607       98830.596       13709.512       3.7075000      -1.3977500     -0.14975000       341.60600       2.1291763     0.020230689
       4505.0000       288.34593       98826.473       13706.519       5.7760000      -1.9047500     -0.18200000       341.23700       2.0921429     0.018555718
       4510.0000       288.36933       98834.149       13756.163       4.2895000     -0.85400000      -1.3505000       341.29100       1.9217938     0.013654900
       4516.0000       288.34551       98844.927       13782.850       4.2365000     -0.81975000      0.10700000       341.20500       1.9771429     0.013294631
       4521.0000       288.23605       98861.697       13748.818       6.4617510     -0.46625000     -0.53150000       341.23100       2.0751083     0.021573221
       4526.0000       288.23499       98863.188       13797.167       4.2612500      -2.8230000     -0.62450000       341.32500       2.0860328     0.013539090
       4531.0000       288.29611       98863.168       13920.415       3.9810000      -1.2005000      0.42925000       341.26500       2.1742435     0.032164453
       4536.0000       288.30601       98860.723       13966.539       5.2577500      -1.5310000     -0.35200000       341.17900       1.9557025     0.010363938
       4541.0000       288.35756       98837.087       14036.087       5.6670000      -1.5890000     0.034750000       341.09500       2.1021502     0.023172366
       4546.0000       288.36486       98836.550       14050.396       3.0420000      -1.2150000     -0.58550000       341.21400       1.8966033     0.012171429
       4551.0000       288.29012       98851.795       13962.138       1.6215000     -0.49675000       1.3430000       341.32700       2.0382895     0.015780176
       4556.0000       288.29262       98859.486       13961.557       3.2410000      -1.4487500       1.1502500       341.31300       1.9102176     0.012786321
       4561.0000       288.34298       98877.645       13989.789       6.2805000     -0.49025000      -1.3050000       341.28600       1.8995967     0.010330281
       4566.0000       288.36293       98878.956       14015.061       6.9665000      -1.1385000     -0.73950000       341.12800       2.0196368     0.014232457
       4571.0000       288.41070       98868.775       14087.759       4.9275000      -2.0885000      0.30925000       341.13500       2.0762730     0.018941691
       4576.0000       288.40827       98862.593       14105.441       5.4917500      -2.0880000      0.20500000       341.12300       2.2117217     0.035904318
       4581.0000       288.34667       98845.075       14078.158       3.9635000      -1.0860000      0.30650000       341.24300       1.9270262     0.010539718
       4586.0000       288.34279       98840.587       14095.721       3.3090000      -1.2072500      0.72375010       341.36000       2.0896234     0.023876929
       4591.0000       288.34269       98841.393       14113.441       5.9340000      -3.6252500     -0.41150000       341.06300       1.9240563     0.011956725
       4596.0000       288.34878       98846.987       14133.373       4.5865000      -1.1665000      0.25925000       341.24600       1.8406248     0.010660330
       4601.0000       288.41070       98864.142       14197.662       5.4117500      -1.2967500      0.77825000       341.24700       2.0069547     0.014448367
       4607.0000       288.40493       98870.754       14212.444       3.0532500      -1.3177500       1.1645000       341.19200       1.9897163     0.010525888
       4612.0000       288.33639       98879.216       14162.336       6.5140000      -1.2625000     -0.12300000       341.22500       1.8410816     0.015515550
       4617.0000       288.35401       98874.958       14205.348       3.9120000     0.042000000      0.21000000       341.28300       1.9961276     0.014185754
       4622.0000       288.38847       98856.081       14276.887       4.8000000      -1.6432500     -0.69525000       341.22800       2.0304351     0.015865863
       4627.0000       288.41673       98848.933       14338.045       6.2777500      -1.3065000     -0.53375000       340.94400       2.0017345     0.010615043
       4632.0000       288.51479       98836.418       14470.244       4.1180000      0.24775000      0.45975000       341.17100       1.9496455     0.010688880
       4637.0000       288.51805       98838.693       14509.547       4.6830000      -2.8370000     -0.89075010       341.24500       1.9473468    0.0093261131
       4642.0000       288.45433       98853.232       14492.050       4.8085000     -0.93225000     -0.50700000       341.24800       1.9588416    0.0096052311
       4647.0000       288.43430       98861.176       14491.340       4.9290000     -0.80000000    -0.091000010       341.10300       2.0123622     0.015597101
       4652.0000       288.39635       98876.769       14465.002       3.5027500     -0.40475000       1.2027500       341.26400       2.1609679     0.029429953
       4657.0000       288.38482       98880.313       14454.893       3.4500000     -0.23625000    -0.076500010       341.24500       2.0064157     0.012941896
       4662.0000       288.40010       98878.625       14447.458       3.5530000      -1.0362500     0.092750010       341.26000       2.1560090     0.022414755
       4667.0000       288.40017       98872.213       14439.525       3.1072500     -0.70250000      0.39200000       341.41600       2.1032318     0.023669625
       4672.0000       288.40036       98855.637       14429.937       2.3230000      -1.5752500      0.59250000       341.47100       1.9325322     0.010311549
       4677.0000       288.40054       98850.448       14428.690       1.8915000     -0.91850010    -0.051500000       341.14600       1.9940260     0.012613168
       4682.0000       288.39962       98842.468       14426.663       3.6362500      -1.5280000     -0.69675000       341.28000       2.0297942     0.019382598
       4687.0000       288.39939       98844.932       14437.912       4.3050000      -1.1367500      0.14725000       341.33100       2.0503940     0.013525303
       4692.0000       288.41779       98859.019       14474.184       5.2940000     -0.92600010     -0.13075000       341.17800       1.9496803     0.014423769
       4698.0000       288.33925       98870.458       14462.031       4.6857500     -0.98125000    -0.052750000       341.18600       1.9950800     0.016738368
       4703.0000       288.29955       98876.654       14448.002       3.2525000     -0.89625010      0.34875000       341.33000       1.9169840     0.010958349
       4708.0000       288.22998       98884.915       14397.670       4.7802500      -1.1605000      0.69800000       341.29500       2.0529685     0.017125043
       4713.0000       288.18754       98883.634       14361.622       3.5730000      0.46425000      0.42350000       341.40200       1.9867161     0.012917003
       4718.0000       288.16969       98876.215       14332.089       3.1410000     -0.72600000      0.25350000       341.47800       1.9930486     0.016162907
       4723.0000       288.20678       98860.804       14321.438       4.4947500     -0.24800000       1.2545000       341.26000       2.1782432     0.030709117
       4728.0000       288.18534       98852.766       14275.712       4.4022500     -0.19375000      0.66650000       341.32500       2.0273852     0.012186507
       4733.0000       288.15036       98835.607       14220.631       5.8742500      0.39975000     -0.10175000       340.94400       2.0239492     0.014951499
       4738.0000       288.10018       98852.438       14134.387       5.4770000     0.041500000     0.027250000       340.97600       1.9886231    0.0099215809
       4748.0000       288.13038       98876.069       14067.906       4.6832500      0.64525000     -0.44075000       341.16400       2.0141921     0.015867664
       4753.0000       288.15031       98883.723       14053.954       4.2050000     -0.21150000     -0.93650010       341.02000       1.9488446     0.012772935
       4758.0000       288.17030       98885.252       14053.988       5.6845000     -0.23550000     0.026000000       341.01900       1.8924623     0.013473990
       4763.0000       288.20708       98877.609       14077.716       2.1362500      0.96800010     -0.20550000       341.23100       2.0658864     0.013600633
       4768.0000       288.21597       98869.193       14100.015       4.3187500      -1.2285000     -0.31900000       341.17200       1.9885070     0.013693622
       4773.0000       288.19410       98854.229       14120.938       3.8640000      0.31625000      0.17550000       341.20300       2.1108796     0.025462312
       4778.0000       288.24534       98844.662       14189.401       5.3780000       1.0350000     -0.52975000       340.96900       2.1852685     0.026475509
       4783.0000       288.25682       98841.908       14240.535       5.6227500      0.42600000      0.13575000       341.13400       2.1106240     0.020567773
       4789.0000       288.27065       98854.851       14317.910       5.9382500      0.41350000     0.095500010       341.06700       2.0228044     0.014131800
       4794.0000       288.25797       98861.843       14358.967       3.4582500      0.93450000     0.070750010       341.23200       2.0101729     0.012124753
       4799.0000       288.17576       98873.271       14382.735       5.5297500      -1.6952500     -0.45925000       340.99500       2.0433456     0.012458374
       4804.0000       288.13715       98877.933       14388.851       5.2557500      0.24425000     0.087250000       341.04100       2.1207195     0.017263706
       4809.0000       288.11006       98880.653       14372.287       6.1942500       1.2927500    -0.029500000       340.98800       2.0774906     0.014548116
       4814.0000       288.09144       98877.235       14353.004       3.6277500     -0.73975000     0.089000000       341.16200       1.9689219     0.015011190
       4819.0000       288.08635       98861.068       14296.382       4.6612500      0.81200000      0.23900000       341.08400       2.1107745     0.015927969
       4824.0000       288.09786       98853.121       14274.713       4.3625000      0.32975000    -0.095500010       341.08400       2.0045131     0.013373873
       4829.0000       288.13449       98838.994       14266.456       6.4502500      0.51600000     -0.22850000       340.99400       2.0106083     0.018583997
       4834.0000       288.15471       98836.631       14265.303       5.3372500     -0.77275000     -0.71125000       340.95500       1.9816722     0.011238587
       4839.0000       288.20470       98849.165       14308.444       4.3857500      -1.2460000     -0.22225000       341.05300       2.0046357     0.014310662
       4844.0000       288.21216       98856.249       14313.521       4.4070000      -1.2057500      0.64575000       341.21400       1.9840042     0.014672040
       4849.0000       288.16687       98870.789       14285.487       4.3155000      -1.0462500     -0.45100000       341.05200       2.0927442     0.015312865
       4854.0000       288.14685       98878.372       14281.936       4.0292500      0.46075000      0.57975000       341.25500       2.0032402     0.014800649
       4859.0000       288.10981       98883.334       14264.804       2.6935000      0.75775000     -0.54350000       341.20100       1.7856511     0.036250104
       4864.0000       288.09079       98881.708       14265.329       3.4395000     -0.29950000     0.074500000       341.13100       2.1376508     0.026264950
       4869.0000       288.09991       98869.868       14304.046       3.7672500     -0.70950000     -0.24825000       341.24400       2.0104819     0.016943070
       4875.0000       288.09991       98862.633       14327.549       3.5597500      -1.0167500      0.36100000       341.07300       1.9908466     0.015410152
       4880.0000       288.10016       98849.247       14340.757       2.8602500     -0.23075000     -0.10375000       341.27400       2.0954012     0.018449459
       4885.0000       288.10011       98847.215       14352.626       3.4470000      -1.4737500      0.36975000       341.29000       1.9775514     0.015220426
       4890.0000       288.10020       98856.646       14355.804       2.9712500      0.34200000     -0.54000000       341.18500       2.0229111     0.015722157
       4895.0000       288.10036       98862.028       14366.347       4.1342500      -2.3992500      0.39800000       341.17500       1.9989346     0.012308068
       4900.0000       288.09954       98872.990       14374.307       2.7932500     -0.22650000     -0.20500000       341.23000       2.0302120     0.016188870
       4905.0000       288.09926       98878.265       14390.585       1.2547500      0.16500000     0.048000000       341.27500       2.0199178     0.014736949
       4910.0000       288.11258       98881.150       14438.393       4.0530000     -0.90850000      0.38175000       341.10300       1.9928981     0.014809209
       4915.0000       288.09868       98881.484       14436.799       2.8585000     -0.15800000     -0.30325000       341.15000       1.8700353     0.017635225
       4920.0000       288.04864       98880.315       14401.483       3.4572500     -0.23200000     -0.41775000       341.13300       1.9576824     0.011824308
       4925.0000       288.04210       98874.261       14388.288       3.1027500      0.64625000      0.22900000       341.21700       1.9969196     0.020087309
       4930.0000       288.04314       98858.176       14357.701       4.2940000      -1.6027500     -0.42500000       340.99800       2.0563675     0.018864465
       4935.0000       288.04690       98852.030       14330.432       4.3897500       1.3002500    -0.099250000       340.94100       2.0493471     0.016271869
       4940.0000       288.10875       98841.425       14337.695       5.2430000     -0.53550000     -0.36450000       341.05800       2.1178375     0.017724318
       4945.0000       288.11084       98842.783       14307.837       5.9450000      -3.7657500      0.39900000       340.84400       1.9720767     0.014100822
       4950.0000       288.04924       98861.059       14207.079       5.0945000      -2.9202500     0.083500010       340.94900       1.9541463     0.011648389
       4955.0000       288.04322       98868.662       14192.277       5.2722500      -1.3552500     -0.63850000       340.91400       2.0890194     0.015613841
       4960.0000       288.05642       98878.678       14228.174       6.2340000      -1.0485000     -0.18700000       341.03400       2.0871362     0.017102424
       4966.0000       288.04459       98884.050       14236.497       4.2980000     -0.11500000    0.0062500000       341.13400       2.0586395     0.016566668
       4971.0000       288.05755       98881.451       14294.145       4.2030000      0.38400000     0.035000000       341.13300       1.9880343     0.014866366
       4976.0000       288.05129       98879.831       14299.370       4.3227500      0.37575000      0.97375010       341.06300       1.9885702     0.013457091
