MIRICO/SHELL project - Processed LDS file generated on
Fri Jul 21 23:13:48 2017
Time stamp for record start
05/12/2017  10:37: 3.0000
Nb of points in the record
         985
Beam position index
       4.0000000
Beam angle (degrees)
    -0.040000000
Open Path length (m)
       98.010000
****************** Temporal data record ************************
Elapsedtime_sec Temp_K Press_Pa Humidity_ppmv WindX_m/s WindY_m/s WindZ_m/s Speedofsound_m/s CH4vmr_ppmv CH4vmrerror_ppmv  
      0.00000000       287.65323       98807.839       15076.067       4.0332500     -0.93500010     0.048750000       340.72900       1.9313220    0.0087129540
       5.0000131       287.65696       98801.897       15100.407       2.7377500      -1.8715000      0.87375000       340.80600       1.9258340    0.0099928356
       10.000026       287.66754       98790.403       15137.625       4.9777500      -1.9150000     -0.45250000       340.58500       1.9354034    0.0091380971
       14.999999       287.64508       98786.258       15119.308       4.8372500      -1.3365000    -0.091500010       340.53300       1.9489604    0.0086413087
       20.000012       287.55847       98790.350       15031.280       4.8480000      -2.4602500     0.084500010       340.54000       1.9278875    0.0091986556
       25.000025       287.52509       98790.365       14978.975       4.5750000      -2.1972500      0.31550000       340.75500       1.9158366    0.0089671912
       29.999998       287.48927       98787.935       14887.446       3.2017500     -0.70775000     0.070500000       340.94300       1.9207014    0.0088041511
       35.000011       287.49128       98791.091       14867.725       2.9757500      -1.6395000      -1.5652500       340.52100       1.9094343    0.0095635861
       40.000024       287.56477       98797.570       14909.432       2.8502500      -1.1932500      0.55000000       340.71600       1.9384430    0.0098595255
       44.999997       287.55220       98803.306       14902.037       2.5827500       1.8222500     -0.24000000       340.53700       1.9140741     0.010129439
       50.000010       287.51526       98814.240       14913.376       3.1237500      0.26300000    -0.047250000       340.80700       1.9112777     0.010155896
       56.000018       287.48253       98819.727       14903.587       4.0842500     -0.67700000     -0.13850000       340.86000       1.9156023    0.0091334061
       60.999991       287.39357       98820.592       14847.291       3.0307500      -1.4865000     -0.72775010       340.84500       1.9301427    0.0094301418
       66.000004       287.37087       98821.735       14831.486       2.7725000     -0.29500000      0.12275000       340.76900       1.9106651    0.0084324537
       71.000017       287.40002       98820.393       14844.589       4.0335000     -0.23600000      0.52825000       340.70700       1.9292160    0.0090105304
       75.999990       287.40002       98820.439       14834.935       3.4905000     -0.76375000      0.25725000       340.85800       1.8988843    0.0098533711
       81.000003       287.39985       98821.280       14822.596       5.0025000     -0.18875000      0.64525000       340.80000       1.9242695    0.0094887527
       86.000016       287.39992       98819.409       14801.348       3.0107500      0.68050000      0.62250000       340.80300       1.9226300    0.0085360600
       90.999989       287.40087       98817.589       14763.300       3.5495000      0.12700000      0.59475000       340.79400       1.9105908    0.0082576632
       96.000002       287.40122       98811.860       14756.717       2.2972500     -0.60825000      0.56325000       340.85600       1.9036633    0.0098509264
       101.00002       287.40920       98801.396       14755.035       3.2702500     -0.90800010    -0.023000000       340.77500       1.9174860     0.010314918
       105.99999       287.39060       98794.383       14759.531       2.5460000     -0.45300000    -0.014000000       340.85400       1.9030211    0.0098635731
       111.00000       287.36269       98784.336       14803.771       1.8630000      -1.0210000      0.48900000       340.68700       1.9207637    0.0091557988
       116.00001       287.32416       98782.067       14782.899       2.3150000     -0.28225000     -0.28450000       340.74300       1.9024766    0.0097701414
       121.00003       287.25088       98781.962       14729.659       4.0015000      -1.1282500     0.085000000       340.53800       1.9148454    0.0097329081
       126.00000       287.21946       98788.368       14687.280       3.7512500      -1.0720000     -0.15450000       340.61600       1.9185747     0.010088345
       131.00001       287.18827       98802.191       14604.703       2.9320000    -0.078750010     -0.12700000       340.66600       1.9077702    0.0097332518
       136.00003       287.19629       98813.167       14579.036       4.4822500     -0.56325000     -0.19525000       340.69400       1.8798553    0.0093430836
       141.00000       287.25463       98830.286       14590.190       4.7800000     -0.81150000     -0.46175000       340.58900       1.9207742    0.0091730479
       147.00001       287.25455       98840.167       14559.172       4.5017500      -1.4145000     -0.10900000       340.57900       1.9154316    0.0088888329
       152.00002       287.25591       98842.748       14548.476       3.7637500     -0.34100000    -0.012250000       340.81200       1.9199804    0.0093714349
       156.99999       287.21486       98834.210       14522.081       4.0990000     -0.85750000     0.081000000       340.69100       1.8961829    0.0098920867
       162.00001       287.19380       98830.215       14512.101       3.1040000     -0.31250000      0.29400000       340.73300       1.9087361    0.0089684408
       167.00002       287.18503       98826.235       14517.962       3.0792500     -0.56150000    -0.075500000       340.85100       1.9022295    0.0099434328
       171.99999       287.20617       98819.830       14564.996       2.8390000     -0.55775000      0.41875000       340.79300       1.9125949    0.0090132594
       177.00001       287.18443       98815.989       14547.138       2.8755000      -1.8280000     -0.36050000       340.72500       1.9079927    0.0086895266
       182.00002       287.15028       98816.289       14510.906       4.2770000      -2.3450000      0.26200000       340.67600       1.9066677    0.0089509196
       186.99999       287.08514       98807.094       14440.336       3.0335000      -1.5607500      0.41750000       340.54500       1.8922313     0.010616667
       192.00000       287.08097       98800.039       14421.212       2.6272500     -0.96025000     -0.67350010       340.65500       1.8962685    0.0095352254
       197.00002       287.16081       98784.212       14471.738       4.4515000     -0.53775000      0.35325000       340.62000       1.8952584    0.0095041897
       201.99999       287.20048       98781.551       14493.218       3.9905000      -1.4492500     -0.15225000       340.48800       1.9159727    0.0092652177
       207.00000       287.26992       98793.813       14530.396       3.4657500     -0.82275000    -0.077500000       340.65100       1.9011741    0.0094754156
       212.00002       287.31210       98799.637       14558.571       2.9685000      -1.1912500       1.1152500       340.69600       1.9098972    0.0092434383
       216.99999       287.32965       98806.670       14575.422       3.6242500      -1.8945000      0.15025000       340.57300       1.9209560    0.0086680124
       222.00000       287.29377       98821.497       14557.172       4.6777500      -1.3660000     -0.21000000       340.53600       1.9174121    0.0089271584
       227.00002       287.31541       98829.230       14594.404       5.1457500      -2.2852500     -0.21850000       340.51000       1.9343566    0.0091561128
       231.99999       287.35599       98830.153       14660.339       3.3880000      -1.1985000     0.071000000       340.53200       1.9331525    0.0089582347
       238.00000       287.35560       98841.085       14692.576       3.5647500      -1.5925000      0.35375000       340.57600       1.9411222    0.0082396449
       243.00001       287.35434       98842.646       14714.723       3.6045000      -1.3905000     0.060750000       340.57800       1.9141466    0.0095637985
       248.00002       287.29523       98835.058       14686.900       3.5092500      -2.3065000    -0.081000000       340.56800       1.9277152    0.0086900571
       253.00000       287.28765       98830.032       14694.483       2.6565000     -0.44900000      0.11825000       340.68800       1.9259835    0.0093100439
       258.00001       287.33325       98821.769       14741.513       2.4292500     -0.84675000      0.10900000       340.59300       1.9203017    0.0092138771
       263.00002       287.35324       98813.757       14765.014       2.6045000      -2.2407500      0.47025000       340.56600       1.9146320    0.0094554793
       267.99999       287.38949       98804.384       14801.877       2.1455000     -0.21050000      0.10475000       340.70300       1.9357730    0.0088437973
       273.00001       287.40806       98798.429       14809.926       3.2667500      0.23550000      0.00000000       340.63200       1.9221482    0.0091130526
       278.00002       287.38573       98785.112       14759.325       4.2875000      -1.1250000     -0.50000000       340.52100       1.9228704    0.0085344030
       282.99999       287.39678       98786.910       14761.770       3.6032500      -1.0372500    -0.064500000       340.52200       1.9251866    0.0091828894
       288.00001       287.43437       98814.567       14781.614       4.1057500     -0.59475000     0.093750010       340.53200       1.9186943    0.0086930401
       293.00002       287.45413       98818.837       14803.482       3.8677500     -0.17600000      0.13425000       340.61900       1.9219828    0.0093640474
       297.99999       287.49027       98815.542       14855.901       2.1230000      -1.7187500     0.031750000       340.71000       1.9306800    0.0096893640
       303.00001       287.50897       98817.183       14914.422       3.8780000      -1.2965000      0.26350000       340.58600       1.9309177    0.0095165499
       308.00002       287.52979       98800.198       15007.155       4.3855000     -0.60825000     -0.12100000       340.60000       1.9116700     0.010606853
       312.99999       287.50726       98795.924       15042.372       3.3107500      0.20525000      0.39225000       340.74600       1.9150824     0.010157312
       318.00001       287.43244       98815.701       15080.003       1.7365000      -2.3015000    -0.078250010       340.76000       1.9104496    0.0097928609
       324.00001       287.38434       98817.765       15071.492       3.4450000      -2.8902500     -0.70075010       340.72700       1.9274722    0.0086124169
       329.00003       287.29683       98808.073       14970.879       4.7717500      -2.7355000     -0.48675000       340.61000       1.8930910    0.0097701502
       334.00000       287.27737       98803.663       14914.131       3.9152500      -1.2677500   0.00050000000       340.75200       1.9066889    0.0091885983
       339.00001       287.33791       98791.766       14858.089       3.8267500     -0.52850000     -0.25600000       340.85100       1.8977741    0.0094921061
       344.00003       287.35755       98786.901       14807.863       4.0215000     -0.62675010     -0.20700000       340.91400       1.9168158    0.0091569158
       349.00000       287.36845       98786.279       14731.432       3.5355000      -1.0370000     -0.52850000       340.71100       1.9032844    0.0086609062
       354.00001       287.41246       98790.434       14728.870       4.3450000     -0.16675000    -0.060500000       340.66400       1.8988224     0.010943680
       359.00002       287.47647       98799.123       14774.405       3.6330000      -1.8967500      0.35975000       340.70000       1.9145932     0.010383041
       364.00000       287.51679       98807.957       14813.620       3.8022500     -0.60475000    0.0047500000       340.76000       1.8908837     0.010077906
       369.00001       287.60362       98829.227       14929.899       2.0285000      0.92675010      0.16350000       340.90200       1.9117169    0.0088345927
       374.00002       287.62273       98835.417       14981.882       4.4202500      0.45500000     0.051000000       340.57500       1.9327822    0.0093386424
       379.00000       287.56185       98832.859       14970.155       4.9250000     0.096500000      0.11325000       340.74600       1.9312007    0.0099547942
       384.00001       287.54201       98830.680       15006.171       3.3327500      0.58000000    -0.057000000       340.64400       1.9136235    0.0097587973
       389.00002       287.50535       98820.152       15052.266       3.4250000    -0.017750000     -0.24625000       340.71200       1.9256223    0.0091101374
       394.00000       287.48922       98812.211       15089.165       2.0290000     -0.34625000      0.52675000       341.08400       1.9072746     0.010736708
       399.00001       287.51311       98803.239       15188.546       2.7872500     -0.86125000     -0.20225000       340.86600       1.9170502    0.0092894269
       404.00002       287.49896       98797.535       15190.442       2.6492500     0.044250000       1.0185000       341.00300       1.9206922    0.0097076655
       408.99999       287.44976       98787.616       15111.355       3.8612500    -0.096500000    -0.043500000       340.66100       1.9238389    0.0093602940
       415.00000       287.44400       98789.477       15058.306       2.9337500     -0.58225000     -0.13350000       340.77800       1.8978438     0.010725617
       420.00002       287.42078       98801.001       14943.538       2.3327500     -0.57800000      0.50225000       340.88500       1.9105815    0.0090662316
       424.99999       287.45885       98810.267       14921.985      0.96250000     -0.35175000      0.89800010       341.04400       1.9248411    0.0094005808
       430.00000       287.58304       98828.418       14965.855       2.5847500      -2.0232500      0.33500000       341.05100       1.9104851    0.0093727957
       435.00001       287.63614       98836.477       14994.874       2.9857500      0.32225000     0.061500000       341.12300       1.9097739    0.0094472181
       440.00003       287.71033       98843.605       15075.880       3.3050000     -0.74425010      0.35425000       340.97300       1.8504055     0.014271704
       445.00000       287.72091       98841.338       15103.779       2.1875000    -0.064000000      0.17475000       341.22200       1.9085727    0.0093267597
       450.00001       287.64743       98830.022       15098.225       3.1687500     -0.48475000     -0.29275000       340.70200       1.9012267     0.010161848
       455.00003       287.64404       98820.794       15127.677       2.6245000      0.22500000     -0.49250000       341.28000       1.9018088    0.0096969414
       460.00000       287.63186       98801.829       15136.579       1.8310000      0.14400000      0.12875000       341.37700       1.8929079     0.010164102
       465.00001       287.65414       98793.692       15190.395       3.3797500      0.61075000      0.28200000       341.06500       1.8997312     0.010236951
       470.00003       287.74170       98787.227       15310.632       3.8297500     0.040750000     -0.23400000       340.82800       1.8892812     0.011901403
       475.00000       287.77508       98789.430       15371.416       3.5377500      0.14475000     0.071250010       340.72400       1.9069182    0.0096942299
       480.00001       287.77628       98800.561       15427.031       3.0822500     0.055500000     -0.38925000       340.76200       1.9137405     0.010016410
       485.00002       287.82205       98809.702       15468.501       3.1150000      0.56475000      0.31050000       341.26800       1.9263777     0.010143652
       490.00000       287.88216       98828.222       15473.523       2.5967500     -0.26825000      0.30325000       341.46000       1.9258397    0.0092638466
       495.00001       287.92235       98836.298       15495.340       3.5102500      -1.2655000      0.58525000       340.76300       1.9134730    0.0093602514
       500.00002       288.00874       98842.230       15537.903       2.5382500     -0.83475010     0.031750000       340.98300       1.9260238    0.0091264692
       505.99999       288.01833       98841.044       15534.891       3.9487500     -0.19800000      0.12150000       340.86500       1.9185953    0.0090712065
       511.00000       287.96265       98833.599       15512.331       3.5832500      0.14575000     -0.29225000       340.60600       1.9129881    0.0095273865
       516.00002       287.92410       98823.982       15478.757       3.8090000     -0.27275000    -0.042750000       341.06700       1.8848446     0.010754398
       520.99999       287.84196       98805.777       15405.889       2.9847500      0.25650000    0.0042500000       340.87300       1.9174360    0.0099564875
       526.00000       287.82939       98797.579       15368.594       2.7207500      0.12875000      0.16100000       341.05700       1.9181255    0.0095786108
       531.00002       287.86124       98787.380       15355.797       2.1475000     -0.54725000     -0.20400000       340.95500       1.9183114    0.0099689821
       535.99999       287.83254       98787.845       15292.056       2.3360000      0.43025000     -0.33925000       341.34700       1.9219574    0.0094778766
       541.00000       287.79318       98796.805       15189.740       3.6182500     -0.63800000      0.69425000       341.19900       1.8873247     0.010412621
       546.00002       287.80232       98806.472       15168.004       4.5760000      0.21975000     -0.17325000       340.55100       1.8595608     0.010374202
       550.99999       287.76000       98826.687       15124.409       3.2135000      0.21750000      0.22075000       340.81700       1.9145789    0.0092377936
       556.00000       287.83343       98831.178       15169.500       3.4742500     -0.46925000      0.47875000       341.14600       1.9084258    0.0097256027
       561.00001       288.02714       98834.789       15319.775       3.9157500      0.23175000     -0.17425000       340.98900       1.9062766     0.010700462
       566.00003       288.14612       98828.588       15425.528       1.6972500      -1.1640000      0.58325000       341.61200       1.9133982     0.010155471
       571.00000       288.31867       98805.852       15548.207       4.9312500     -0.63300000      0.43200000       340.80700       1.9332118    0.0088816579
       576.00001       288.35533       98797.635       15667.092       3.7805000     -0.46100000     0.050500000       341.20800       1.9157428     0.010008185
       581.00003       288.30612       98789.346       15797.908       3.6320000    0.0095000010     -0.27950000       340.76900       1.9082706    0.0096487222
       586.00000       288.30682       98785.993       15907.654       3.4327500      0.19850000      0.41325000       340.93300       1.9127130     0.010016819
       591.00001       288.25868       98787.712       16052.146       2.8935000     -0.20725000      0.38375000       341.41900       1.9167867    0.0095892276
       597.00002       288.23911       98796.389       16034.487       3.9967500       1.5165000      0.53575000       341.33600       1.9275893    0.0092353287
       601.99999       288.21189       98804.130       15996.491       4.5237500      0.12050000      0.75050000       341.24100       1.9680977    0.0089186308
       607.00001       288.09940       98824.931       15837.125       4.1195000      0.29125000    0.0017500000       341.09900       2.4442353    0.0096266255
       612.00002       288.03736       98833.461       15718.693       3.0637500       1.2705000      -1.2847500       340.67700       2.7280207    0.0099177298
       616.99999       287.99992       98835.839       15611.899       5.6227500      0.15475000      0.28550000       340.55200       2.2910038     0.010127851
       622.00001       288.00053       98833.890       15528.419       3.2835000      0.49200000    -0.032250000       341.05900       2.1359753    0.0097686219
       627.00002       287.97051       98825.149       15416.961       3.4527500      0.20850000      0.52975000       341.14500       2.0801181    0.0089191646
       631.99999       287.95049       98804.123       15298.048       3.2300000     -0.46275000    0.0022500000       341.09400       2.3346007    0.0091595117
       637.00000       287.87031       98790.231       15153.712       2.7390000     0.072750000      0.43950000       341.56900       2.2947466     0.010008121
       642.00002       287.87468       98786.350       15079.948       2.4992500      0.30625000      0.48950000       341.43200       2.3380589    0.0095157691
       646.99999       287.97610       98796.571       15054.504       3.6760000       1.0862500     0.034250000       341.40700       2.4949783    0.0095234733
       652.00000       288.04449       98804.372       15062.043       4.7947500    -0.035500000     -0.82800010       340.63700       2.2985318     0.010219046
       657.00002       288.20011       98824.838       15144.126       5.5672500      0.40425000     -0.49250000       340.20500       2.0793419    0.0092984903
       661.99999       288.27480       98833.417       15224.390       4.6892500      0.85500000      0.46500000       340.93800       1.9700588    0.0099364155
       667.00000       288.30032       98835.845       15321.022       5.5875000     -0.16725000      0.52300000       340.78200       2.0855274    0.0094990680
       672.00002       288.25071       98832.509       15429.139       4.3335000    -0.045500000    -0.015000000       340.67100       2.0747427    0.0093575484
       676.99999       288.26066       98828.095       15587.665       5.4187500    -0.026250000      0.18725000       341.02900       2.2096941    0.0098994005
       682.00000       288.23812       98815.361       15786.912       4.7212500      0.68200000     -0.19900000       340.60200       2.2457067    0.0093050033
       688.00001       288.39558       98801.433       16069.373       3.7067500     -0.42475000     -0.33700000       341.09400       2.1062479     0.010286334
       693.00002       288.37958       98797.657       16130.291       3.5220000      0.52275000     0.069000010       341.42500       2.3309264    0.0097143531
       698.00000       288.24829       98794.926       16022.214       2.8425000    0.0027500000      0.25750000       341.67300       2.8754457     0.010108548
       703.00001       288.14515       98798.589       15909.423       3.9820000     -0.18925000     -0.24975000       341.33500       2.4756645     0.010100538
       708.00002       287.86714       98821.373       15624.143       2.8512500     -0.34425000      0.60800000       341.19800       2.2925844     0.010503425
       713.00000       287.74569       98828.842       15434.170       2.1067500      0.33175000       1.0392500       342.09700       2.0419601    0.0093783258
       718.00001       287.75413       98831.916       15265.904       3.4990000     0.020750000     -0.16225000       340.84000       2.0005351    0.0097916766
       723.00002       287.73645       98832.456       15119.065       4.5077500       2.4315000     -0.29550000       340.50000       2.1132011    0.0089177890
       727.99999       287.80439       98821.452       15007.833       4.8555000      0.70350000     -0.15725000       340.77000       2.2476297    0.0087607067
       733.00001       287.81205       98813.365       14902.763       3.4807500      0.36250000     -0.27850000       340.84900       2.1497896    0.0094919766
       738.00002       287.73735       98801.520       14790.695       2.3987500    0.0065000000      0.67675000       341.70600       2.2592521     0.010823685
       742.99999       287.74004       98797.962       14729.544       4.6467500      -1.1690000     -0.28900000       340.52200       1.9987192     0.010969636
       748.00001       287.74924       98794.922       14692.871       3.1090000     -0.78500000      0.44925000       341.31600       1.9147730     0.010641517
       753.00002       287.79233       98798.535       14692.730       2.2430000      0.93125000      0.43175000       341.84000       1.9319386    0.0090799759
       757.99999       287.94695       98821.293       14751.294       2.9002500     -0.92000000      -1.0897500       341.18200       1.9240195    0.0089661279
       763.00001       288.02439       98828.802       14813.640       3.8880000     -0.94425000     -0.50800000       340.33900       1.9318657     0.010122171
       768.00002       288.07946       98834.633       14893.677       3.9785000      -1.1612500     -0.53150000       340.80100       1.9321658     0.010093512
       772.99999       288.11743       98832.893       14999.536       3.8735000     -0.82225010     -0.30075000       340.58500       1.9236696    0.0095620460
       779.00000       288.08704       98809.616       15179.328       3.7925000     -0.71725000      0.28425000       340.96000       1.8620785     0.012178899
       784.00001       288.10067       98800.281       15300.383       2.9720000      -1.1555000     -0.31800000       341.52700       1.9045998    0.0097500561
       789.00003       288.12519       98787.960       15451.609       2.7592500      -2.4495000      0.21075000       340.99700       1.9187577    0.0094118369
       794.00000       288.15870       98787.242       15546.556       3.3245000     -0.89575000     0.089250010       341.58900       1.9238321    0.0097709878
       799.00001       288.23281       98798.806       15592.802       3.2540000     -0.65750000     -0.55150000       341.01600       1.9044821    0.0099679932
       804.00002       288.26906       98807.630       15637.713       2.6807500     -0.14300000    -0.071500000       341.65600       1.9372087    0.0099782967
       809.00000       288.30755       98828.654       15665.686       3.7392500     -0.99225000     -0.11475000       340.99400       1.9476898     0.010642387
       814.00001       288.31004       98834.714       15668.583       2.9732500     -0.81750010     -0.36650000       341.31400       1.9915245    0.0093639990
       819.00002       288.27449       98832.737       15666.005       4.2265000     -0.98200010     -0.36075000       340.91000       1.9419068    0.0095391106
       824.00000       288.24092       98830.584       15620.768       4.8010000      -2.2237500     -0.23775000       340.99300       1.9423951    0.0095316912
       829.00001       288.16682       98820.025       15512.180       3.3872500     -0.52375000     -0.54925000       341.11200       1.8855176     0.011248242
       834.00002       288.13105       98812.084       15435.399       2.2475000     -0.13125000     -0.17275000       341.19000       1.9248632    0.0095746407
       839.00000       288.11808       98799.253       15341.712       2.6545000     -0.11625000      0.67925010       342.02900       1.9111768    0.0093262082
       844.00001       288.08833       98797.707       15257.803       5.3307500     -0.20150000     -0.33900000       341.61500       1.9217297    0.0093112730
       849.00002       288.04935       98799.490       15162.985       4.2092500     -0.37800000     -0.51950000       341.25100       1.9375770    0.0096692140
       853.99999       288.04323       98804.959       15119.432       4.0347500      0.31575000      0.27025000       340.96000       1.9368618    0.0087268694
       859.00001       288.04344       98828.854       15089.931       4.7905000     -0.74500010      0.18825000       340.72100       1.9435047    0.0085831442
       865.00002       288.04934       98835.526       15087.198       4.5327500      0.20125000      0.68825000       341.11200       1.9235388    0.0094236017
       869.99999       288.09899       98835.150       15148.604       3.2742500      -1.1210000      0.90825000       341.22100       1.9425202    0.0086758852
       875.00000       288.11271       98829.171       15185.585       3.0440000      -1.4070000     0.087000000       341.60000       1.9114539     0.010124884
       880.00001       288.05553       98805.700       15195.147       5.3427500      -1.4335000     -0.59600000       340.57400       1.9532955    0.0091771191
       885.00003       288.12023       98800.302       15273.881       4.4935000     -0.75475000      0.14825000       341.00000       1.9171638     0.010113942
       890.00000       288.25315       98798.766       15380.868       3.7847500     -0.65575000      0.12950000       340.76900       1.9294801    0.0092640677
       895.00001       288.35016       98798.730       15515.030       4.4875000      -1.1837500     -0.55875000       340.68000       1.9226871    0.0092464243
       900.00003       288.54824       98808.910       15730.329       3.6062500      -1.0240000     -0.30025000       340.61200       1.9419865    0.0088639410
       905.00000       288.60692       98813.325       15878.812       3.4947500     -0.47975000     -0.46650000       341.09900       1.9418536    0.0088973931
       910.00001       288.56804       98815.599       16052.967       3.2312500     -0.90200010      0.12625000       340.93300       1.9282538    0.0097805776
       915.00003       288.54581       98815.950       16124.915       3.2362500      -1.2010000     -0.28400000       340.99800       1.9548257    0.0094002751
       920.00000       288.46940       98819.511       16143.544       3.8690000      -1.0045000      0.66850000       341.15600       1.9469569    0.0089892152
       925.00001       288.41970       98814.069       16107.458       4.2172500      -1.0175000      0.50425000       341.08200       1.9458184     0.011161842
       930.00003       288.35928       98794.438       15963.728       4.2685000      -1.5112500      0.13325000       340.68500       1.9239223    0.0089298741
       935.00000       288.32588       98791.949       15874.084       3.4617500      -1.2512500      0.13050000       341.11200       1.9316602    0.0090919609
       940.00001       288.30069       98789.517       15741.758       2.1472500      -1.4920000      0.34200000       341.02200       1.9322993    0.0095958716
       945.00002       288.28698       98796.420       15666.689       2.9315000     -0.50950000      0.65975000       341.33700       1.9404725    0.0092100115
       950.00000       288.31118       98824.800       15641.465       2.7775000     -0.67575000   -0.0042500000       341.10300       1.9089509     0.010268322
       956.00000       288.29011       98832.383       15568.746       2.5195000      0.39375000     0.083000000       341.44000       1.9610603    0.0096649707
       961.00002       288.28024       98834.570       15527.245       3.0870000     -0.60975000    -0.050250000       341.29100       2.1425567     0.010485641
       965.99999       288.20454       98828.394       15441.147       3.4257500   -0.0040000000      0.60350000       340.82800       2.5930883     0.011189896
       971.00000       288.05873       98805.919       15313.890       3.9515000      0.94575010     -0.52175000       341.02500       2.8439272    0.0093296083
       976.00002       287.98790       98797.735       15217.506       3.8645000      -1.0867500      0.22800000       340.62200       2.6287419    0.0099774549
       980.99999       287.88122       98784.807       15095.142       3.0267500      0.20100000     -0.21475000       340.94200       2.1580731    0.0097439611
       986.00000       287.86694       98791.016       15037.483       3.4477500      0.82950000      0.26575000       340.96900       2.1983304    0.0097887528
       991.00002       287.95478       98815.127       15019.169       3.9487500     -0.40875000     -0.55925000       340.86600       2.2068904    0.0093832694
       995.99999       287.95602       98821.415       14990.576       3.9397500      0.93650010      0.11450000       340.83500       2.1336212    0.0092905475
       1001.0000       287.96589       98835.294       14986.390       4.1527500      -2.0442500      0.14975000       341.29800       1.9697466    0.0090315040
       1006.0000       287.93855       98831.337       14986.800       3.7665000     -0.29350000     -0.11850000       340.82200       1.9581211    0.0092143981
       1011.0000       287.84176       98805.701       14980.067       3.8722500     -0.10425000    0.0092500000       340.97700       1.9311702     0.010799373
       1016.0000       287.82939       98797.524       15000.898       2.4460000     -0.43875000     -0.18675000       341.32300       1.9956565     0.010211278
       1021.0000       287.85236       98786.769       15070.184       4.3712500    -0.032750000      0.13275000       341.01800       1.9929355    0.0094709738
       1026.0000       287.84252       98788.941       15077.615       3.3852500      -1.1802500     -0.34800000       340.85500       1.9599794    0.0098484223
       1031.0000       287.85812       98803.676       15071.495       3.2552500      -1.2032500      0.18350000       341.30400       1.9026418     0.010110281
       1036.0000       287.84907       98809.656       15056.590       3.6455000      -2.3227500     0.058250000       341.02000       1.9258487    0.0095215273
       1041.0000       287.78898       98821.852       14993.361       2.8340000      -2.6962500     -0.50025000       340.92100       1.9062351     0.010801216
       1047.0000       287.84555       98821.604       15017.849       2.2860000     -0.86200000     -0.14525000       341.55300       1.9257859    0.0092983598
       1052.0000       287.85750       98817.005       15025.206       3.7437500      -2.9415000      0.24300000       341.26800       1.9094062    0.0097043767
       1057.0000       287.87022       98796.687       15070.451       3.7485000      -1.4457500    -0.016750000       341.24300       1.9298493    0.0089382672
       1062.0000       287.86278       98792.092       15069.430       3.7780000      -1.3462500      0.11850000       341.07200       1.8920020    0.0097645758
       1067.0000       287.83071       98793.635       15038.865       2.6830000      0.93400000     -0.27025000       341.49700       1.9785944     0.010682798
       1072.0000       287.74441       98796.711       14974.850       2.7172500      0.12975000     -0.75050000       341.55700       2.2953052    0.0095850143
       1077.0000       287.71558       98806.539       14903.121       4.4387500     -0.15175000      0.17950000       340.97400       2.0381633    0.0090423936
       1082.0000       287.69425       98833.914       14796.651       3.1257500      -1.1625000     -0.49100000       340.90300       2.0975584    0.0093593578
       1087.0000       287.68530       98835.633       14684.971       3.2657500     -0.99200000     -0.53775000       341.42800       2.0996467    0.0083415297
       1092.0000       287.69394       98833.277       14625.669       2.0732500     -0.11100000      0.59150000       341.59600       2.2952679    0.0084084662
       1097.0000       287.71532       98809.693       14580.274       1.8480000     -0.86325000      0.90025000       341.60900       2.9012001     0.010496771
       1102.0000       287.74401       98802.278       14585.206       4.5357500     -0.62550000      0.32800000       340.94000       2.7344487     0.010811884
       1107.0000       287.83022       98800.784       14675.937       3.1855000      0.62125000     0.089000000       341.21500       3.0690005    0.0096068978
       1112.0000       287.86267       98802.124       14749.867       2.9655000      0.12925000     -0.27825000       341.15600       2.9721660    0.0089599494
       1117.0000       287.87050       98809.603       14835.717       2.6482500      0.76375000      0.36200000       341.60400       3.0062121     0.010811656
       1122.0000       287.86381       98833.117       14970.970       3.9022500      -1.2405000     -0.63750000       341.11800       2.5075101    0.0095745080
       1127.0000       287.83072       98835.417       15006.862       5.1360000     -0.80875000     -0.13850000       341.02200       2.0443588    0.0098990794
       1132.0000       287.74430       98833.201       15007.023       4.2735000      -1.0385000      0.17625000       340.91600       1.9403990    0.0096869281
       1138.0000       287.69571       98809.073       14943.848       4.4520000      0.35975000      0.79225000       341.22300       1.9501009     0.010404144
       1143.0000       287.68767       98801.434       14913.152       4.8092500      -1.3400000     -0.50850000       340.87700       1.9250888    0.0086165470
       1148.0000       287.73428       98795.691       14905.512       3.7557500     -0.41175000     -0.40750000       340.92900       1.9323151    0.0080936534
       1153.0000       287.75418       98797.447       14874.183       3.7700000     -0.37650000     -0.13675000       340.84500       1.9419567    0.0086671886
       1158.0000       287.79042       98822.700       14833.718       3.4207500     -0.10825000    -0.093250010       341.02500       1.9171651    0.0083896505
       1163.0000       287.80906       98828.982       14795.978       3.5167500      0.33550000      0.55525000       341.29000       1.9314626    0.0088317497
       1168.0000       287.78666       98829.997       14704.992       3.9877500      0.22400000     -0.37025000       340.95200       2.0004644    0.0094675210
       1173.0000       287.79841       98827.430       14687.820       3.7282500      -2.1550000     -0.68800000       341.15300       2.0654356    0.0088721603
       1178.0000       287.84865       98801.856       14741.550       3.4402500     -0.33000000     -0.17100000       341.01300       1.9913558    0.0096531521
       1183.0000       287.85770       98795.438       14759.908       3.8077500      -2.0810000      0.34075000       341.06200       1.9291259    0.0084964944
       1188.0000       287.84209       98799.743       14784.286       3.9872500     -0.71725000      0.77050010       340.95200       1.9094256    0.0099581172
       1193.0000       287.85189       98804.285       14833.598       4.7285000     -0.76825000     -0.36625000       340.86100       1.9086616     0.010382079
       1198.0000       287.84363       98827.083       14883.358       3.2500000     -0.94675000       1.4895000       341.20800       1.9483835    0.0082490486
       1203.0000       287.84472       98834.492       14922.431       5.1325000     0.085750010     -0.14550000       340.87000       1.9259488    0.0094861358
       1208.0000       287.87539       98836.069       15004.559       5.5537500      -1.0357500     -0.13925000       340.82400       1.9154479    0.0097162106
       1213.0000       287.90531       98832.383       15055.020       3.7372500     -0.19175000      0.35375000       341.11700       1.9381815    0.0086864137
       1218.0000       287.92000       98805.240       15064.402       4.1562500      -2.3567500     -0.18650000       340.78500       1.9369443    0.0089837316
       1223.0000       287.95156       98801.130       15077.045       3.5235000     -0.68500010   -0.0040000000       340.89100       1.9358911    0.0084997757
       1229.0000       288.00819       98810.994       15057.602       3.0732500      -1.1065000      0.15675000       341.03100       1.9502269    0.0091114194
       1234.0000       288.07206       98816.076       15096.931       3.4572500    -0.036500000     0.034250000       340.80100       1.9327658    0.0082829828
       1239.0000       288.17132       98841.987       15167.088       3.8785000     -0.44200000     -0.11600000       340.63500       1.9110379    0.0095945616
       1244.0000       288.22700       98846.025       15227.320       3.3262500     0.038250000     -0.21075000       340.81500       1.9395664    0.0084817686
       1249.0000       288.26399       98831.956       15331.161       3.6365000     -0.86975000      0.11275000       341.03800       1.9333461    0.0090232140
       1254.0000       288.32432       98823.210       15419.814       3.4817500     -0.75975000       1.1442500       341.03900       1.9708679    0.0090508582
       1259.0000       288.38873       98798.085       15486.589       3.6577500      0.35875000     0.043500000       340.98200       1.9276725     0.010471816
       1264.0000       288.41482       98796.238       15560.860       2.2762500      0.89800010     0.084500010       341.07400       2.0538892     0.010522404
       1269.0000       288.45199       98813.149       15676.966       3.3015000     -0.22175000      0.59825000       341.27100       2.0566575     0.010084531
       1274.0000       288.46487       98817.171       15734.551       4.0242500      0.41775000     -0.49375000       340.92400       2.2394171    0.0082979423
       1279.0000       288.43040       98834.300       15775.341       4.0182500      0.20650000     -0.13575000       341.16800       2.3644889    0.0096977546
       1284.0000       288.38684       98834.271       15764.603       2.7137500     0.026250000     -0.66875000       341.41800       2.7904410    0.0097350252
       1289.0000       288.32419       98807.195       15676.165       2.7152500      -1.1490000     -0.27300000       341.58000       2.5185425    0.0096968507
       1294.0000       288.28445       98800.672       15628.786       3.8355000     -0.44625000    -0.083000000       341.00700       2.5935114    0.0099658770
       1299.0000       288.21008       98795.261       15557.227       3.5157500     -0.35275000     -0.33275000       341.16100       2.4742821    0.0086573692
       1304.0000       288.17779       98798.658       15501.894       2.5532500    -0.094750000      0.96075000       341.63800       2.4176844    0.0093522327
       1309.0000       288.21295       98823.099       15512.096       4.5947500     -0.31525000      0.44350000       341.31200       2.2269797    0.0096268694
       1314.0000       288.19921       98829.636       15435.229       4.1472500     0.058750000      0.49575000       340.96200       2.0525379    0.0089285241
       1320.0000       288.14597       98834.827       15248.686       3.9937500     -0.24425000     -0.12825000       341.08900       1.9492781    0.0093987683
       1325.0000       288.14185       98830.141       15163.344       3.6567500     -0.93075010     -0.34775000       341.11500       1.9416593    0.0091761892
       1330.0000       288.12055       98805.576       15029.883       3.5257500     -0.25600000     -0.37500000       341.18500       1.9074309    0.0098149728
       1335.0000       288.15911       98800.119       15013.483       2.9665000     0.074250010     -0.29775000       340.95800       1.9077451     0.010844334
       1340.0000       288.27092       98797.711       15097.421       2.1337500     -0.42100000      0.39775000       341.42200       1.9223743    0.0091322280
       1345.0000       288.34148       98799.336       15178.980       2.7455000      -2.1195000     -0.11525000       341.38600       2.1295404    0.0099691439
       1350.0000       288.45059       98815.425       15335.906       2.5682500      -1.7950000     -0.21500000       341.38100       2.2157737     0.010188738
       1355.0000       288.48177       98818.612       15435.283       2.6990000      -2.4130000      0.36450000       341.31800       2.0534323     0.010189270
       1360.0000       288.44548       98818.116       15543.321       2.9352500      -1.6630000     -0.37325000       341.31200       1.9390169     0.012890640
       1365.0000       288.45541       98814.225       15617.422       3.5432500      -1.1197500     0.015250000       341.65700       1.9235663     0.011208214
       1370.0000       288.44318       98796.399       15664.758       3.0145000      -1.7292500      0.22250000       341.69700       1.9211079    0.0095703339
       1375.0000       288.44967       98799.214       15688.027       1.7747500      -2.2130000      0.18350000       342.44600       1.9067880     0.010962105
       1380.0000       288.52179       98813.771       15706.359       2.9530000     -0.85625000     -0.15800000       341.87200       1.8949772     0.010432651
       1385.0000       288.50354       98817.785       15670.780       1.1910000     -0.70400010       1.1452500       342.19100       1.8930139     0.010974928
       1390.0000       288.41801       98835.354       15573.086       1.8865000      0.65050010      0.36450000       342.89700       1.9502756     0.011034800
       1395.0000       288.37783       98833.307       15497.901       2.7570000       1.1137500      0.39600000       342.22200       2.2952019     0.010115746
       1400.0000       288.26984       98804.561       15377.826       3.0740000      0.75350000      0.12925000       341.66900       2.5281868     0.011167510
       1405.0000       288.29126       98800.663       15312.942       4.0150000      0.98650000   -0.0022500000       341.45300       2.4317181    0.0099982522
       1411.0000       288.44024       98801.471       15265.469       4.6527500      -1.3092500      0.10700000       341.14600       1.9727279    0.0095289254
       1416.0000       288.50021       98807.749       15231.757       5.5427500     -0.63150000     -0.18475000       341.35300       1.9852141    0.0095467322
       1421.0000       288.59982       98832.384       15199.198       4.3700000     0.070250000      0.55800000       341.96100       2.0813690    0.0099470928
       1426.0000       288.65184       98836.051       15224.350       4.0905000     -0.17325000      0.29150000       341.80400       2.3573098     0.011529492
       1431.0000       288.63608       98832.633       15268.921       5.9365000      0.96975000     -0.36575000       341.03700       2.1588978     0.010588517
       1436.0000       288.67540       98828.850       15358.419       5.5497500      0.76475010     -0.14825000       341.07400       2.2727399    0.0082344718
       1441.0000       288.74934       98812.603       15535.911       4.5075000      -1.0820000     0.051500000       341.86200       2.1745672     0.011523952
       1446.0000       288.78089       98814.039       15627.722       3.9407500     -0.34200000     -0.36825000       341.94800       2.0167027     0.010828111
       1451.0000       288.79453       98823.992       15708.787       5.5580000     -0.70725010    -0.053000000       341.74900       1.9895138     0.010922018
       1456.0000       288.82461       98828.865       15783.014       2.7457500      0.27250000      -1.0725000       342.34700       1.9657187    0.0097196668
       1461.0000       288.83745       98845.675       15821.130       4.6585000    -0.067250010     -0.25400000       341.18000       1.9404110     0.010080441
       1466.0000       288.87597       98839.651       15870.756       4.8600000      0.39750000      0.11050000       341.39100       1.9242671     0.010131862
       1471.0000       288.94877       98814.641       15950.099       4.9970000       1.3680000     -0.18175000       341.75200       1.9076943     0.019291978
       1476.0000       288.97989       98810.252       15957.469       5.3345000     -0.57375000     -0.33750000       340.95400       2.0781083     0.010580650
       1481.0000       289.00349       98802.685       15917.494       6.3132500     -0.42125000    -0.048250000       340.68700       1.9942641    0.0093055442
       1486.0000       289.01480       98803.285       15892.869       4.6632500      0.82850000     -0.51225000       341.73100       1.9312306     0.011983527
       1491.0000       288.99986       98821.179       15834.862       4.8657500     -0.39525000     -0.21550000       340.62000       1.9266650    0.0092393828
       1497.0000       289.01479       98820.158       15801.658       4.3987500      0.91825000     -0.64725010       340.94700       1.9014603     0.010493302
       1502.0000       289.00623       98820.098       15765.713       2.9155000     -0.33550000      0.43400000       341.65400       1.9683769    0.0086092810
       1507.0000       288.96989       98817.314       15693.492       4.3522500     -0.34425000      0.72025000       341.57400       1.9886507     0.011413146
       1512.0000       288.95010       98819.074       15656.603       3.6647500     -0.16650000      0.66875000       341.77200       1.9217126     0.010580276
       1517.0000       288.93031       98823.292       15635.500       3.4675000     -0.33700000     -0.62475000       341.27100       1.9146804     0.011636463
       1522.0000       288.88744       98831.338       15623.626       3.5335000     -0.96275000     -0.25700000       341.72000       2.0131616     0.010727324
       1527.0000       288.90052       98831.031       15624.380       2.8797500     0.040750000      0.24550000       341.98200       1.9608724    0.0093941533
       1532.0000       288.95033       98833.063       15659.952       4.7362500     0.083000000      0.16625000       341.13900       1.9417512    0.0093825131
       1537.0000       289.01471       98806.540       15639.248       4.9080000     -0.17775000     -0.14200000       341.36400       1.9076919     0.011735438
       1542.0000       289.01889       98800.452       15625.242       3.9115000      -1.7717500      0.14025000       341.70500       1.9117485     0.010864962
       1547.0000       288.93941       98809.812       15583.597       5.1840000     -0.96675000      0.13200000       340.69200       1.9171580    0.0088435210
       1552.0000       288.89969       98813.442       15569.192       3.9115000      0.29950000      0.29175000       341.30900       1.9124764    0.0096653632
       1557.0000       288.83023       98840.354       15601.118       4.3430000      -1.6660000     -0.12675000       341.10900       1.9071242     0.011882892
       1562.0000       288.78816       98846.645       15598.087       3.4462500      -2.0122500     -0.45875000       341.58000       1.9402795     0.010379897
       1567.0000       288.77073       98840.646       15585.487       4.4210000     -0.32250000     -0.17575000       341.46200       1.8935601     0.010848274
       1572.0000       288.79381       98813.807       15587.126       3.4895000      -1.4662500     -0.39775000       341.54000       1.9466363    0.0095958680
       1577.0000       288.81537       98810.126       15527.973       3.0405000      0.14050000     -0.12525000       341.99300       1.9701072     0.010245097
       1582.0000       288.83804       98801.216       15399.922       2.8585000     -0.14550000       1.2077500       342.25200       1.9512472    0.0099055226
       1588.0000       288.97337       98828.484       15382.890       3.2492500     -0.61125000      0.58175000       341.62600       1.9506467    0.0089165404
       1593.0000       289.02178       98834.941       15389.968       3.7142500      -2.2562500      0.81075010       341.54500       1.8902394     0.010813624
       1598.0000       289.07493       98826.788       15522.842       4.0970000      -1.3417500     -0.11900000       341.79900       1.9168560     0.010219405
       1603.0000       289.06968       98825.673       15562.239       2.0177500      -1.6647500      0.19925000       342.34100       1.8989041     0.010520063
       1608.0000       288.98739       98813.649       15582.643       2.9320000      -1.6585000    -0.028250000       342.01100       1.9030918     0.010729488
       1613.0000       288.89460       98812.375       15544.662       2.1995000      -1.3820000     0.087000000       341.29000       1.9006636    0.0095987278
       1618.0000       288.70414       98830.198       15405.400       3.2785000      -1.9535000     -0.12450000       341.58000       1.9055849     0.011725711
       1623.0000       288.61782       98832.601       15314.459       2.3060000      -1.0087500      0.32525000       342.12400       1.8417177     0.014926621
       1628.0000       288.56324       98827.895       15195.758       3.1197500      -1.0797500      0.30475000       342.14800       1.9226897    0.0097751747
       1633.0000       288.52670       98825.584       15105.070       2.7040000     -0.26350000     0.073000010       342.34400       1.8853121     0.011260378
       1638.0000       288.60512       98808.779       15070.238       3.7387500      0.13700000     -0.18250000       341.48800       1.9045667     0.010636287
       1643.0000       288.61232       98806.585       15001.253       4.3440000     0.027750000     -0.25725000       341.31300       1.8949820     0.010057535
       1648.0000       288.56626       98823.513       14896.468       4.0750000     -0.91150000     -0.18200000       340.99300       1.8970828     0.010700469
       1653.0000       288.54662       98827.326       14832.911       5.9015000     -0.18600000     -0.14750000       341.08100       1.9376390    0.0092454275
       1658.0000       288.49465       98832.161       14753.630       4.6920000      -1.3280000      0.28400000       341.22100       1.9244016     0.010186922
       1663.0000       288.48710       98832.600       14725.712       4.6945000      0.11750000     -0.29500000       341.25600       1.9054431     0.011250067
       1668.0000       288.54747       98814.718       14777.663       5.4557500     -0.75775000     -0.11050000       340.67500       1.9298891    0.0099001765
       1673.0000       288.55602       98812.295       14791.067       4.3817500      -1.8042500     -0.19225000       341.17500       1.8578254     0.012442233
       1679.0000       288.54351       98824.927       14811.189       4.4672500     -0.97400000      0.35300000       341.49600       1.8945563     0.011501943
       1684.0000       288.55351       98826.611       14832.805       5.4932500     -0.91475000      0.88025000       341.61000       1.9109794    0.0097634221
       1689.0000       288.53004       98835.127       14826.124       3.4000000     -0.42675000      0.18025000       341.76400       1.9036784     0.010452880
       1694.0000       288.54740       98831.871       14854.018       4.1162500      0.67500000     -0.42300000       341.18000       1.8895380     0.010144078
       1699.0000       288.63256       98803.364       14927.755       2.1312500     -0.31100000    -0.017250000       341.64600       1.9751467     0.010415151
       1704.0000       288.66865       98801.078       14969.088       4.2447500      0.41175000     -0.17425000       341.42000       2.4215287     0.011529195
       1709.0000       288.68222       98813.499       14986.773       4.7697500     -0.91500000     -0.20300000       340.80400       2.7280404    0.0095900033
       1714.0000       288.71254       98815.870       15044.404       5.2995000      -1.6860000     0.092500000       340.78800       2.5464628     0.011576321
       1719.0000       288.76473       98831.383       15125.020       3.0795000       1.1270000      0.78700010       341.84600       2.3256678     0.011660657
       1724.0000       288.75759       98834.163       15179.991       2.9400000      0.24200000      0.50775000       341.99400       2.7445698     0.012631260
       1729.0000       288.71868       98813.419       15294.149       2.6855000     0.050750000     -0.30950000       341.20000       3.1546549    0.0096762546
       1734.0000       288.69498       98812.317       15309.925       4.0472500   -0.0017500000      0.18750000       340.99400       2.9354145     0.010803198
       1739.0000       288.58393       98824.693       15220.023       4.7572500     -0.81475000     -0.27950000       341.01200       2.2585806    0.0099372975
       1744.0000       288.57849       98826.263       15188.894       3.6257500       1.4847500      0.80400000       341.45900       2.1002029     0.010438371
       1749.0000       288.66042       98835.328       15098.822       3.3437500      -1.7025000     -0.72425000       341.44100       2.0382870     0.010906669
       1754.0000       288.71425       98831.972       15095.744       4.7710000     -0.50450000      0.23975000       340.90400       1.9442017     0.012209767
       1759.0000       288.86524       98803.716       15214.024       4.4847500      0.13150000      0.18875000       340.84000       1.9265693     0.011011378
       1764.0000       288.87665       98801.361       15225.480       2.8627500     -0.49800000      0.34775000       341.01100       1.9457743     0.010092241
       1770.0000       288.77137       98814.005       15227.186       4.3752500      -1.2397500      0.33050000       341.55800       1.9105340     0.011496632
       1775.0000       288.72499       98816.623       15198.589       3.9035000     -0.28575000      0.33950000       341.42200       1.9287273    0.0096194574
       1780.0000       288.60207       98832.405       15060.985       4.1392500      -1.4215000      0.12900000       341.58300       1.8857319     0.012231349
       1785.0000       288.56113       98833.560       15032.236       3.8170000     -0.50875000     -0.14425000       341.27500       1.9401528    0.0099040118
       1790.0000       288.61187       98811.706       15072.246       4.9527500     -0.63550000     -0.33550000       340.87400       1.9000777     0.011837983
       1795.0000       288.59551       98813.608       15058.880       5.2200000      -1.5567500     0.032750000       341.38500       1.9122899     0.010225401
       1800.0000       288.55797       98828.427       15067.102       3.9432500     -0.85500000     -0.29225000       341.50800       1.9093886     0.010144546
       1805.0000       288.53800       98833.492       15043.691       4.2485000     -0.30800000      0.26725000       341.29800       1.9155408     0.010420853
       1810.0000       288.47813       98848.006       14933.318       4.2640000     -0.73950000     0.048750000       341.04500       1.8894861     0.011069309
       1815.0000       288.49655       98848.330       14939.998       3.3867500     -0.57700000      0.40750000       341.32400       1.9143362     0.010275061
       1820.0000       288.59550       98828.614       15010.672       4.1280000     -0.86475000     -0.34125000       341.03800       1.8816165     0.012115883
       1825.0000       288.61893       98828.175       15057.737       3.0092500      -1.4520000     -0.39050000       341.77600       1.8915331     0.013300209
       1830.0000       288.67907       98836.373       15185.181       3.7120000      0.63700000     -0.70225000       340.71700       1.9198981     0.010311534
       1835.0000       288.65476       98834.773       15219.843       3.6337500     -0.50275000     -0.25600000       341.51300       1.9159790     0.011607521
       1840.0000       288.51893       98838.757       15196.683       2.6420000     -0.50900000      0.12725000       341.96100       2.1344464     0.010805897
       1845.0000       288.46515       98835.146       15180.028       3.4190000     0.058500000      0.25300000       341.72900       2.0398522     0.013089430
       1850.0000       288.39135       98811.993       15122.380       2.3585000      0.14525000      0.10750000       342.13000       1.9458235     0.011319289
       1855.0000       288.37984       98812.342       15096.410       3.6865000    -0.068500000      0.81450000       341.84200       2.0534209     0.010293145
       1861.0000       288.43818       98832.307       15077.728       2.8492500      0.68550000      0.32725000       341.75800       1.9341112     0.010837471
       1866.0000       288.47683       98831.740       15048.652       4.9250000      -1.4600000      0.36275000       341.23300       2.0608772     0.010746832
       1871.0000       288.55810       98832.818       15031.157       4.6072500      -2.0865000      0.18200000       341.31100       1.9305853     0.013728673
       1876.0000       288.57054       98829.276       14981.590       4.0625000      -1.0787500      0.13375000       341.61800       1.9032477     0.011748489
       1881.0000       288.54875       98806.111       14883.601       2.8005000     -0.58850000      0.25475000       341.96500       1.9114078    0.0098437848
       1886.0000       288.55867       98807.355       14863.276       2.0262500     -0.31075000    -0.093500000       341.79100       1.9231831    0.0096970950
       1891.0000       288.54357       98826.657       14854.009       2.8465000    -0.036500000     0.077000010       341.74300       1.9244451     0.010152834
       1896.0000       288.55248       98826.992       14873.878       1.8880000     -0.47075000      0.36625000       342.18700       1.8908603     0.011248742
       1901.0000       288.59465       98824.504       14956.434       2.4590000      0.17050000      0.22150000       342.05100       1.9479629     0.010614275
       1906.0000       288.62479       98827.473       15002.113       5.2975000     -0.84100000    -0.087500010       340.98300       1.9737967     0.011650215
       1911.0000       288.64608       98823.352       15027.908       5.1200000     -0.81700000     -0.10650000       341.40300       1.9172098     0.011815788
       1916.0000       288.66587       98826.049       15096.198       2.1950000     -0.25475000     -0.30900000       341.80300       1.9163042     0.010903379
       1921.0000       288.71222       98845.629       15203.046       2.9362500      0.33875000      0.25000000       341.81000       1.8998329     0.011515885
       1926.0000       288.70525       98839.762       15251.145       3.1045000     -0.83150010      -1.2827500       341.31000       1.9011802     0.011454097
       1931.0000       288.65517       98812.956       15319.621       4.5810000     -0.11850000     -0.22925000       341.13000       1.9319955     0.011678063
       1936.0000       288.63517       98812.302       15311.124       2.7620000      0.61775000     -0.38675000       341.27800       1.9625510    0.0098069464
       1941.0000       288.58871       98811.894       15214.230       3.0420000      -1.6370000      0.52500000       341.59400       1.9408777     0.010187040
       1946.0000       288.59617       98816.218       15187.753       5.5095000      -2.9582500     -0.44300000       340.88400       1.9810187     0.010589800
       1952.0000       288.65674       98845.234       15159.192       5.1255000     -0.60125010      -1.1125000       340.89100       1.9032998     0.012040879
       1957.0000       288.64008       98826.734       15100.831       3.6755000     -0.86475000     0.016500000       341.42200       1.9148231     0.010505586
       1962.0000       288.65006       98823.400       15074.299       4.8205000      0.34175000    -0.066250000       341.46200       1.9108324     0.012404794
       1967.0000       288.66009       98823.747       15051.735       3.2172500     -0.73700000      0.34175000       341.57400       1.9255040    0.0097318478
       1972.0000       288.62989       98825.352       14983.234       4.8985000     -0.19750000     -0.81100000       340.66900       1.8715239     0.012388134
       1977.0000       288.68473       98822.418       15033.895       4.4062500     -0.41775000      0.60750000       341.78800       1.9168178     0.012592574
       1982.0000       288.81161       98828.203       15171.924       4.7770000      -1.3475000     -0.11525000       341.44900       1.9031600     0.011754919
       1987.0000       288.85436       98801.157       15249.369       4.5695000     -0.61400000     -0.50000000       341.48800       1.8905894     0.013107415
       1992.0000       288.86834       98794.955       15309.557       3.8155000      -2.2007500      0.93850000       341.61500       1.8760571     0.012332286
       1997.0000       288.78435       98816.034       15292.612       4.6145000     -0.73125000      0.13850000       341.47800       1.9067644     0.011502385
       2002.0000       288.74360       98817.442       15315.665       4.2822500      -2.7715000      0.96875010       341.74700       1.8837596     0.014065431
       2007.0000       288.73037       98813.394       15407.361       2.5207500     -0.93000010      0.55900000       342.34800       1.9014783     0.012223719
       2012.0000       288.70076       98816.690       15434.645       4.4265000      0.71625010    -0.083000000       341.63900       1.9000257     0.010754605
       2017.0000       288.67121       98817.529       15437.307       5.5220000     -0.76000010     -0.11700000       341.64200       1.8809234     0.015740691
       2022.0000       288.65777       98800.198       15448.384       2.1895000    -0.098500010     -0.15600000       341.72700       2.0765950     0.012165127
       2027.0000       288.61608       98808.502       15369.436       2.3965000     -0.42025000     -0.23200000       341.93100       1.9826471     0.011411812
       2032.0000       288.54480       98839.183       15205.807       3.5282500     -0.37525000      0.62900000       341.80300       1.9040542     0.014247012
       2038.0000       288.50966       98829.264       15072.973       4.7640000     -0.32975000     -0.20075000       340.90600       1.9206824     0.014499518
       2043.0000       288.49061       98830.216       14966.077       3.6560000      0.57250010      0.41925000       341.46500       2.0853139     0.011016573
       2048.0000       288.51454       98824.450       14882.031       4.8487500     -0.16100000      0.27650000       341.60400       2.0749771     0.012806791
       2053.0000       288.50354       98823.006       14795.202       3.0587500      -1.3602500      0.36250000       341.82700       1.9650571     0.011987290
       2058.0000       288.46731       98841.966       14676.738       3.1710000     0.040750000     0.049000000       341.91700       1.9056897     0.010912547
       2063.0000       288.44758       98844.181       14602.176       2.5565000     -0.58350000      0.15275000       342.14400       1.8946998     0.011329876
       2068.0000       288.40986       98826.023       14547.583       2.5275000     -0.46600000    -0.049750000       342.05300       1.8854474     0.012162088
       2073.0000       288.39091       98823.513       14518.747       4.3392500     -0.43600000     -0.28850000       342.12500       1.9096286     0.011146945
       2078.0000       288.39977       98823.543       14536.382       4.5797500      -1.2335000     -0.52350000       341.89600       1.8843171     0.011090165
       2083.0000       288.39966       98823.926       14542.325       3.3957500      -1.3212500      0.69250010       341.91800       1.9167977     0.010326920
       2088.0000       288.37200       98837.623       14540.934       4.4157500      -1.2010000     -0.63700000       341.45800       1.8798433     0.015478064
       2093.0000       288.39475       98843.252       14577.308       5.1375000      -1.6465000     -0.21350000       341.12700       1.8974714     0.011934664
       2098.0000       288.46804       98838.979       14635.344       4.7782500      -2.4722500    -0.018500000       341.71700       1.9114418     0.010760411
       2103.0000       288.50774       98840.105       14696.219       1.1830000     -0.95025000      0.54125010       342.07300       1.8174447     0.019508414
       2108.0000       288.58075       98849.643       14796.017       4.4482500      -1.6755000      0.27450000       341.26000       1.8975642     0.011297333
       2113.0000       288.61822       98847.185       14886.001       4.2375000      -2.2132500      0.26350000       341.65400       1.8937913     0.011913663
       2118.0000       288.61429       98830.064       15002.435       2.8610000      -1.3255000      0.59175000       341.61000       1.8972816     0.011402221
       2123.0000       288.60311       98828.435       15058.281       1.6085000      -1.8525000     -0.47075000       341.54300       1.8877255     0.011957518
       2129.0000       288.53510       98828.881       15071.061       3.1180000      -2.0130000      0.30000000       341.72200       1.8770852     0.012118776
       2134.0000       288.54195       98828.968       15101.654       5.1365000     -0.24975000     -0.11875000       341.10900       1.8942848     0.012310870
       2139.0000       288.59420       98848.451       15115.204       4.0255000      -2.2667500    -0.066500000       341.38600       1.9030650     0.012847643
       2144.0000       288.60415       98848.814       15105.884       4.1635000     -0.81000010    -0.022500000       341.74100       1.8958364     0.010873864
       2149.0000       288.65307       98824.339       15115.737       3.1667500      -2.7842500      0.26300000       341.15700       1.9026779     0.012206770
       2154.0000       288.66510       98822.327       15097.306       3.6927500     -0.78650000     -0.17525000       340.84000       1.8765427     0.012212928
       2159.0000       288.60523       98832.188       15001.820       2.9095000      -1.4547500     -0.14625000       340.90000       1.9274276     0.010778667
       2164.0000       288.58886       98829.736       14968.796       4.0567500      -1.2272500      0.67975000       341.24200       1.8877081     0.012154671
       2169.0000       288.63830       98828.916       15002.600       3.2287500     -0.97600010      0.34550000       341.53600       1.9077720     0.012038229
       2174.0000       288.59721       98831.529       14964.278       2.9932500      -2.4230000      0.43425000       341.36800       1.9084112     0.013286979
       2179.0000       288.48554       98823.744       14895.060       2.4960000     0.047500000       1.0377500       341.86500       1.8920578     0.010241040
       2184.0000       288.42617       98823.325       14846.258       4.2012500      -1.4240000     -0.10950000       341.29800       1.8997568     0.012276314
       2189.0000       288.30214       98842.789       14725.832       4.6030000      -1.5092500     -0.44850000       341.03300       1.8984249     0.011062229
       2194.0000       288.26707       98843.626       14696.065       4.4945000     -0.48975000     -0.38025000       341.25600       1.8956583     0.011711243
       2199.0000       288.35028       98823.694       14763.870       4.9220000      -1.9435000     -0.31575000       341.07300       1.8867713     0.011241089
       2204.0000       288.35633       98823.203       14770.070       3.1032500      0.41025000      0.80025010       341.67300       1.8973830     0.011763647
       2209.0000       288.35711       98831.059       14777.893       2.3050000     0.040000000      0.54850000       341.77500       1.9147573     0.010092115
       2214.0000       288.35379       98830.030       14791.372       5.4415000     0.024750000      0.19200000       341.29200       1.8734108     0.013422322
       2220.0000       288.28898       98837.387       14767.171       5.9877500       1.7087500     -0.62075000       341.10800       1.8859141     0.012570765
       2225.0000       288.29106       98837.006       14780.360       4.9400000     -0.75400000     -0.75100000       341.27300       1.9436986     0.013892434
       2230.0000       288.34228       98817.400       14843.402       4.3047500     -0.77625010      0.58275000       341.65600       1.9858792     0.011590658
       2235.0000       288.36218       98818.259       14865.269       2.5137500      -1.5562500      0.60200010       341.74400       1.8918313     0.011188991
       2240.0000       288.38758       98837.400       14859.863       3.8910000      -2.4005000      0.50625000       341.21300       1.8727327     0.012119073
       2245.0000       288.41749       98836.851       14890.033       3.3410000      -1.1392500      0.25375000       341.42500       1.8680595     0.015732918
       2250.0000       288.44191       98828.636       14925.237       5.5585000      -1.0860000      0.16100000       341.29700       1.8689628     0.013904771
       2255.0000       288.46188       98831.273       14963.465       5.0620000     -0.95425000     -0.32025000       341.09200       1.9032394     0.012566641
       2260.0000       288.51014       98828.578       15057.957       4.6755000      -1.2035000     -0.56725000       341.27300       1.9083521     0.011471032
       2265.0000       288.50756       98829.394       15066.118       4.4425000      0.83225010      0.21600000       341.28700       1.9014610     0.012325996
       2270.0000       288.46913       98849.044       15024.771       2.9437500     -0.33725000     -0.12275000       341.29600       1.9021537     0.010943389
       2275.0000       288.43312       98847.529       14991.731       2.1832500      0.20025000      0.43450000       341.65500       1.8864924     0.012087151
       2280.0000       288.35928       98823.552       14906.693       3.4005000     -0.40925000     -0.45225000       341.04000       1.9230117     0.011002264
       2285.0000       288.32588       98822.753       14861.875       2.9407500      0.17125000      0.21275000       341.35700       1.9169320     0.010248723
       2290.0000       288.30069       98831.527       14847.032       2.7767500     -0.70425000     -0.12225000       341.45300       1.9566769     0.010101655
       2295.0000       288.28698       98828.849       14802.260       4.6725000     -0.90450010     -0.21075000       341.29100       1.9079857     0.010605399
       2300.0000       288.29993       98828.527       14748.744       3.7612500     -0.68075000     -0.53775000       340.91400       1.9226779     0.010406527
       2305.0000       288.29993       98832.530       14697.207       4.9577500      0.22325000     -0.50350000       341.04700       1.8874008     0.011857015
       2311.0000       288.29163       98831.296       14596.702       3.1645000     -0.11475000    -0.088000010       341.36500       1.9203906     0.012279945
       2316.0000       288.31053       98827.334       14587.643       4.3102500      -1.0227500      0.55750000       341.31900       1.9326285     0.012247792
       2321.0000       288.34598       98832.229       14617.424       5.0520000     -0.76350000    -0.028500000       341.15700       1.9182958     0.011671384
       2326.0000       288.36570       98830.616       14643.592       3.6105000     -0.28125000      0.11725000       341.37500       1.9350437    0.0096029158
       2331.0000       288.41251       98810.824       14726.825       2.9960000      -1.6042500    -0.010250000       341.02300       1.9201484     0.010049066
       2336.0000       288.40453       98814.130       14754.223       3.2835000     -0.54350000     0.094750000       341.41200       1.9041414     0.011929136
       2341.0000       288.35368       98837.796       14753.039       5.2530000      -3.0852500      0.21625000       341.10900       1.9140954     0.011886193
       2346.0000       288.33355       98837.400       14768.282       5.6902500      -1.4650000     0.010500000       341.18200       1.8818194     0.012754674
       2351.0000       288.30577       98829.195       14786.908       5.6937500      -1.9185000     -0.47300000       341.08300       1.8843397     0.012324074
       2356.0000       288.27580       98832.098       14780.249       5.3990000      0.46725000      0.13600000       341.32600       1.8632015     0.014382213
       2361.0000       288.27160       98831.087       14787.977       4.6770000    -0.022500000     0.038750000       340.93700       1.9101250    0.0098293013
       2366.0000       288.21440       98827.163       14724.271       2.3180000      -1.6012500      0.89050010       341.09800       1.9183273    0.0088985012
       2371.0000       288.10566       98829.295       14598.884       2.6012500      -1.3335000      0.30275000       341.44800       1.9197342     0.010213379
       2376.0000       288.05475       98833.159       14514.713       5.3730000      -1.4607500     -0.25575000       340.97500       1.8794142     0.012494756
       2381.0000       287.98402       98828.148       14393.941       3.1700000     -0.51400000      0.70625000       341.49300       1.9080041     0.010567864
       2386.0000       287.98024       98829.873       14322.471       4.0965000     0.062500000      0.15725000       341.10300       1.8515514     0.012627632
       2391.0000       288.05430       98848.334       14297.723       4.1567500      0.43250000      0.28700000       341.38100       1.9079669     0.010313859
       2396.0000       288.05546       98847.076       14234.696       3.6110000     -0.16525000     -0.28525000       341.24600       1.8992773     0.012429235
       2402.0000       288.05547       98827.365       14142.715       3.3167500      -1.1117500     -0.29675000       341.32600       1.9206066     0.010500595
       2407.0000       288.01502       98838.266       14105.051       3.8752500    -0.048750000    -0.051500000       341.28900       1.9338926     0.012110846
       2412.0000       287.99408       98836.494       14078.197       3.5370000     -0.35625000    -0.077250000       341.53100       1.9469419     0.010862685
       2417.0000       287.98542       98832.237       14071.683       3.1842500      -1.5887500      0.72250000       341.13600       1.9120254     0.011325372
       2422.0000       288.00634       98829.925       14112.319       3.8035000     -0.92950000      0.19825000       341.01400       1.8986662     0.014105329
       2427.0000       287.98460       98833.007       14102.396       3.5310000     -0.61075000      0.50900000       341.22500       1.8871703     0.012249123
       2432.0000       287.94427       98829.712       14070.751       4.3300000      -1.5625000     -0.12275000       341.25000       1.8980731     0.012130236
       2437.0000       287.93092       98832.221       14072.831       3.9435000      -1.3985000     -0.40050000       340.97600       1.9224762     0.010129051
       2442.0000       287.93843       98836.460       14099.794       2.2677500     -0.74500010     0.047750000       341.49800       1.8637268     0.014544227
       2447.0000       288.01576       98830.559       14197.078       3.0362500      -1.4182500      0.64200000       341.02600       1.8957665     0.011293288
       2452.0000       288.05646       98828.180       14262.886       3.8870000      -1.8782500     -0.50050000       341.16200       1.8939927     0.012395658
       2457.0000       288.08521       98840.332       14325.247       4.2715000      -2.7215000     -0.29725000       340.97300       1.9098570     0.011045257
       2462.0000       288.10635       98842.825       14379.803       4.4267500      -2.6000000     -0.11500000       341.01100       1.9024919     0.014626955
       2467.0000       288.11514       98840.374       14423.571       4.8592500     -0.79475000     -0.33475000       341.04000       1.8941268     0.011597876
       2472.0000       288.10004       98828.651       14449.556       4.7342500      -2.1670000     -0.54350000       340.84100       1.8925805     0.012474849
       2477.0000       288.10004       98831.111       14473.442       3.2272500      -1.5905000      0.90375010       341.13200       1.8910797     0.011543470
       2482.0000       288.10589       98836.426       14501.939       3.7420000      -2.9447500      0.34400000       340.90900       1.8846854     0.012070173
       2487.0000       288.05503       98827.814       14444.255       3.9685000      -1.4127500    -0.079250000       340.93000       1.9235532     0.010604619
       2493.0000       288.04268       98830.176       14427.983       2.6342500     -0.61375000     -0.44075000       341.12500       1.9269315     0.010180551
       2498.0000       288.02926       98832.090       14393.326       2.8590000     -0.58925000      0.13675000       341.27400       1.9047354     0.010437250
       2503.0000       288.04163       98829.256       14404.758       2.8650000      -1.2095000     0.098500010       341.16100       1.9110498     0.010251734
       2508.0000       288.13831       98833.566       14512.719       3.1055000      -1.7417500      0.14150000       341.15500       1.8951864     0.011528389
       2513.0000       288.16550       98837.314       14552.684       4.0582500      -1.4242500     -0.16275000       341.05600       1.8825218     0.013063049
       2518.0000       288.14215       98830.257       14551.910       2.2925000      -2.4582500     -0.48525000       341.10900       1.9525339     0.010064001
       2523.0000       288.15245       98828.696       14589.263       4.0690000      -1.4170000     0.031250000       340.85800       1.9183425     0.011850244
       2528.0000       288.13031       98841.118       14595.166       4.4037500      -1.1302500     -0.23225000       340.87300       1.8879613     0.012200160
       2533.0000       288.14272       98842.654       14641.322       4.4132500      -1.1605000     -0.15100000       340.94200       1.9315521     0.011065380
       2538.0000       288.25344       98829.231       14796.224       3.7082500     -0.82075010      0.19125000       340.97900       1.9169050     0.010999703
       2543.0000       288.26926       98828.657       14858.036       3.3925000     -0.59200000     -0.31400000       340.96600       1.9120385     0.011124333
       2548.0000       288.22198       98836.667       14866.958       2.1272500     -0.72450010    -0.071750000       341.18000       1.9257881     0.010653016
       2553.0000       288.20087       98835.561       14890.435       3.1282500      -1.0380000     -0.51250000       341.17100       1.8978463     0.012412233
       2558.0000       288.08991       98833.051       14833.281       2.3820000     -0.67100000      0.79775010       341.27500       1.9244691     0.010744483
       2563.0000       288.07511       98836.061       14848.918       4.4225000     -0.28425000     0.043000000       341.00800       1.9180389     0.010479148
       2568.0000       288.16760       98839.039       14951.063       3.7465000     -0.29725000      0.39450000       341.06100       1.9008669     0.011508227
       2573.0000       288.20768       98834.811       14999.047       3.7712500     -0.94000010     -0.10375000       340.88700       1.9201986     0.011445589
       2578.0000       288.28061       98827.884       15060.381       3.0817500      -1.0772500      0.79050000       341.06000       1.9331191    0.0098968661
       2584.0000       288.32335       98830.515       15097.715       3.1495000     -0.78850000      0.19075000       341.02500       1.9021945     0.011334153
       2589.0000       288.32586       98831.529       15065.520       3.2805000      -1.1110000     -0.33700000       341.08800       1.8948594     0.011153316
       2594.0000       288.29838       98828.981       15065.419       4.0907500      -1.0352500   -0.0082500000       341.12500       1.9499701     0.010552786
       2599.0000       288.23969       98830.530       15097.592       2.9345000      -1.3477500      0.20425000       341.11200       1.8964146     0.011906006
       2604.0000       288.18587       98837.936       15076.409       3.4987500     -0.52400000      0.43300000       341.08800       1.9356763     0.010258775
       2609.0000       288.07294       98844.589       15035.230       3.5490000     -0.93875000     -0.12625000       340.95000       1.9692228    0.0098638067
       2614.0000       288.02038       98845.500       14984.250       3.1627500     -0.50650000      0.22125000       341.05700       1.9270792    0.0096464201
       2619.0000       287.99205       98855.033       14859.507       3.7815000       1.2792500     -0.41025000       341.04800       1.9231207     0.010311622
       2624.0000       287.98945       98858.588       14809.386       4.2252500      0.99625000     0.074750010       341.08600       1.8822751     0.010617873
       2629.0000       288.03825       98846.977       14793.404       3.7032500      0.13150000     -0.20000000       341.02200       1.9066033     0.011705518
       2634.0000       288.05804       98842.848       14782.490       4.1045000     -0.83650000     -0.51900010       340.95300       1.9168694     0.010786639
       2639.0000       288.12115       98845.939       14829.972       3.1972500      0.15925000     -0.20800000       341.08600       1.9310884    0.0097670627
       2644.0000       288.11034       98845.575       14831.263       3.2722500     -0.40075000      0.32725000       341.14800       1.9063257     0.011743721
       2649.0000       288.03888       98839.453       14818.224       2.1065000     -0.17975000      0.21900000       341.18500       1.8975341     0.011227683
       2654.0000       287.98470       98839.219       14795.784       3.5912500     -0.43875000     -0.12750000       341.06100       1.9274403     0.010197305
       2659.0000       287.86081       98847.986       14731.855       3.4137500     -0.88700000     -0.15175000       341.09100       1.8902150     0.011480799
       2664.0000       287.82208       98845.922       14711.121       2.5962500      -1.1520000     -0.12800000       341.14200       1.9396706    0.0088490707
       2670.0000       287.85418       98833.989       14725.774       2.6952500      -1.3987500     -0.32525000       341.11100       1.8916777     0.011858170
       2675.0000       287.84424       98834.183       14694.097       3.0282500      -1.3502500     -0.27925000       341.21200       1.9031110     0.010761334
       2680.0000       287.85705       98837.684       14653.997       2.3045000      -1.5935000     -0.21275000       341.22500       1.9210097     0.010124821
       2685.0000       287.85066       98833.111       14621.322       2.2095000     -0.68400000    -0.085500000       341.30400       1.9282770     0.010006751
       2690.0000       287.82420       98829.069       14574.616       3.2502500     -0.76075010     0.055750000       340.97300       1.8994451     0.010794778
       2695.0000       287.77770       98831.757       14500.324       3.2190000      -1.5185000      0.26200000       341.05700       1.9167840     0.010861630
       2700.0000       287.70498       98828.656       14411.956       2.5087500    -0.047250000      0.17650000       341.07800       1.8892533     0.013963886
       2705.0000       287.68139       98829.538       14358.571       2.6417500     -0.83400010     -0.20725000       340.97500       1.9133471     0.010885976
       2710.0000       287.65437       98844.610       14279.057       2.8447500      -1.6587500     -0.26550000       340.91200       1.9064045     0.011101835
       2715.0000       287.63035       98849.715       14224.627       2.1295000     -0.95375010      0.33300000       341.22100       1.9226081     0.010152846
       2720.0000       287.64638       98849.076       14217.174       4.1950000      -1.0785000      0.12675000       341.07700       1.9362666    0.0095637035
       2725.0000       287.65651       98843.254       14205.761       3.7635000      -2.2477500      0.61100000       340.99600       1.8938942     0.011874496
       2730.0000       287.65432       98828.986       14189.333       4.3042500      -2.2510000      0.28525000       341.00900       1.8754783     0.012028774
       2735.0000       287.64454       98828.867       14168.710       3.7907500      -1.5745000     0.053750000       341.01600       1.9117025    0.0098602911
       2740.0000       287.65850       98832.006       14174.841       3.7740000     -0.46550000      0.97350010       340.85400       1.9057434     0.011529449
       2745.0000       287.65215       98828.134       14162.003       4.7910000      -1.6207500      0.48450000       340.95600       1.8834567     0.012644771
       2750.0000       287.59042       98828.577       14095.179       4.0950000     -0.84950010     -0.47750000       340.87000       1.9130279    0.0097870301
       2755.0000       287.59292       98832.650       14104.661       4.2637500      -1.5215000       1.1887500       340.95800       1.8972931     0.010255611
       2761.0000       287.65561       98830.257       14178.278       4.1180000      -2.6872500    0.0015000000       341.01000       1.9141258     0.010177343
       2766.0000       287.65705       98828.101       14204.507       3.1675000      -2.1230000      0.86500010       340.87100       1.8904322     0.011265655
       2771.0000       287.66591       98835.281       14273.562       5.1342500      -2.6717500      0.49825000       340.74100       1.9086912     0.011010531
       2776.0000       287.63872       98839.503       14249.695       3.0710000      -1.7832500     -0.40100000       340.83600       1.8931996     0.010992656
       2781.0000       287.54207       98835.628       14144.185       2.6547500     -0.34825000       1.0130000       340.91100       1.8822298     0.011854467
       2786.0000       287.52975       98832.660       14110.324       2.8852500      -1.7952500     -0.34250000       341.00600       1.9069447    0.0099778872
       2791.0000       287.53502       98834.659       14054.459       3.6340000      -1.5220000      0.11400000       340.95500       1.8826138     0.012726564
       2796.0000       287.56276       98837.741       14044.809       5.6280000      -3.9885000      0.33475000       340.69500       1.8894836     0.011420057
       2801.0000       287.65859       98835.912       14103.641       3.8320000      -2.6212500    -0.088000010       340.80700       1.9198797     0.010714950
       2806.0000       287.67100       98832.883       14095.960       4.9772500      -3.3245000      0.11100000       340.77800       1.9166713     0.011644640
       2811.0000       287.65715       98834.952       14062.497       3.6485000      -1.6497500     -0.16150000       340.81300       1.9479659    0.0080532813
       2816.0000       287.64849       98838.021       14052.873       3.7312500      -1.7025000      0.14550000       340.83800       1.9182738     0.010891170
       2821.0000       287.58803       98834.082       14015.235       5.1935000      -2.9657500   -0.0035000000       340.82700       1.9357338     0.010641006
       2826.0000       287.59512       98834.813       14037.928       3.5475000      -2.9605000    -0.034750000       340.94300       1.8818508     0.012290842
       2831.0000       287.64576       98845.695       14110.997       4.3207500      -1.8082500      0.59250000       340.88900       1.8915573     0.010469262
       2836.0000       287.66624       98848.860       14150.273       5.3325000      -1.4210000     0.021500000       340.77300       1.9200566     0.011069195
       2841.0000       287.70300       98845.593       14208.853       3.8355000    -0.058500000      0.73725000       340.89100       1.8892472     0.012374515
       2846.0000       287.71464       98844.665       14239.175       4.2592500     -0.95525000      0.11475000       340.83900       1.9145102     0.010879018
       2852.0000       287.68700       98845.859       14229.643       4.6160000      -1.5372500      0.13000000       340.82600       1.8900756     0.011537593
       2857.0000       287.76052       98841.843       14323.480       3.4537500     0.016750000      0.48200000       340.85200       1.9096344     0.010311773
       2862.0000       287.80035       98839.783       14388.359       4.0607500      0.14100000      0.38425000       340.90100       1.9331113     0.010155776
       2867.0000       287.84025       98838.974       14457.623       3.6820000      0.13250000     -0.48850000       340.70000       1.9305530     0.010119991
       2872.0000       287.91877       98840.472       14575.129       2.3950000      -1.3072500      0.55150000       340.90900       1.9610062    0.0093816453
       2877.0000       287.91408       98840.492       14594.568       3.5987500      -1.6515000    -0.061250000       340.84200       1.9355090     0.010163834
       2882.0000       287.84988       98839.570       14553.656       2.5807500      -3.2767500     -0.10100000       340.81700       1.9150493     0.011061605
       2887.0000       287.79964       98844.678       14513.379       2.9227500      -1.4365000      0.15625000       340.79500       1.9174505     0.010630153
       2892.0000       287.78671       98845.780       14508.174       1.7235000     -0.49325000      0.42175000       340.99000       1.9108931     0.011464177
       2897.0000       287.84533       98845.876       14581.838       2.5282500     -0.14950000    -0.044750000       340.96600       1.9270982     0.010814351
       2902.0000       287.85631       98846.006       14588.262       3.2535000     -0.57200000     -0.15675000       340.89200       1.8917862     0.010892973
       2907.0000       287.85525       98840.368       14558.118       4.2332500      -1.3617500     -0.37225000       340.84400       1.9046108     0.010911636
       2912.0000       287.85662       98839.145       14540.813       3.0117500     -0.23300000     -0.22575000       340.95100       1.9264186     0.010658213
       2917.0000       287.84569       98840.380       14509.311       2.3710000     -0.76700000     -0.34725000       341.02000       1.9171001     0.010015121
       2922.0000       287.79380       98845.204       14419.428       2.0107500   0.00075000000      0.36550000       341.05500       1.9268381     0.010408503
       2927.0000       287.78504       98847.209       14407.322       2.9082500     -0.67425000     -0.16175000       340.89800       1.9511420    0.0090018326
       2932.0000       287.79991       98851.444       14438.331       3.1105000     -0.41825000      0.48325000       340.92100       1.9189288     0.010799699
       2937.0000       287.80032       98845.620       14453.988       2.7765000     -0.28275000     -0.10650000       341.03800       1.9169034     0.010641025
       2943.0000       287.80060       98844.296       14471.210       3.1797500     -0.40225000      0.65025000       340.90500       1.9020715     0.010499911
       2948.0000       287.81446       98844.680       14487.812       4.7075000      -2.4212500     -0.34950000       340.83700       1.9011619    0.0094824726
       2953.0000       287.80344       98844.809       14497.156       3.5902500      -1.2965000    -0.096000000       340.84000       1.8866412     0.011861270
       2958.0000       287.76647       98850.728       14511.342       3.1362500      -1.1817500      0.57675000       340.96100       1.9291057    0.0098607787
       2963.0000       287.74636       98851.407       14509.938       3.6512500      -1.7512500     -0.19275000       340.78200       1.9299569    0.0098278699
       2968.0000       287.70985       98845.493       14494.976       3.6767500      -1.3310000      0.34275000       340.92800       1.9079951     0.011607107
       2973.0000       287.69083       98844.651       14475.024       3.8305000      -1.2212500      0.12600000       340.81600       1.9237387     0.010437396
       2978.0000       287.68610       98846.020       14427.970       3.2522500     -0.32825000      0.19775000       340.92400       1.8985670     0.010030418
       2983.0000       287.69738       98845.012       14407.392       3.5307500      0.18625000     -0.49175000       341.00600       1.9034156     0.010855377
       2988.0000       287.73410       98841.625       14399.570       3.8365000      -1.3015000    -0.018500000       340.92400       1.9297669     0.010172694
       2993.0000       287.75371       98844.844       14389.133       3.2715000     -0.96425000     -0.33275000       340.91700       1.8918616     0.010833085
       2998.0000       287.80444       98858.664       14409.855       2.1712500      -2.2617500      0.64375000       341.02700       1.9130063     0.010678633
       3003.0000       287.81195       98857.260       14400.743       4.4817500     -0.19250000     -0.21000000       340.94100       1.9137997     0.010467807
       3008.0000       287.76663       98843.325       14354.830       2.8690000     -0.81650010      0.16250000       340.85300       1.9258274     0.010202329
       3013.0000       287.74653       98844.515       14336.436       3.8790000      -1.2565000     -0.33575000       340.86500       1.9194872    0.0097656886
       3018.0000       287.69630       98849.363       14300.575       3.5017500      -1.7852500     -0.16850000       340.88100       1.9012880     0.011790951
       3023.0000       287.68869       98844.266       14303.042       3.8620000      -1.5750000      0.61650000       340.94700       1.8996930     0.011429733
       3028.0000       287.74887       98840.966       14376.678       4.7220000      -1.4262500     0.079750000       340.79200       1.8913223     0.011778932
       3034.0000       287.75840       98846.886       14398.928       3.4065000     -0.93625000     -0.30550000       340.96900       1.8989399     0.011121114
       3039.0000       287.74410       98848.198       14393.950       3.3052500      0.42775000      0.37800000       341.00100       1.9127034    0.0095911640
       3044.0000       287.75405       98843.179       14410.300       4.0752500     -0.21400000    -0.079000000       340.88500       1.8930619     0.012771663
       3049.0000       287.72859       98842.453       14388.564       3.8705000     -0.36025000     -0.43800000       340.80700       1.9357809    0.0097533312
       3054.0000       287.74642       98847.382       14409.857       3.9982500      -1.0370000     -0.12600000       340.78900       1.8999277     0.011670221
       3059.0000       287.83296       98848.334       14498.444       3.7222500     0.022500000     -0.19250000       340.74000       1.8985167     0.011192638
       3064.0000       287.86951       98843.238       14535.024       3.1120000      -1.0822500     -0.58225000       340.85500       1.9093696     0.010849788
       3069.0000       287.90835       98842.181       14569.869       2.4977500     -0.78875010      0.92675010       340.97400       1.9170652     0.010114674
       3074.0000       287.91122       98847.143       14573.606       3.2175000      -1.3435000     -0.53700000       340.90100       1.9170501     0.010405742
       3079.0000       287.86156       98847.993       14524.287       3.0155000     -0.98825000     0.074250010       341.02600       1.9171492     0.010327070
       3084.0000       287.84160       98842.956       14506.733       2.5612500      -1.2615000     0.064750000       340.90400       1.8854444     0.012993583
       3089.0000       287.80534       98846.116       14482.470       2.9425000      -1.4907500      0.15700000       341.05900       1.8810519     0.011124272
       3094.0000       287.78921       98846.959       14467.508       3.3370000     -0.57925000    -0.060000000       340.91700       1.8989876     0.011499516
       3099.0000       287.81387       98830.211       14496.852       3.8057500     -0.84650000     -0.22400000       340.84700       1.9275563    0.0099657878
       3104.0000       287.80006       98826.123       14468.847       2.9007500     -0.48025000     -0.38950000       340.98700       1.9161866     0.010296755
       3109.0000       287.74997       98838.049       14391.764       2.7067500      -1.2902500      -1.0382500       340.93100       1.9077309     0.010660645
       3114.0000       287.74408       98842.821       14353.365       3.6337500      -1.3247500     -0.12275000       341.00200       1.8900885     0.010532163
       3119.0000       287.73073       98845.575       14271.027       3.6907500      -1.0455000     -0.10900000       340.94500       1.8906488     0.011039354
       3125.0000       287.75431       98846.284       14265.551       2.2837500     -0.69500010     0.037750000       341.21500       1.8956692     0.010403489
       3130.0000       287.84135       98844.918       14342.694       2.2500000      0.59875010      0.45975000       341.12200       1.9080841     0.011172406
       3135.0000       287.87483       98845.925       14378.121       2.2657500    -0.023500000      0.62275000       341.18000       1.8772604     0.011651520
       3140.0000       287.89973       98844.467       14441.382       2.6647500     -0.83775000    -0.080000010       341.20900       1.9016188     0.010338007
       3145.0000       287.91351       98845.121       14474.250       3.0685000      -1.6747500      0.30950000       341.08600       1.9317848    0.0097263857
       3150.0000       287.87846       98851.307       14453.766       3.7615000     -0.95700000     -0.18450000       340.98800       1.8755968     0.012068592
       3155.0000       287.91144       98851.086       14505.509       2.4095000      0.21425000     0.051750000       341.17000       1.8999766     0.010681421
       3160.0000       287.99682       98842.525       14604.703       4.3100000      -1.7987500     -0.32975000       340.90500       1.9095358     0.010420081
       3165.0000       288.02073       98845.330       14659.725       4.1362500     -0.76675000     -0.42250000       341.01400       1.9259190    0.0098165335
       3170.0000       288.05667       98858.707       14746.192       4.2447500     -0.67550000      0.27775000       341.03100       1.9043321     0.010186553
       3175.0000       288.06394       98855.264       14781.945       3.7985000     -0.59175000    -0.029000000       340.99700       1.9190315    0.0093578616
       3180.0000       288.00102       98843.389       14761.241       2.5687500      -1.2767500      0.58775000       341.09500       1.9200547     0.010173245
       3185.0000       287.98735       98845.568       14753.765       2.9417500     -0.28575000     -0.20450000       340.96600       1.9203172     0.010796260
       3190.0000       288.00012       98847.063       14741.323       3.3842500     -0.27825000     0.010500000       341.01600       1.9347759     0.010642439
       3195.0000       288.00029       98842.110       14720.074       2.9635000     -0.30100000     -0.42200000       341.00500       1.9151197     0.010600575
       3200.0000       288.00018       98843.240       14681.523       2.6977500      -1.0175000      0.11425000       341.03100       1.9165235     0.010253183
       3205.0000       288.00035       98848.380       14647.954       2.0202500     -0.51100000     -0.23725000       341.01100       1.9200758    0.0099463150
       3211.0000       288.00037       98846.675       14599.928       2.7492500    -0.034000000     0.078750010       341.14400       1.9173215     0.010601181
       3216.0000       288.00042       98841.685       14572.081       3.9265000     0.069750000     -0.27475000       340.94000       1.9185956     0.010116247
       3221.0000       287.99108       98846.217       14529.726       3.5570000      0.42375000      0.29425000       340.87500       1.9012118     0.010777812
       3226.0000       288.00971       98847.527       14542.191       3.3470000    -0.031250000     -0.39350000       340.78700       1.9143187    0.0099459414
       3231.0000       288.04508       98833.171       14590.519       3.3337500      0.15575000      0.49200000       340.98200       1.9122362     0.010461673
       3236.0000       288.06520       98831.773       14623.475       3.9315000     -0.88750000     -0.44200000       340.87000       1.9314206    0.0096116567
       3241.0000       288.12014       98845.698       14704.030       2.9945000      0.76675000     0.061500000       340.97700       1.9164274     0.010676379
       3246.0000       288.09369       98849.023       14708.004       2.4370000      0.39300000     -0.24500000       340.98300       1.9603806    0.0091536484
       3251.0000       287.98856       98844.591       14642.640       3.0597500     -0.25825000     0.069500010       341.13300       1.9097286     0.014068908
       3256.0000       287.98607       98845.441       14668.262       2.2432500    -0.049500000     -0.18050000       341.02500       1.9092063     0.010377861
       3261.0000       287.99520       98853.410       14715.326       2.2385000      0.22350000      0.13900000       341.14400       1.9318276    0.0091525011
       3266.0000       287.99421       98848.987       14731.766       3.0850000     -0.59825000     0.032250000       341.05600       1.9114845     0.011000655
       3271.0000       288.07758       98832.022       14823.357       2.9907500     -0.96550010     0.086000000       341.10100       1.9410468    0.0093475698
       3276.0000       288.04319       98835.310       14777.238       1.6405000     -0.43825000      0.46225000       341.25300       1.8985872     0.010525518
       3281.0000       287.90645       98846.658       14612.730       3.5277500      -1.9455000    -0.044250000       341.01700       1.8987029     0.011612685
       3286.0000       287.85477       98843.926       14536.288       2.6230000     -0.63875000      0.60300000       341.04100       1.9333945    0.0095902514
       3291.0000       287.79508       98848.598       14439.677       4.0150000    -0.094750000     -0.21125000       340.93400       1.9246540    0.0098749028
       3296.0000       287.77233       98844.308       14372.389       3.8470000      0.10375000      0.19575000       341.03900       1.9070446    0.0092997880
       3302.0000       287.78726       98813.981       14327.650       3.2230000     -0.99475000     -0.13650000       341.08900       1.9046081     0.010887787
       3307.0000       287.86033       98835.487       14328.090       4.0215000     -0.90150000     -0.19550000       340.85300       1.9178230    0.0089929504
       3312.0000       287.89989       98845.442       14332.032       3.5332500      0.27675000      0.19950000       340.90500       1.9126263     0.010251362
       3317.0000       287.93940       98855.398       14359.538       2.7377500     -0.84900000     -0.38025000       340.84700       1.9311552    0.0098151569
       3322.0000       288.01306       98875.552       14451.227       3.2755000      -1.6692500     0.028500000       340.82800       1.9175146    0.0096489310
       3327.0000       288.03023       98873.367       14479.294       3.4515000    -0.097000000      0.11150000       341.06400       1.9138075     0.010040755
       3332.0000       287.99974       98854.642       14481.741       3.5805000     -0.49350000     0.078250010       341.04200       1.9080259    0.0092455360
       3337.0000       287.98500       98844.662       14464.319       3.1447500     -0.69525000     -0.25850000       340.88000       1.9322946     0.010351992
       3342.0000       287.99354       98841.908       14495.848       3.1985000     -0.22425000      0.22150000       340.97700       1.9044133    0.0098783589
       3347.0000       288.04545       98862.383       14588.759       2.9320000      -1.4315000    0.0030000000       340.99500       1.9154368    0.0099510176
       3352.0000       288.05658       98864.037       14643.891       2.1670000     -0.94375000      0.18400000       341.04500       1.9543716    0.0096525510
       3357.0000       288.05490       98844.897       14738.315       3.1437500     -0.49625000     0.083250000       341.01000       1.9018508     0.010956337
       3362.0000       288.05616       98843.584       14786.020       2.6335000     -0.85425000      0.32850000       341.05600       1.9088442    0.0098916351
       3367.0000       288.04512       98845.966       14797.375       3.1462500     -0.48800000      0.32350000       341.01800       1.9224092    0.0095097530
       3372.0000       288.00077       98845.374       14759.739       3.2245000    -0.026250000     -0.50000000       340.79800       1.9287071     0.010150511
       3377.0000       287.97075       98840.514       14711.087       2.3767500      0.12700000     0.036500000       340.87600       1.9262258    0.0096112306
       3382.0000       287.95065       98845.534       14630.616       2.8540000     -0.47000000    -0.019500000       340.97700       1.9210603     0.010377765
       3387.0000       287.91462       98847.443       14557.139       1.7997500     0.062250000      0.39750000       341.20200       1.9020567    0.0096195590
       3393.0000       287.88996       98843.839       14475.320       2.5145000     -0.79200010      0.46600000       341.08900       1.9147487     0.010530205
       3398.0000       287.90002       98853.785       14413.406       1.6120000     -0.51000010      0.36200000       341.18900       1.9106317    0.0097058423
       3403.0000       287.90006       98858.230       14364.939       2.1232500      -1.3065000     0.081250000       341.18900       1.9050083     0.010516579
       3408.0000       287.88564       98846.558       14289.692       2.7295000     -0.71275000    -0.097500000       340.86200       1.8988533     0.010021540
       3413.0000       287.89720       98842.962       14274.056       1.9882500     -0.13450000      0.21450000       340.95900       1.9035904    0.0092551765
       3418.0000       287.93409       98853.464       14314.149       1.8832500      0.26650000    -0.040250000       341.08700       1.9085487     0.010216343
       3423.0000       287.95414       98851.930       14347.130       1.4887500    -0.088500000   -0.0015000000       341.18800       1.9065820    0.0099345227
       3428.0000       288.00440       98832.795       14444.866       1.9082500      -1.2010000    -0.093500000       341.16500       1.9022256     0.010210951
       3433.0000       288.01209       98832.282       14485.875       1.6127500     -0.69675000     0.012750000       341.11200       1.9062242     0.010085206
       3438.0000       287.95186       98848.833       14467.339       1.9140000      -1.0262500    -0.071500000       341.17500       1.8941895     0.010009059
       3443.0000       287.94345       98846.465       14490.313       2.2830000     -0.23625000    -0.072750000       341.24300       1.8877745     0.010181771
       3448.0000       287.94379       98839.392       14518.093       1.3032500     -0.55825000     -0.10825000       341.30700       1.8829634     0.010355616
       3453.0000       287.94488       98841.288       14533.670       2.9257500     -0.62500000     -0.41575000       340.96900       1.9103302    0.0093223063
       3458.0000       287.99087       98829.579       14583.568       1.7762500      -1.2787500     -0.31450000       341.17000       1.8919032     0.011374542
       3463.0000       288.00987       98826.443       14603.251       2.6812500     -0.99600010      0.18200000       341.03500       1.8898611     0.010279863
       3468.0000       287.98638       98847.696       14566.451       2.6972500     -0.16400000     -0.37275000       340.90700       1.8931676     0.010980396
       3473.0000       287.99791       98854.187       14565.642       3.2682500     -0.22375000     -0.11950000       340.95800       1.9083798     0.010888670
       3478.0000       288.02075       98842.479       14581.070       3.6277500     -0.20625000      0.11975000       340.85200       1.9288227    0.0098881668
       3484.0000       288.05991       98844.432       14595.428       2.3835000     -0.76475010      0.28000000       341.05000       1.9261232     0.010309855
       3489.0000       288.14620       98858.776       14640.707       2.9012500     -0.47200000     -0.27025000       340.95600       1.9093348    0.0099352578
       3494.0000       288.16849       98856.353       14640.140       3.5917500     -0.23325000     -0.31850000       341.01400       1.9112667     0.010564437
       3499.0000       288.15818       98843.374       14600.907       3.0385000     -0.58400010      0.35700000       341.10100       1.9259242    0.0090610322
       3504.0000       288.15421       98845.066       14584.353       3.1380000      -1.9562500     -0.48550000       340.97300       1.9083743     0.010949243
       3509.0000       288.09235       98844.413       14535.819       2.9665000      -1.4797500      0.41925000       341.22300       1.9003834     0.011044817
       3514.0000       288.08982       98843.448       14531.761       2.7812500     -0.33650000     -0.19025000       341.15200       1.8889703     0.010761583
       3519.0000       288.13900       98861.453       14579.995       1.7965000      -1.1245000      0.18175000       341.18000       1.8964750     0.010369416
       3524.0000       288.15927       98864.252       14595.809       3.2107500     -0.96525010     -0.42325000       340.99700       1.9149317    0.0096304610
       3529.0000       288.19514       98843.594       14608.743       3.3837500     -0.48750000     -0.30550000       341.03900       1.9077300     0.011269653
       3534.0000       288.21102       98842.551       14627.479       2.2277500      -1.1555000      0.42050000       341.19100       1.9530497    0.0093143738
       3539.0000       288.18714       98858.775       14614.839       2.8035000     -0.66975000      0.85175000       341.14200       1.9164101     0.010584045
       3544.0000       288.20080       98856.391       14649.159       3.7267500      -1.1885000    0.0075000000       341.06300       1.9253838     0.010430029
       3549.0000       288.25002       98843.388       14752.980       3.5157500     -0.54400000     -0.24875000       340.93300       1.9163037     0.010286920
       3554.0000       288.25596       98845.143       14784.360       1.9102500     -0.94075010     0.023000000       341.24300       1.9370879    0.0099400444
       3559.0000       288.24419       98844.616       14796.403       2.3350000      -1.6087500     0.035250000       341.04900       1.8910254     0.012828295
       3564.0000       288.25461       98843.699       14813.414       3.0350000     -0.92275010     -0.41925000       341.06000       1.9338677     0.010629441
       3569.0000       288.23046       98861.330       14775.391       2.3132500      -1.1317500      0.15350000       341.28200       1.9075913     0.011203526
       3575.0000       288.25396       98863.834       14776.353       3.3192500      -1.1827500     -0.23125000       341.09200       1.9062134     0.010411407
       3580.0000       288.35264       98842.841       14837.145       3.9085000      -1.1887500     -0.12450000       341.07100       1.9139070     0.010479366
       3585.0000       288.37001       98842.964       14831.815       2.3332500      -1.2945000      0.27850000       340.90000       1.9198883     0.010272488
       3590.0000       288.35832       98858.581       14789.326       2.9190000      -1.3245000     0.069500010       340.99500       1.9346478    0.0098369769
       3595.0000       288.35181       98855.009       14770.212       2.9242500     -0.91275010     0.054000000       341.25500       1.9094027     0.010364846
       3600.0000       288.28985       98843.446       14716.778       2.3097500     -0.29650000      0.34000000       341.39300       1.9149633     0.010715895
       3605.0000       288.29233       98845.784       14713.366       2.5275000     -0.14475000      -1.1305000       341.02900       1.9090412     0.010556261
       3610.0000       288.35429       98841.767       14771.199       2.4320000      -1.1532500      0.48325000       341.35500       1.9020202     0.010605007
       3615.0000       288.35826       98844.822       14768.042       2.2495000   0.00025000000      0.36350000       341.40800       1.9017685    0.0098979297
       3620.0000       288.34626       98875.555       14748.582       1.9732500     -0.12125000      0.14500000       341.23800       1.9131712    0.0099088619
       3625.0000       288.35616       98874.187       14737.721       2.2235000     -0.20350000     -0.19450000       341.19000       1.8956017     0.010456161
       3630.0000       288.32039       98843.714       14674.636       2.9700000     -0.96350000      0.59675000       341.40000       1.8968752    0.0097510815
       3635.0000       288.35860       98841.804       14685.461       1.6192500     -0.20825000     -0.68750010       341.05100       1.8964562     0.010250280
       3640.0000       288.48114       98844.579       14741.006       2.3625000     -0.58450000    0.0017500000       341.09600       1.8885030     0.012236713
       3645.0000       288.53491       98842.825       14797.140       1.8390000    -0.047500000     -0.11650000       341.43800       1.9207510     0.011240622
       3650.0000       288.59733       98855.924       14905.860       1.8707500     0.023000000     -0.14775000       341.74000       1.9070955     0.010376075
       3655.0000       288.62509       98858.446       14959.725       2.5335000     -0.78000000     -0.26150000       341.25100       1.8758393     0.012414716
       3660.0000       288.57765       98842.454       14990.493       2.5745000     -0.55750000      0.28825000       341.12600       1.9108110     0.010095049
       3666.0000       288.61937       98844.457       15042.462       2.5380000      0.49950000     -0.18675000       341.25500       1.9078544     0.010605955
       3671.0000       288.69258       98864.276       15074.439       2.0992500    -0.079250000      0.15750000       341.34400       1.9103728    0.0099466540
       3676.0000       288.73239       98860.042       15091.341       2.5360000      0.37700000    -0.089250010       341.60100       1.9157269     0.010130380
       3681.0000       288.80609       98845.471       15123.059       3.0800000      0.63975000     -0.78825000       341.04800       1.9101490     0.011363802
       3686.0000       288.82817       98843.262       15111.538       1.5782500     -0.40300000      0.37725000       341.98700       1.8972848     0.012281878
       3691.0000       288.80020       98832.984       15053.217       2.8262500     -0.46050000      0.53875010       341.74500       1.9066459     0.010615741
       3696.0000       288.80038       98833.447       15021.628       2.9337500     -0.36925000    -0.081250000       341.78400       1.8975388     0.011204548
       3701.0000       288.78240       98853.849       14977.278       3.4535000     0.052750000     -0.20400000       341.76400       1.9331901     0.010778747
       3706.0000       288.81975       98851.578       14959.846       3.3505000      0.23175000     0.069000010       341.75600       1.9011451     0.011687214
       3711.0000       288.89207       98832.026       14961.124       2.5980000     -0.67200010     -0.39675000       341.30900       1.8886283     0.011658922
       3716.0000       288.93165       98835.412       14945.357       2.5010000     -0.26625000     0.070250000       341.19700       1.9172266     0.010301008
       3721.0000       289.04242       98845.055       14946.163       3.0950000     0.095750000      0.30000000       341.14400       1.8954724     0.011479513
       3726.0000       288.99116       98846.016       14912.516       3.2997500      -1.0560000     -0.43750000       341.68100       1.9292766     0.010025740
       3731.0000       288.81054       98858.307       14855.871       2.0750000     -0.68250000     -0.12275000       342.27600       1.9368903     0.010544347
       3736.0000       288.74871       98857.838       14800.384       3.1077500      -1.1437500    -0.066250000       342.33000       1.9167611     0.011293730
       3741.0000       288.63566       98836.864       14731.233       3.0740000     -0.64750000      0.54650000       342.31900       1.8887887     0.011766011
       3746.0000       288.60995       98839.051       14663.909       2.9192500     -0.65375000     -0.23500000       342.31300       1.8618004     0.013397721
       3752.0000       288.69981       98857.412       14568.606       2.6650000      0.52825000    -0.014500000       342.18700       1.8717797     0.012048741
       3757.0000       288.70047       98856.698       14490.126       2.8127500      0.39150000      0.23600000       342.07200       1.8765820     0.012474997
       3762.0000       288.73783       98856.997       14473.981       3.3545000      0.50575000     0.090750000       341.93100       1.8872007     0.012000949
       3767.0000       288.79973       98853.588       14501.780       4.5690000      0.23750000    -0.092500000       341.35000       1.9066179     0.010588720
       3772.0000       288.91130       98836.444       14591.728       3.8925000     -0.33925000     -0.22550000       341.74200       1.8942692     0.011655441
       3777.0000       288.93876       98840.357       14631.571       3.3882500      0.65550010      0.42200000       342.12400       1.8854107     0.011319951
       3782.0000       288.95604       98858.350       14694.979       3.4887500      -1.4047500      0.40900000       341.56900       1.8853391     0.011949089
       3787.0000       288.91627       98846.082       14712.103       3.2680000      0.12400000     0.014000000       341.80000       1.9005505     0.011934071
       3792.0000       288.93244       98844.997       14781.783       2.8665000      -1.6147500      0.17850000       342.69800       1.8230043     0.011914694
       3797.0000       289.04614       98833.608       14970.997       3.7197500      -1.2110000     -0.56825000       342.45100       1.8717712     0.012096425
       3802.0000       289.10678       98830.853       15082.108       3.9025000     -0.88450000      0.64950000       342.26800       1.9101626    0.0097942564
       3807.0000       289.16977       98859.330       15191.046       3.0172500     -0.58225000      0.30225000       342.63700       1.9132043     0.010311463
       3812.0000       289.21184       98865.312       15260.242       1.5762500      -2.3670000     -0.62050000       341.33400       1.9089983     0.011090197
       3817.0000       289.22927       98861.446       15285.674       2.6697500      -1.3912500     -0.24600000       341.70700       1.9017070     0.011170847
       3822.0000       289.19306       98843.660       15230.341       1.5075000    -0.054750000     -0.16775000       342.44500       1.9291487     0.010019590
       3827.0000       289.21431       98845.992       15232.642       2.7555000      -1.7345000      0.84850000       342.58900       1.9087706     0.010344705
       3832.0000       289.23782       98842.257       15227.621       1.8692500      -1.5792500       1.2835000       342.36900       1.8635791     0.013255701
       3837.0000       289.34606       98870.327       15246.370       4.3447500      -1.9215000      0.19125000       342.37000       1.8957723     0.012186594
       3843.0000       289.41897       98876.695       15284.264       3.0257500      -1.9155000      0.77925000       342.44900       1.8796139     0.011967964
       3848.0000       289.45271       98846.040       15322.791       4.8780000      -2.2832500     -0.72350000       341.20300       1.8791024     0.014186589
       3853.0000       289.51243       98841.686       15380.685       4.2055000      0.25550000     -0.22550000       341.81700       1.9284197     0.011102855
       3858.0000       289.56608       98841.843       15480.380       5.1355000      -1.7045000     -0.38600000       341.28700       1.9260878     0.012195305
       3863.0000       289.60582       98842.591       15548.572       3.7415000     -0.50025000      0.42775000       341.56300       1.9031996     0.012700679
       3868.0000       289.74988       98872.236       15651.018       2.9387500      -1.6975000     0.074500000       342.16200       1.9211670     0.011017074
       3873.0000       289.73051       98875.975       15683.179       3.9405000      -1.2152500      0.31950000       341.80000       1.8872133     0.011976316
       3878.0000       289.52636       98845.804       15666.904       2.9947500     -0.43425000      0.10475000       342.26200       1.9083177     0.011033529
       3883.0000       289.42544       98841.250       15620.950       5.2175000      -1.6150000    -0.042250000       341.48900       1.9088269     0.011293295
       3888.0000       289.23296       98845.017       15499.158       4.1045000      -1.5322500     -0.33600000       341.82800       1.8852370     0.011224168
       3893.0000       289.15182       98843.457       15403.845       5.0525000      -1.7197500     -0.51525000       340.99700       1.9108390    0.0092118721
       3898.0000       289.21987       98862.787       15271.726       4.2715000     -0.98875000    -0.051500000       341.73800       1.9201569     0.011117234
       3903.0000       289.25094       98864.784       15185.738       4.3067500     -0.83525000     -0.90100000       341.88000       1.9148687    0.0099197236
       3908.0000       289.32319       98835.004       15130.284       3.6652500      -1.7875000     0.033750000       341.94800       1.8781090     0.011570886
       3913.0000       289.36177       98830.936       15077.627       4.8515000      -1.1202500     -0.44600000       342.31000       1.8934693     0.011105319
       3918.0000       289.37593       98840.357       15045.965       3.7345000      0.55175000      0.29650000       341.64900       1.9145993    0.0093098925
       3923.0000       289.40637       98844.750       15027.639       4.4920000     -0.35600000     -0.12325000       341.90200       1.8529958     0.012763480
       3928.0000       289.46271       98872.430       15029.764       3.1275000     -0.51950000      0.31750000       342.23300       1.8966972     0.011928101
       3934.0000       289.45731       98875.687       15017.591       3.4040000     -0.79050000     0.047000000       341.55100       1.8904833     0.011887391
       3939.0000       289.39305       98844.856       14998.712       2.4097500     -0.45075000      0.23075000       342.57800       1.8895993     0.012347756
       3944.0000       289.39686       98841.808       15017.684       1.6975000      -1.0132500      0.35975000       342.60500       1.8791690     0.012031735
       3949.0000       289.39806       98844.124       15057.766       2.8570000      -1.0660000     -0.27550000       341.94800       1.8937457     0.011396623
       3954.0000       289.39221       98843.332       15080.754       3.2150000     -0.45975000     -0.33400000       341.99100       1.8934502     0.013027954
       3959.0000       289.45182       98863.765       15152.250       3.1662500     -0.89800010     -0.22650000       341.41500       1.8772558    0.0093971826
       3964.0000       289.46465       98863.742       15166.413       1.4402500     -0.89225010     -0.12800000       342.26100       1.8870194     0.010564118
       3969.0000       289.39143       98833.094       15111.194       3.1242500     -0.90075000      0.49325000       342.53100       1.8977251    0.0092728985
       3974.0000       289.38848       98830.559       15095.319       3.3212500      -1.5395000     -0.53200000       341.75000       1.8960000    0.0099643676
       3979.0000       289.39923       98843.403       15052.870       2.2977500     -0.64325000      0.49000000       342.35500       1.8932446     0.010669329
       3984.0000       289.46012       98845.783       15068.261       3.0042500     -0.28825000     0.089750010       342.33400       1.8909387     0.012531923
       3989.0000       289.62194       98863.974       15147.775       2.2335000      -1.2730000    -0.091250000       342.04900       1.8850441     0.013388561
       3994.0000       289.68429       98864.002       15186.134       2.6872500     -0.28150000     -0.11600000       342.52200       1.8914659     0.012377666
       3999.0000       289.74740       98833.489       15245.836       2.7325000      -1.1647500     -0.90025000       341.93500       1.9475841    0.0093146649
       4004.0000       289.77563       98831.174       15282.863       2.3845000     0.088250000     0.030750000       341.80700       1.8929132     0.012191404
       4009.0000       289.70572       98843.305       15279.025       3.1310000      0.72025000      0.35150000       342.35800       1.9104290     0.011176112
       4014.0000       289.68942       98845.588       15295.948       3.5957500     -0.54000000     -0.65350000       341.94600       1.9005508     0.012483307
       4019.0000       289.72598       98863.915       15355.191       3.4745000     -0.40125000     -0.32950000       342.07300       1.9204153     0.012200583
       4025.0000       289.69050       98862.897       15340.439       4.9050000     -0.76275000     0.070750010       341.77800       1.9394158    0.0096836358
       4030.0000       289.60481       98832.316       15282.264       5.2072500     -0.98275010      0.44050000       341.43600       1.9075306    0.0098388049
       4035.0000       289.58135       98831.763       15242.519       4.3325000     -0.83650000     -0.24725000       341.74700       1.8825389     0.011316230
       4040.0000       289.53120       98841.220       15139.557       3.7400000      0.46525000     -0.51175000       342.03900       1.9187769    0.0094845949
       4045.0000       289.54075       98847.266       15117.389       4.6145000      0.37250000     -0.33775000       341.31400       1.8841309     0.010795000
       4050.0000       289.67364       98875.326       15148.116       4.4600000     -0.13375000      0.10175000       341.70000       1.9055839     0.012150072
       4055.0000       289.65814       98874.063       15164.986       2.7247500     -0.41375000      0.45700000       341.82500       1.9108757     0.011010639
       4060.0000       289.57050       98845.437       15241.318       3.2432500      0.39525000      0.35325000       341.91700       1.8733873     0.012060930
       4065.0000       289.52402       98840.231       15225.375       5.1057500      -1.8040000     -0.30900000       341.41700       1.9146511     0.010676648
       4070.0000       289.42414       98830.069       15170.342       3.0275000      -1.1455000     0.047750000       341.79600       1.9144041     0.010672942
       4075.0000       289.35118       98834.183       15103.666       3.4927500      0.14075000     -0.34375000       341.89700       1.9156326     0.010037474
       4080.0000       289.32726       98866.049       14985.591       3.7252500      -1.0235000     -0.14725000       341.86700       1.8654423     0.011605918
       4085.0000       289.27143       98871.337       14871.976       2.9347500     -0.42700000      0.38800000       342.63600       1.8910273    0.0090252967
       4090.0000       289.16091       98868.899       14726.650       3.1855000     -0.50300000    -0.044500000       341.86700       1.8807748     0.011202777
       4095.0000       289.11354       98865.331       14639.697       1.7552500     -0.90275000      0.25325000       342.27200       1.8915699     0.010120873
       4100.0000       289.10107       98843.082       14545.737       3.2765000      -1.4390000      0.24550000       341.96200       1.8982246     0.010260447
       4105.0000       289.08704       98841.795       14496.943       3.0972500      -1.4475000     -0.21675000       342.28100       1.8985229    0.0097053025
       4110.0000       289.08864       98856.488       14510.612       1.5117500     -0.65975000      0.51975000       342.57700       1.8687754     0.010372095
       4116.0000       289.10932       98855.960       14518.826       2.2017500      -1.2145000      0.29275000       342.49500       1.8851214    0.0096690291
       4121.0000       289.16422       98859.461       14542.107       3.1430000     -0.79675000     -0.40375000       341.79800       1.9071789    0.0092308994
       4126.0000       289.14692       98853.279       14556.016       3.3220000      -1.6857500     -0.35375000       341.48000       1.9514301     0.010818284
       4131.0000       289.10307       98825.651       14581.702       2.4470000      -1.3865000      0.32375000       342.42900       1.8994150    0.0094269572
       4136.0000       289.09276       98827.857       14607.650       2.9700000      -1.7942500     -0.80100010       342.07100       1.8881387    0.0092098610
       4141.0000       289.05006       98844.619       14635.925       1.4797500      -2.1060000       1.1082500       342.18400       1.8890361     0.011027716
       4146.0000       289.02886       98848.648       14640.037       1.8047500      -2.5877500     -0.55375000       341.69500       1.8727286     0.011485413
       4151.0000       289.05647       98865.300       14647.588       3.4970000      -2.1535000   -0.0042500000       341.59200       1.8909840     0.011265714
       4156.0000       289.04786       98861.376       14636.721       3.6387500      -1.5160000     -0.49475000       341.96500       1.8957011     0.010548586
       4161.0000       288.99721       98831.514       14586.368       3.6297500      -3.2267500      0.47775000       341.86500       1.9244278    0.0092457617
       4166.0000       288.98619       98832.721       14570.416       2.7020000     -0.44875000       1.5365000       342.40400       1.8793552     0.011890273
       4171.0000       289.00012       98842.409       14565.608       4.1832500      -3.6637500     -0.73625000       341.34900       1.9399529    0.0093405565
       4176.0000       289.00012       98848.923       14560.402       1.9912500      -3.4980000       1.0610000       342.07700       1.9204061    0.0090487204
       4181.0000       288.99100       98874.737       14549.707       3.7782500      -3.1310000     -0.51200000       341.41800       1.8837254    0.0093349643
       4186.0000       289.01015       98874.653       14574.932       2.9260000     -0.34425000      0.31525000       341.87900       1.8958300     0.010272038
       4191.0000       289.03714       98855.608       14612.092       2.9632500      -2.2842500     -0.66475000       341.53000       1.8868352     0.010741168
       4196.0000       289.07615       98851.463       14667.979       3.4027500      -2.5390000      0.59975000       341.74800       1.9050214     0.011068257
       4201.0000       289.14968       98841.314       14767.723       3.8627500      -2.0897500     -0.14950000       341.58400       1.8868537     0.010898616
       4207.0000       289.18528       98859.437       14843.839       3.1460000      -2.3370000     -0.28400000       341.50100       1.9100107     0.010533597
       4212.0000       289.20632       98866.649       14893.408       4.1975000      -1.1495000     0.098750000       341.74600       1.9037173     0.012144541
       4217.0000       289.21501       98871.389       14929.166       2.3055000      -1.7260000      0.87150000       342.09100       1.9115993     0.010643739
       4222.0000       289.19318       98879.115       14935.325       4.2540000      -1.4385000    0.0052500000       341.72900       1.8828525    0.0099121706
       4227.0000       289.21453       98873.109       14983.447       2.3560000      -1.4802500      0.42025000       342.22300       1.9032588    0.0098789677
       4232.0000       289.25593       98852.840       15042.807       4.3332500      -2.3137500     -0.21375000       341.51100       1.9166713    0.0082915160
       4237.0000       289.28409       98853.822       15115.735       3.0832500      -2.7272500     -0.21150000       341.63900       1.8833342     0.013237912
       4242.0000       289.26800       98853.438       15143.799       3.0197500      -1.9515000     -0.23875000       341.56300       1.8858151     0.011483423
       4247.0000       289.13899       98870.448       15099.157       4.8012500      -2.7752500     -0.34150000       341.30100       1.8733478     0.014603692
       4252.0000       289.08708       98874.081       15081.922       2.8625000      -2.4675000      0.57775000       341.54300       1.8760377     0.011728909
       4257.0000       289.06031       98859.891       15052.381       1.6460000      -1.3877500     -0.25650000       341.73400       1.9308934    0.0092506405
       4262.0000       289.03804       98854.847       15031.007       2.6200000     -0.98875000      0.53450000       341.75700       1.9450687     0.011018682
       4267.0000       289.04040       98851.025       15019.604       2.8407500      -1.7385000     -0.67500000       341.87200       1.8997190     0.010886828
       4272.0000       289.11968       98841.311       15045.891       2.4722500      -2.7595000      0.75025000       341.73900       1.9162499    0.0091446255
       4277.0000       289.08524       98847.168       14991.326       3.4145000      -1.2057500     -0.62500000       341.95200       1.9180016    0.0095784948
       4282.0000       288.99997       98866.252       14906.230       3.8152500     -0.52700000     -0.36300000       341.44000       1.8908103     0.010326275
       4287.0000       288.91522       98877.174       14794.834       3.1165000      0.61225000      0.43200000       341.79400       1.9561099     0.010396957
       4292.0000       288.88058       98879.052       14716.335       3.4970000     -0.65700000      -1.0480000       341.58200       1.9085935    0.0087779969
       4298.0000       288.93409       98856.795       14647.769       2.7137500     -0.71025000      0.44000000       341.80200       1.9355439    0.0086364400
       4303.0000       288.95388       98852.350       14623.509       2.7265000     -0.45525000      0.72500000       342.04200       1.8973760    0.0099357232
       4308.0000       288.99093       98851.812       14622.170       4.2442500    -0.021250000     -0.48650000       341.56900       1.9026406     0.010248460
       4313.0000       289.00965       98853.430       14642.063       4.4677500     -0.71100000      -1.1165000       341.69400       1.9006291    0.0097004934
       4318.0000       289.01364       98876.266       14706.868       4.6417500      0.67350010      0.13625000       341.39600       1.9011353     0.010476748
       4323.0000       289.00204       98879.359       14767.183       3.9732500       1.9612500      0.10375000       341.51200       1.9186443    0.0089361341
       4328.0000       288.96501       98865.307       14864.173       3.1085000     -0.74175010    -0.099000010       341.43200       1.8758654     0.012759880
       4333.0000       288.94467       98859.084       14919.380       3.8842500     -0.65200000     -0.30525000       341.48200       1.8957072     0.010040766
       4338.0000       288.90962       98838.431       14978.658       2.1290000      -1.7000000     0.064500000       341.99200       1.8686055     0.012377476
       4343.0000       288.89120       98835.546       14993.317       3.7357500      0.26675000      0.19150000       341.78300       1.8954363    0.0094354517
       4348.0000       288.90010       98855.457       14943.681       4.5355000     -0.26800000     -0.20125000       341.66600       1.9108009     0.010466705
       4353.0000       288.90021       98862.352       14914.337       4.9177500    -0.068250000      0.66675000       341.45300       1.9022762    0.0099243420
       4358.0000       288.91463       98877.464       14881.395       3.5850000     -0.45825000      0.26875000       341.73100       1.9054438    0.0096229268
       4363.0000       288.90314       98879.531       14825.222       3.5995000      0.63950000      0.67850010       341.74400       1.8661383     0.010744670
       4368.0000       288.85193       98859.731       14739.981       3.9162500     0.034500000    -0.013500000       341.56600       1.9138654    0.0093499697
       4373.0000       288.84315       98852.953       14689.176       2.5995000     -0.33325000      0.31475000       341.66400       1.8873929    0.0093986538
       4378.0000       288.85856       98842.391       14637.719       3.2565000     -0.48300000      0.18525000       341.79400       1.8841753    0.0096696565
       4384.0000       288.84672       98842.795       14577.433       4.1950000     -0.70725010     -0.41625000       341.70100       1.9094485    0.0094360358
       4389.0000       288.85723       98862.731       14563.883       4.6795000     0.015750000    -0.038750000       341.64100       1.9035533    0.0094224310
       4394.0000       288.85358       98869.013       14533.244       3.6415000     -0.68950000      -1.0215000       341.69500       1.9326942    0.0077667146
       4399.0000       288.80488       98879.050       14466.532       6.1210000      -1.0762500      -1.2187500       341.08800       1.9189157    0.0098055002
       4404.0000       288.78876       98877.629       14440.064       4.1290000      -2.6827500      0.18800000       341.58900       1.8858512     0.010103275
       4409.0000       288.81309       98855.609       14449.735       4.9557500     -0.77725010     -0.38925000       341.22200       1.8813053     0.011602637
       4414.0000       288.79936       98852.178       14437.163       5.7975000     -0.70975010     -0.72300000       341.38000       1.9073368    0.0093209326
       4419.0000       288.76179       98852.236       14424.045       4.8185000      -1.7882500     -0.34150000       341.23200       1.8560684     0.014856975
       4424.0000       288.74186       98854.763       14420.483       4.5507500     -0.62925000     -0.56200000       341.26500       1.8983606    0.0096718214
       4429.0000       288.71780       98873.838       14405.827       5.0807500     -0.68400000    -0.078250010       341.40200       1.8989268     0.010636777
       4434.0000       288.68817       98879.193       14405.614       6.1987500      -2.2552500     -0.94275000       341.48100       1.8926404    0.0098819613
       4439.0000       288.66205       98882.460       14447.621       4.1795000     -0.39225000      0.49300000       341.59700       1.8903246    0.0097335150
       4444.0000       288.64209       98875.274       14440.309       4.3195000     -0.25950000      0.97225000       341.55900       1.8403284     0.014733491
       4449.0000       288.61869       98848.237       14419.633       5.3220000      -1.5505000     0.086000000       341.46900       1.8819105     0.011079183
       4454.0000       288.58870       98840.724       14377.099       4.0712500    -0.033750000      0.19175000       341.39800       1.8995661    0.0097059078
       4459.0000       288.56213       98830.700       14278.073       5.0257500      -1.0987500      0.19650000       341.38700       1.8795314     0.010853747
       4464.0000       288.54215       98832.743       14222.295       5.7575000     0.086250010     -0.47500000       341.26600       1.9067746    0.0090375926
       4469.0000       288.51859       98861.806       14206.713       5.2047500     -0.87975000      0.20975000       341.34100       1.9098679    0.0087221926
       4475.0000       288.48287       98872.785       14111.538       4.2952500      -1.8485000      0.47475000       341.57100       1.8393675     0.016270538
       4480.0000       288.46930       98881.373       14012.470       3.4777500      -1.8575000    -0.095250000       341.32600       1.8488606     0.014425327
       4485.0000       288.43340       98875.382       13917.453       3.8072500      -1.2662500      0.49375000       341.45900       1.8856173     0.010698653
       4490.0000       288.34776       98847.437       13730.883       1.5602500     -0.67625000      0.35725000       341.51400       1.9250029    0.0085366193
       4495.0000       288.33056       98839.323       13676.498       2.7510000     -0.77625010     -0.12425000       341.42200       1.8786427     0.010158197
       4500.0000       288.35404       98829.269       13707.540       1.6822500      -1.3510000      0.71475010       341.67000       1.9163570    0.0083470735
       4505.0000       288.34391       98826.402       13707.979       5.7675000      -1.3930000      0.48200000       341.38200       1.9049312    0.0089068124
       4510.0000       288.36785       98835.695       13761.561       3.7255000     -0.93050000      0.15425000       341.39200       1.8989258    0.0093507466
       4515.0000       288.34551       98844.927       13782.850       3.5975000      -1.2452500     -0.19325000       341.29100       1.8975756     0.010620639
       4520.0000       288.23605       98861.697       13748.818       4.2600000     -0.92825000     -0.57700000       341.07700       1.8493751     0.014003325
       4525.0000       288.23499       98863.188       13797.167       4.4817500      -1.2172500      0.70750000       341.33100       1.8762833     0.011475559
       4530.0000       288.29611       98863.168       13920.415       4.9702500     -0.74250000     -0.43475000       341.18200       1.8824666     0.011594988
       4535.0000       288.30601       98860.723       13966.539       4.4635000    -0.041750000      0.54850000       341.18000       1.9380767    0.0081097423
       4540.0000       288.35756       98837.087       14036.087       5.0792500      -1.0747500     -0.54925000       341.15100       1.8883763    0.0098084363
       4545.0000       288.36486       98836.550       14050.396       3.4740000      -1.0322500    -0.061000000       341.18100       1.8771061     0.014515505
       4550.0000       288.29012       98851.795       13962.138       1.5027500     -0.91925010      0.31850000       341.33400       1.9137724    0.0088358279
       4555.0000       288.29262       98859.486       13961.557       2.8245000     0.090500000     0.054000000       341.40400       1.9188062    0.0097927034
       4560.0000       288.34298       98877.645       13989.789       5.1037500     -0.32250000     0.028750000       341.14500       1.8887087     0.010811684
       4566.0000       288.36686       98878.303       14021.558       6.1320000     -0.98450010     -0.90175000       341.13300       1.8952523    0.0097152199
       4571.0000       288.41218       98867.736       14092.899       4.7875000    -0.011000000      0.48650000       341.20500       1.8748355     0.012503722
       4576.0000       288.40483       98861.059       14106.568       4.7562500     -0.92950000      0.13675000       341.21600       1.9034722     0.010331233
       4581.0000       288.34490       98843.777       14080.989       2.6335000      -1.5227500      0.36275000       341.30400       1.9458134    0.0069604524
       4586.0000       288.34350       98840.289       14100.257       4.5322500      -1.4320000     -0.31225000       341.19200       1.8851695     0.010153651
       4591.0000       288.34290       98842.110       14116.739       6.1005000      -2.0962500     -0.99675010       341.06600       1.9206483    0.0096312493
       4596.0000       288.35151       98848.709       14138.394       5.4825000      -1.2765000    -0.075500000       341.09700       1.9078287    0.0096004397
       4601.0000       288.41227       98865.506       14202.209       4.9525000      -2.0320000     -0.56625000       341.18700       1.9278906    0.0092965309
       4606.0000       288.40493       98870.754       14212.444       5.1827500      -1.4922500     0.080750000       341.08700       1.8764538     0.012898185
       4611.0000       288.33639       98879.216       14162.336       6.3927500      -1.4362500      0.28575000       341.12000       1.8731819     0.010176234
       4616.0000       288.35401       98874.958       14205.348       4.1655000      0.35300000     -0.75100000       341.26200       1.9015878     0.011207827
       4621.0000       288.38847       98856.081       14276.887       3.5652500     -0.90425000      0.33450000       341.10100       1.9264685     0.010197117
       4626.0000       288.41673       98848.933       14338.045       6.0272500     -0.87800000     -0.43350000       341.03000       1.9085554     0.010605913
       4631.0000       288.51479       98836.418       14470.244       5.1470000     -0.96025000    -0.017500000       341.17800       1.9255918     0.010525780
       4636.0000       288.51805       98838.693       14509.547       3.4720000      -2.8692500     -0.71800010       341.07300       1.8831760     0.011592070
       4641.0000       288.45433       98853.232       14492.050       5.5330000     -0.72175000     -0.27775000       341.05700       1.8280572     0.013849456
       4646.0000       288.43430       98861.176       14491.340       4.6570000   -0.0095000010     -0.56225000       341.14100       1.8978654     0.011361919
       4651.0000       288.39635       98876.769       14465.002       3.1750000      0.31550000      0.75550000       341.33800       1.8833287     0.010418649
       4657.0000       288.40009       98880.235       14454.362       3.3495000      0.33075000      0.30725000       341.29900       1.8802059     0.011751305
       4662.0000       288.40011       98877.734       14445.809       2.9542500      0.99775000      0.21575000       341.30200       1.8884700     0.010049714
       4667.0000       288.40019       98870.345       14438.032       2.8447500      -1.7590000     0.028750000       341.35800       1.9317496    0.0094182706
       4672.0000       288.40039       98854.403       14429.352       1.6032500     -0.45425000      0.56525000       341.46300       1.8909490     0.010714133
       4677.0000       288.40059       98849.703       14428.944       2.3187500     -0.88700000    -0.092250000       341.07700       1.8888380     0.010732713
       4682.0000       288.39958       98842.457       14428.264       4.1215000     -0.15775000     0.078500000       341.36000       1.8556608     0.011607283
       4687.0000       288.42963       98853.396       14468.778       4.3007500      -1.0120000     -0.31250000       341.27300       1.8990538     0.010872485
       4692.0000       288.41231       98860.417       14474.051       5.3435000      -1.0502500     -0.59525000       341.12100       1.9272976     0.010037087
       4697.0000       288.33925       98870.458       14462.031       4.5960000     -0.91325000     -0.10825000       341.17400       1.9045040     0.010443110
       4702.0000       288.29955       98876.654       14448.002       3.8857500     -0.34775000     -0.23200000       341.33000       1.8900142     0.011072580
       4707.0000       288.22998       98884.915       14397.670       4.9417500      -1.0510000     -0.73000000       341.24200       1.9138311    0.0095751479
       4712.0000       288.18754       98883.634       14361.622       3.1642500      -1.2037500     -0.15800000       341.43700       1.8696279     0.012213956
       4717.0000       288.16969       98876.215       14332.089       2.7142500     0.010250000     0.025500000       341.44000       1.8744140     0.013446881
       4722.0000       288.20678       98860.804       14321.438       4.0377500     -0.55575000     -0.40650000       341.33500       1.9158361    0.0095120172
       4727.0000       288.18534       98852.766       14275.712       4.4472500     -0.95600000      0.14700000       341.09300       1.8749478    0.0091208257
       4732.0000       288.15036       98835.607       14220.631       5.8887500       1.6257500      0.29275000       341.00300       1.9106628    0.0096842334
       4737.0000       288.10018       98852.438       14134.387       5.2040000      0.43050000     -0.42450000       340.97000       1.8815024     0.012483304
       4742.0000       288.08714       98860.506       14085.819       4.3887500      0.37975000      0.15125000       341.07800       1.8954856     0.010406877
       4748.0000       288.13436       98878.090       14063.999       5.1230000       1.0202500     -0.71000000       341.05700       1.8890600     0.010351001
       4753.0000       288.15430       98884.518       14052.841       4.5182500     -0.75850000     -0.43300000       340.96700       1.9078684    0.0091510768
       4758.0000       288.19096       98881.580       14065.012       4.8112500     -0.66450010     -0.31025000       340.91300       1.8484083     0.013536117
       4763.0000       288.20986       98876.232       14081.605       4.4935000    -0.056000000     -0.63050000       341.11300       1.8901924     0.012267299
       4768.0000       288.18599       98859.795       14094.033       2.9335000     -0.79075000      0.23700000       341.19800       1.8790537     0.012405367
       4773.0000       288.19739       98853.090       14129.242       3.7067500     -0.25825000     -0.39425000       341.09500       1.9049379    0.0093637002
       4778.0000       288.24867       98843.607       14199.774       3.1072500      0.29500000     -0.80425010       341.18500       1.9029576     0.010479499
       4783.0000       288.25757       98842.114       14250.537       4.4830000      0.65875010     -0.54100000       341.10700       1.9099743     0.011132751
       4788.0000       288.27065       98854.851       14317.910       5.5905000      0.86125000     0.081000000       341.10600       1.8982081     0.012158323
       4793.0000       288.25797       98861.843       14358.967       3.7327500       1.4545000     -0.79750000       341.09800       1.8979754     0.012138368
       4798.0000       288.17576       98873.271       14382.735       5.6227500     -0.15150000     -0.21825000       341.06700       1.9109664    0.0093543904
       4803.0000       288.13715       98877.933       14388.851       5.2767500    -0.061250000     -0.35075000       340.93600       1.9239115    0.0098719300
       4808.0000       288.11006       98880.653       14372.287       5.3045000      0.48275000     -0.48225000       341.04400       1.9297360    0.0095121217
       4813.0000       288.09144       98877.235       14353.004       4.2430000     -0.10025000      0.65375000       341.19000       1.8881023     0.011505789
       4818.0000       288.08635       98861.068       14296.382       4.6075000       1.2880000      0.84350000       341.03200       1.8927752     0.011852861
       4823.0000       288.09786       98853.121       14274.713       4.0530000      -1.6645000    -0.073250000       341.09500       1.9048958    0.0099093312
       4828.0000       288.13449       98838.994       14266.456       5.3597500      0.16350000     -0.68875000       341.02500       1.8885768     0.011309926
       4833.0000       288.15471       98836.631       14265.303       5.0435000      -1.7820000      -1.0425000       340.98200       1.9319163    0.0096033406
       4839.0000       288.20815       98850.485       14310.610       3.7995000      -2.5382500      0.43525000       341.20200       1.9141728     0.010260275
       4844.0000       288.21070       98857.810       14312.810       4.4765000      -1.0300000   -0.0067500000       341.15600       1.8811923     0.011651248
       4849.0000       288.16290       98872.607       14284.574       4.9395000      -1.5365000     -0.33875000       341.05900       1.9224388     0.015895726
       4854.0000       288.14280       98879.437       14281.529       4.0750000     -0.41350000     -0.24375000       341.13200       1.8724448     0.012993021
       4859.0000       288.10501       98883.411       14263.747       3.3820000      0.48475000     0.041000000       341.16200       1.9069664     0.010724928
       4864.0000       288.08849       98880.779       14267.179       3.1115000      0.58425000      0.84250000       341.26800       1.9004166    0.0097960757
       4869.0000       288.09991       98868.651       14308.428       2.7845000     -0.19175000      0.48675000       341.20500       1.9058570     0.011984153
       4874.0000       288.09991       98862.633       14327.549       2.7942500     -0.70900010      0.33250000       341.15000       1.8777112     0.012073099
       4879.0000       288.10016       98849.247       14340.757       3.0062500     -0.70100000     0.073000010       341.21700       1.8885959     0.010822658
       4884.0000       288.10011       98847.215       14352.626       4.1282500     -0.91625010     -0.51850000       341.21700       1.9104673    0.0099832451
       4889.0000       288.10020       98856.646       14355.804       3.1857500     -0.28950000      0.12500000       341.26100       1.8767187     0.010346425
       4894.0000       288.10036       98862.028       14366.347       4.2047500      -2.3440000     -0.26025000       341.15900       1.8887709     0.011737563
       4899.0000       288.09954       98872.990       14374.307       2.5692500     -0.53075000    -0.063000000       341.27800       1.9010737     0.011043468
       4904.0000       288.09926       98878.265       14390.585       1.8332500     -0.31450000     -0.21425000       341.32800       1.9039550    0.0099827714
       4909.0000       288.11258       98881.150       14438.393       3.9237500      -1.0847500     -0.51650000       341.19800       1.8815159     0.011343837
       4914.0000       288.09868       98881.484       14436.799       2.8055000     0.013500000     -0.27600000       341.24900       1.9040335     0.010379618
       4919.0000       288.04864       98880.315       14401.483       3.6780000     -0.52500000      0.19300000       341.22000       1.8836905     0.010065123
       4925.0000       288.04234       98872.604       14385.315       3.0795000      0.29100000    -0.034500000       341.21700       1.8936490     0.010668590
       4930.0000       288.04291       98856.750       14351.875       5.0037500      -1.6472500     -0.33125000       341.06700       1.8933955     0.011498250
       4935.0000       288.04913       98851.096       14325.533       4.6425000      0.18375000      -1.3807500       341.00700       1.9137229     0.011182459
       4940.0000       288.11120       98841.089       14333.203       5.8547500      0.52025000     -0.12575000       341.10600       1.8977532     0.010803543
       4945.0000       288.10822       98843.966       14299.652       6.4950000      -3.5587500      0.44150000       341.03300       1.9767544     0.012091359
       4950.0000       288.04703       98862.680       14201.581       4.3915000      -3.5637500      0.53750000       341.00300       1.9345867     0.011704460
       4955.0000       288.04352       98870.031       14193.122       5.3665000      -1.1275000     -0.23525000       340.99400       1.8899721     0.011160675
       4960.0000       288.05447       98879.953       14228.878       4.9845000      -3.0157500      0.44600000       340.99800       1.8218879     0.015645336
       4965.0000       288.04459       98884.050       14236.497       3.7555000     -0.21450000      0.12925000       341.26600       1.8994000     0.010695745
       4970.0000       288.05755       98881.451       14294.145       3.4215000     -0.11600000      0.51475000       341.19400       1.9121069     0.010469178
       4975.0000       288.05129       98879.831       14299.370       3.3890000     -0.14275000      0.67750000       341.06100       1.8630956     0.012994109
