MIRICO/SHELL project - Processed LDS file generated on
Fri Jul 21 20:58:46 2017
Time stamp for record start
05/12/2017  10:37: 3.0000
Nb of points in the record
         985
Beam position index
       5.0000000
Beam angle (degrees)
       8.5250000
Open Path length (m)
       83.010000
****************** Temporal data record ************************
Elapsedtime_sec Temp_K Press_Pa Humidity_ppmv WindX_m/s WindY_m/s WindZ_m/s Speedofsound_m/s CH4vmr_ppmv CH4vmrerror_ppmv  
      0.00000000       287.65323       98807.839       15076.067       3.7382500      -1.2370000     -0.97250000       340.54900       1.9640429    0.0091500465
       5.0000131       287.65696       98801.897       15100.407       4.3747500      -1.7647500     -0.57000010       340.51200       1.9362044     0.010765670
       10.000026       287.66754       98790.403       15137.625       4.1137500      -1.7717500    -0.090750000       340.69400       1.9262142    0.0091430805
       15.999994       287.63760       98785.889       15111.294       4.5177500      -1.2275000      0.44675000       340.68900       1.9347459    0.0095604490
       21.000007       287.55082       98790.354       15021.016       5.1017500      -2.2940000      0.23725000       340.61600       1.9010963     0.011303180
       26.000020       287.51989       98790.367       14968.219       4.0422500      -2.4767500     -0.15025000       340.87000       1.9166861    0.0096148174
       30.999993       287.48771       98788.369       14880.943       3.6867500     -0.36525000      0.28500000       340.91000       1.8794530     0.014621711
       36.000006       287.49462       98792.017       14867.616       2.9870000      -2.0767500     -0.52725010       340.71800       1.9352325    0.0093546169
       41.000019       287.56426       98798.610       14908.198       3.2095000     -0.78200010      0.25925000       340.79900       1.9369553     0.010725214
       45.999992       287.54667       98804.614       14900.189       2.8200000       1.8202500      0.18400000       340.66600       1.9288221     0.011539173
       51.000005       287.51105       98815.401       14913.143       2.5080000      0.46125000      0.54000000       340.74500       1.9267733     0.011124505
       56.000018       287.48253       98819.727       14903.587       3.3282500     -0.33650000     0.096250010       340.91000       1.9328393     0.010060513
       60.999991       287.39357       98820.592       14847.291       2.5800000     -0.34925000      0.48850000       340.92800       1.9190320     0.013267677
       66.000004       287.37087       98821.735       14831.486       2.4282500     -0.27950000      0.27600000       340.86000       1.9006762     0.010719446
       71.000017       287.40002       98820.393       14844.589       4.2217500     -0.54175000    -0.072000000       340.74600       1.9204250    0.0093297006
       75.999990       287.40002       98820.439       14834.935       3.8892500      0.69525000      0.24050000       340.84100       1.9180619    0.0085475348
       81.000003       287.39985       98821.280       14822.596       5.2300000      0.58575000     -0.61675000       340.60100       1.9181658     0.012019506
       86.000016       287.39992       98819.409       14801.348       4.7662500       1.3210000    -0.087000000       340.68400       1.9258019    0.0097803390
       90.999989       287.40087       98817.589       14763.300       4.2825000      -1.0897500     -0.54250000       340.79500       1.8907865     0.010756463
       96.000002       287.40122       98811.860       14756.717       3.0042500      -1.5762500      0.30225000       340.68600       1.9407720    0.0096883631
       101.00002       287.40920       98801.396       14755.035       3.2637500      -1.2087500    -0.018000000       340.75000       1.9217679     0.010998459
       107.00002       287.38465       98788.810       14802.454       2.7832500     -0.31750000      0.23550000       340.91300       1.9298160     0.012357595
       112.00000       287.35596       98783.586       14801.596       2.1265000     -0.74250000     0.073500000       340.79700       1.9421475     0.010202381
       117.00001       287.28482       98780.376       14756.773       2.9552500     -0.46475000     -0.23825000       340.86900       1.9228770     0.011545199
       122.00002       287.24362       98782.850       14721.935       4.0332500      -1.9475000    -0.092500000       340.62400       1.9091898     0.010709778
       127.00000       287.21465       98790.239       14677.677       3.6790000      -1.2212500     -0.26650000       340.61000       1.9342513     0.013350247
       132.00001       287.18785       98804.274       14597.836       3.3897500     -0.25225000      0.19325000       340.78600       1.9107928     0.011601243
       137.00002       287.20092       98815.531       14576.498       3.6245000     -0.53550000     -0.36200000       340.68700       1.9054108    0.0099719022
       141.99999       287.25587       98832.086       14586.221       4.7115000      0.87825010     -0.40125000       340.58200       1.9274590     0.011198764
       147.00001       287.25455       98840.167       14559.172       4.3415000      -1.4425000     -0.12575000       340.64500       1.9598171     0.013091610
       152.00002       287.25591       98842.748       14548.476       4.2082500     -0.72825000     -0.13150000       340.73100       1.8808981     0.010549009
       156.99999       287.21486       98834.210       14522.081       3.6932500     -0.13950000     -0.11375000       340.66100       1.9003736     0.010994432
       162.00001       287.19380       98830.215       14512.101       2.7942500     -0.23575000     -0.11600000       340.78600       1.9032444     0.010108333
       167.00002       287.18503       98826.235       14517.962       2.2892500     -0.46425000      0.23950000       340.84500       1.9421626     0.011803546
       171.99999       287.20617       98819.830       14564.996       3.1545000      -1.7497500     -0.36175000       340.69100       1.9247575     0.011308314
       177.00001       287.18443       98815.989       14547.138       2.5580000      -2.3792500      0.47275000       340.66900       1.8843644     0.010741810
       182.00002       287.15028       98816.289       14510.906       3.7450000      -1.4935000      0.15350000       340.64500       1.8970014     0.012736703
       186.99999       287.08514       98807.094       14440.336       3.3882500     -0.42950000      0.49825000       340.69800       1.8973324     0.013449745
       192.00000       287.08097       98800.039       14421.212       4.8900000      -1.1232500      0.17325000       340.55200       1.9381507    0.0094074968
       198.00001       287.16875       98783.090       14475.962       4.1895000     -0.12900000      0.47100000       340.80800       1.9078530     0.011624651
       203.00003       287.20841       98781.904       14497.623       3.7807500      -1.3387500     -0.37900000       340.51900       1.9223526     0.012796711
       208.00000       287.28033       98794.881       14536.936       3.5315000      -1.0885000   0.00075000000       340.57300       1.9070824    0.0098506235
       213.00001       287.31758       98800.947       14562.848       2.5832500     -0.10550000      0.34100000       340.72400       1.9208762     0.013441489
       218.00002       287.28563       98813.500       14541.157       4.1015000     -0.58850000     0.053500000       340.74700       1.9027577    0.0092239194
       223.00000       287.29708       98823.245       14563.086       2.9057500      -1.6797500      0.57700000       340.65800       1.9184089     0.010145795
       228.00001       287.34796       98826.977       14635.439       4.8935000      -1.8307500      0.52725010       340.51700       1.9110776     0.011334038
       233.00002       287.35674       98830.947       14665.572       3.4390000     -0.93475000      0.53925000       340.59000       1.9184859     0.011938797
       238.00000       287.35560       98841.085       14692.576       3.6057500      -1.2405000     -0.47975000       340.59200       1.9234145     0.010677825
       243.00001       287.35434       98842.646       14714.723       4.8625000      -1.6972500     -0.32200000       340.47800       1.9090479     0.013310072
       248.00002       287.29523       98835.058       14686.900       4.2230000      -1.7415000     0.025250000       340.46200       1.8965234     0.010662073
       253.00000       287.28765       98830.032       14694.483       2.3455000     0.013750000     -0.10225000       340.68700       1.9289009     0.010501606
       258.00001       287.33325       98821.769       14741.513       2.0257500      -1.1900000      0.45925000       340.67800       1.9322170     0.011277450
       263.00002       287.35324       98813.757       14765.014       3.7495000      -2.4742500     -0.29250000       340.60400       1.9468576    0.0089239239
       267.99999       287.38949       98804.384       14801.877       2.9032500     -0.65450000      0.13375000       340.62900       1.9403518     0.011090240
       273.00001       287.40806       98798.429       14809.926       4.2042500      -1.3167500      0.18725000       340.49600       1.9227118    0.0088442821
       278.00002       287.38573       98785.112       14759.325       3.8807500      -1.8122500    -0.058750000       340.49700       1.9356636     0.012698927
       282.99999       287.39678       98786.910       14761.770       3.4145000      -1.3522500   -0.0080000000       340.60500       1.8985486     0.011821732
       289.00000       287.43833       98815.916       14784.745       3.4262500      -1.2542500      0.23550000       340.63600       1.9777792     0.010148799
       294.00001       287.45807       98818.950       14809.721       4.2232500      -1.0515000     0.039000000       340.55600       1.9048416     0.010311977
       299.00003       287.49499       98816.166       14867.170       2.1860000      -1.9685000      0.43925000       340.75000       1.9358054    0.0090329287
       304.00000       287.51123       98817.067       14926.777       3.9940000      -1.0572500     -0.61950000       340.55300       1.9298986    0.0098283255
       309.00001       287.52732       98798.734       15015.907       3.4905000     -0.29200000     -0.15575000       340.63200       1.9565795     0.010001065
       314.00003       287.49971       98795.983       15046.845       2.3322500     -0.36375000       1.0725000       340.92300       1.9500136     0.010780107
       319.00000       287.42443       98816.673       15082.540       2.7730000      -1.9022500      0.48750000       340.82500       1.9374643     0.010838372
       324.00001       287.38434       98817.765       15071.492       3.7285000      -2.1697500      0.42325000       340.71500       1.9213105     0.016673814
       329.00003       287.29683       98808.073       14970.879       4.4152500      -1.0272500     -0.67725000       340.58800       1.9214810    0.0095482199
       334.00000       287.27737       98803.663       14914.131       3.7605000      -1.1122500    -0.073000010       340.78600       1.9348643    0.0093036485
       339.00001       287.33791       98791.766       14858.089       3.7070000    -0.014750000    -0.072250000       340.84700       1.9344253     0.010116648
       344.00003       287.35755       98786.901       14807.863       3.8465000     -0.10925000    -0.097250010       340.78200       1.8950674     0.011897183
       349.00000       287.36845       98786.279       14731.432       3.2655000      0.15125000     -0.34025000       340.71700       1.9355622    0.0093611929
       354.00001       287.41246       98790.434       14728.870       3.4917500     -0.40075000     -0.23550000       340.67500       1.9225148     0.010737563
       359.00002       287.47647       98799.123       14774.405       3.9847500      -1.8255000      0.49200000       340.63100       1.9357368    0.0099641051
       364.00000       287.51679       98807.957       14813.620       3.8275000      0.15950000     -0.32500000       340.72400       1.8979914     0.010318147
       369.00001       287.60362       98829.227       14929.899       1.8510000      0.91050000      0.49500000       340.70500       1.9151454     0.011245948
       375.00002       287.62199       98835.885       14989.180       4.0172500      0.41550000      0.11125000       340.76400       1.9058274    0.0085885019
       379.99999       287.55789       98832.719       14976.653       4.6347500      0.10000000     -0.25125000       340.64000       1.9579552     0.010228721
       385.00000       287.53804       98829.800       15014.431       3.6690000     0.048750000     -0.20350000       340.86300       1.9006515     0.010770251
       390.00002       287.50114       98818.564       15059.351       2.6892500     -0.36150000      0.14775000       340.82700       1.9375522    0.0091610652
       394.99999       287.48747       98810.623       15096.992       2.7057500     -0.31500000      0.86425010       341.13800       1.9766018     0.011188128
       400.00000       287.51131       98802.004       15192.713       3.6737500      0.32425000     -0.17825000       340.61700       1.9384863    0.0098414754
       405.00002       287.49459       98796.535       15185.143       4.0895000     -0.62950000      0.19025000       340.52500       1.9290040     0.010743923
       409.99999       287.44755       98787.299       15103.495       4.1177500     -0.86925010    -0.096250010       340.73000       1.9197832     0.013190168
       415.00000       287.44400       98789.477       15058.306       2.2732500     -0.19550000      0.66225000       340.93800       1.9341514    0.0089176469
       420.00002       287.42078       98801.001       14943.538       1.6342500     -0.15300000      0.67500000       341.01100       1.9436884     0.011636209
       424.99999       287.45885       98810.267       14921.985       2.7735000      -1.1890000      0.53600000       341.25000       1.9511677    0.0093830623
       430.00000       287.58304       98828.418       14965.855       2.8310000      -1.0417500      0.20800000       341.18200       1.9322235     0.010354790
       435.00001       287.63614       98836.477       14994.874       2.9097500     -0.40000000     -0.10175000       340.74100       1.9106384     0.012007467
       440.00003       287.71033       98843.605       15075.880       3.9412500     -0.57500000     -0.10800000       340.92100       1.9346289     0.010605029
       445.00000       287.72091       98841.338       15103.779       1.8895000      0.29800000      0.43225000       341.31700       1.9052591     0.013523985
       450.00001       287.64743       98830.022       15098.225       3.3852500     -0.27075000    -0.025000000       340.91400       1.9352723    0.0086046943
       455.00003       287.64404       98820.794       15127.677       2.2227500     -0.69200000      0.59400000       341.09600       1.9344991     0.010580662
       460.00000       287.63186       98801.829       15136.579       1.7720000     -0.77450000     -0.10525000       340.95500       1.9252222    0.0094638235
       466.00001       287.66159       98792.534       15204.326       3.0337500      0.35825000    -0.012250000       340.92300       1.9398055    0.0099967194
       471.00002       287.74936       98787.176       15323.840       3.1460000   -0.0022500000     0.010500000       340.88700       1.9672096    0.0094364777
       475.99999       287.78028       98790.609       15381.991       3.0455000     -0.33275000     -0.21900000       340.68900       1.9522695     0.010224384
       481.00001       287.78445       98802.192       15436.573       3.0115000    -0.048000000     -0.58150010       340.74200       1.9401134    0.0095734835
       486.00002       287.83268       98811.825       15474.916       3.2827500       1.1732500      0.15050000       340.89800       1.9504587    0.0099201972
       490.99999       287.89015       98830.135       15477.823       2.1452500     -0.63050000    -0.086750000       341.08400       1.9237077     0.010657607
       496.00001       287.93045       98837.466       15499.799       2.7532500      0.68775000      0.67950000       340.96300       1.9189985     0.013212271
       501.00002       288.01408       98842.532       15539.366       2.7037500     -0.87575010     -0.28550000       340.74100       1.9125748     0.011858442
       505.99999       288.01833       98841.044       15534.891       3.9835000      0.35475000   -0.0080000000       340.59000       1.9205660     0.011416600
       511.00000       287.96265       98833.599       15512.331       3.5197500     0.072000000    -0.055500000       341.00500       1.9252261     0.011211872
       516.00002       287.92410       98823.982       15478.757       3.8725000     0.016750000      0.15200000       340.97000       1.9466200     0.011879758
       520.99999       287.84196       98805.777       15405.889       3.6272500     -0.18950000     0.080750000       340.71600       1.8956900     0.014082410
       526.00000       287.82939       98797.579       15368.594       2.9697500      0.63575010    0.0040000000       341.00400       1.9253873     0.011894435
       531.00002       287.86124       98787.380       15355.797       2.6880000     -0.35550000      0.14275000       341.11900       1.9433538    0.0096997292
       535.99999       287.83254       98787.845       15292.056       2.3217500     -0.21550000    0.0022500000       341.41500       1.9348904     0.010076176
       541.00000       287.79318       98796.805       15189.740       3.4687500     -0.73350010      0.74550000       341.17700       1.8882644     0.010235910
       546.00002       287.80232       98806.472       15168.004       3.9277500     -0.22850000      0.13675000       340.86100       1.9348956     0.013405503
       550.99999       287.76000       98826.687       15124.409       4.0277500    -0.079500000     0.049000000       340.53800       1.9461627     0.011644246
       557.00000       287.93196       98834.441       15242.658       2.0727500      0.34475000      0.86700000       341.14800       1.9012098     0.013854222
       562.00001       288.05094       98834.139       15340.087       3.9127500      0.33925000    0.0025000000       340.94700       1.9310073    0.0099427754
       567.00002       288.24505       98814.206       15456.109       2.6447500     -0.15400000      0.29650000       341.40900       1.9027681     0.010926019
       572.00000       288.33092       98804.011       15571.663       3.7227500     -0.80000000      0.18125000       340.76900       1.9019648     0.010097201
       577.00001       288.35528       98796.288       15691.311       4.1225000     0.097000000      0.14650000       340.99500       1.9083760     0.011837023
       582.00002       288.30731       98788.373       15820.503       3.9912500     -0.29600000      0.19150000       341.04200       1.9256288     0.013231294
       586.99999       288.30539       98785.776       15928.623       2.3935000      0.54675000      0.59600000       340.92800       1.9282203     0.011636214
       592.00001       288.25064       98788.552       16059.206       3.3060000      0.44250000      0.70450000       341.36200       1.9574271    0.0091986860
       597.00002       288.23911       98796.389       16034.487       4.8292500       1.2405000      0.15375000       340.65300       1.9976521     0.012287671
       601.99999       288.21189       98804.130       15996.491       4.6590000      0.42725000      0.10400000       340.74700       3.9644853     0.012290198
       607.00001       288.09940       98824.931       15837.125       3.3507500      0.34425000      0.35025000       341.23700       3.7252837     0.012603125
       612.00002       288.03736       98833.461       15718.693       3.4157500      0.28625000      0.59500000       340.94800       2.7924063     0.014328562
       616.99999       287.99992       98835.839       15611.899       5.2727500      0.62025000      0.12625000       340.78800       2.5512762     0.011043630
       622.00001       288.00053       98833.890       15528.419       5.2097500       1.0245000      0.20975000       340.80700       4.2069170     0.017226690
       627.00002       287.97051       98825.149       15416.961       3.4267500     0.081250000      0.16200000       341.21900       4.3525050     0.012863045
       631.99999       287.95049       98804.123       15298.048       3.4127500     -0.28650000      0.23200000       341.16300       3.8556883     0.012347759
       637.00000       287.87031       98790.231       15153.712       2.9990000    -0.074500000    -0.012750000       341.06900       3.7146488     0.011141672
       642.00002       287.87468       98786.350       15079.948       4.0082500       1.0532500     0.014500000       340.84500       2.9259409    0.0096024058
       648.00003       287.98880       98797.934       15052.669       3.0002500      0.60900000      0.31550000       341.55800       2.8308758     0.012915276
       653.00000       288.05965       98806.229       15068.582       4.2727500      0.49075000     -0.41125000       340.80300       2.4266205     0.014188651
       658.00001       288.21898       98827.046       15158.870       5.3810000     0.053000000     -0.35575000       340.40800       2.5261560    0.0092532048
       663.00002       288.28384       98834.395       15242.413       4.8160000       1.4582500     -0.27500000       340.82800       2.7670929    0.0094761601
       668.00000       288.24262       98833.279       15324.946       5.6910000     -0.12300000      0.23300000       340.81500       2.7563627     0.013507403
       673.00001       288.25271       98831.933       15458.327       4.8017500     -0.23025000     -0.24550000       340.76900       3.2296230     0.013723250
       678.00002       288.23015       98821.798       15669.615       5.2032500      0.56650000      0.22825000       340.33500       3.4557513     0.013808180
       683.00000       288.24262       98813.755       15815.044       4.3435000      0.38550000      0.19225000       340.59400       3.0288751     0.013593525
       688.00001       288.39558       98801.433       16069.373       3.5787500     -0.56200000      0.77525000       341.35400       3.9939544     0.012406999
       693.00002       288.37958       98797.657       16130.291       2.8112500      0.59150000      0.38425000       341.16500       4.4272867     0.011493469
       698.00000       288.24829       98794.926       16022.214       3.3337500     -0.65725000      0.30975000       341.53600       3.3503463     0.010478976
       703.00001       288.14515       98798.589       15909.423       4.7200000     -0.10200000     0.028500000       340.83000       2.5838377     0.017285104
       708.00002       287.86714       98821.373       15624.143       2.9155000     -0.40850000     0.029750000       341.37200       2.2857112     0.013223460
       713.00000       287.74569       98828.842       15434.170       2.6327500      0.23625000    -0.055250000       341.19600       2.3049150     0.014131282
       718.00001       287.75413       98831.916       15265.904       3.2510000      0.14850000      0.57075000       341.18700       2.8566108     0.012791623
       723.00002       287.73645       98832.456       15119.065       4.7350000       1.1897500      0.27150000       340.67200       2.8935896     0.012809066
       727.99999       287.80439       98821.452       15007.833       4.4147500      0.71400000      0.12650000       340.76600       3.8336691     0.012059234
       733.00001       287.81205       98813.365       14902.763       3.6495000    -0.047250000      0.38250000       341.02100       5.0973476     0.018514438
       739.00001       287.73592       98800.512       14775.925       2.5652500     -0.47275000   0.00050000000       341.74100       4.2530955     0.013094450
       744.00003       287.74352       98797.696       14721.113       4.7332500      -1.1905000     -0.13175000       340.32900       2.2754761     0.011864693
       749.00000       287.75491       98795.152       14689.916       3.6572500     -0.61225000    -0.042250000       340.78300       2.1057774     0.010468939
       754.00001       287.80537       98799.996       14697.092       2.8487500     -0.91850010      0.32725000       341.77500       2.1126328     0.011270834
       759.00003       287.96440       98823.190       14762.211       3.6572500     -0.28550000     -0.46650000       341.35300       2.0285706     0.015618484
       764.00000       288.03695       98829.711       14828.452       3.6690000      -1.3587500     -0.13025000       340.84900       1.9483844     0.012891872
       769.00001       288.08905       98834.886       14913.122       4.6675000     -0.58250000     -0.12725000       340.59200       1.9135169     0.013530228
       774.00003       288.12202       98831.643       15023.293       3.4117500     -0.48375000     -0.20725000       340.63500       1.9289140     0.010262747
       779.00000       288.08704       98809.616       15179.328       3.7930000     -0.74975000      0.16600000       341.07500       1.9281668    0.0099609492
       784.00001       288.10067       98800.281       15300.383       4.0017500      -1.0665000      0.66575000       341.66200       1.9233132     0.010477961
       789.00003       288.12519       98787.960       15451.609       3.6282500      -2.4112500     -0.20925000       341.23400       1.9720895     0.010701859
       794.00000       288.15870       98787.242       15546.556       4.3497500      -1.0260000     -0.39400000       341.26900       2.2772312     0.015622626
       799.00001       288.23281       98798.806       15592.802       2.9117500     -0.41475000     0.096250010       341.44800       2.1553963     0.013755813
       804.00002       288.26906       98807.630       15637.713       2.9715000     -0.20125000     -0.25425000       341.67600       2.7655234     0.012309201
       809.00000       288.30755       98828.654       15665.686       3.7532500      -1.0407500     -0.10125000       340.96800       3.0004353     0.013520519
       814.00001       288.31004       98834.714       15668.583       3.3220000      -1.1842500     -0.40475000       341.09900       2.3649135     0.012866639
       819.00002       288.27449       98832.737       15666.005       4.9275000      -1.9852500      0.21975000       340.70400       1.9750746     0.013423279
       824.00000       288.24092       98830.584       15620.768       4.2575000      -1.9222500      0.32825000       340.36400       1.9223316     0.012093766
       830.00000       288.15869       98818.437       15497.038       3.2240000     -0.17075000     0.037000000       341.06800       1.9450522     0.013123969
       835.00002       288.12537       98810.496       15419.720       1.9797500      0.73500000      0.43150000       341.74000       1.9177311     0.014204178
       839.99999       288.11213       98798.551       15324.447       2.8477500      -2.0425000      0.42825000       341.09800       1.9630247     0.011230132
       845.00000       288.08238       98797.988       15241.746       4.1562500     -0.65375000     -0.53275000       341.67600       2.0183384    0.0096322796
       850.00002       288.04713       98800.172       15152.301       3.6787500     -0.56575000    0.0010000000       340.93400       1.9818070    0.0094135403
       854.99999       288.04350       98806.671       15113.677       3.8135000     -0.68625000     -0.39025000       340.70400       1.9293424     0.010745755
       860.00000       288.04317       98830.594       15086.595       4.5055000      -1.3315000     -0.43875000       340.97600       1.9354646    0.0094648300
       865.00002       288.04934       98835.526       15087.198       3.7015000      -1.1727500      -1.4297500       340.98400       1.9243636     0.012260329
       869.99999       288.09899       98835.150       15148.604       3.1525000      -2.4180000     -0.11425000       341.37000       1.9147726    0.0097118557
       875.00000       288.11271       98829.171       15185.585       2.8170000      -1.1132500     -0.19825000       341.62600       1.9438093     0.012938507
       880.00001       288.05553       98805.700       15195.147       4.5520000      -1.7092500     0.070250000       341.22400       1.9144298     0.011533486
       885.00003       288.12023       98800.302       15273.881       3.4772500      -2.0987500      0.17750000       341.00800       1.9096027     0.015044482
       890.00000       288.25315       98798.766       15380.868       3.3607500      -1.4247500      0.43725000       340.94100       1.9369007    0.0091823688
       895.00001       288.35016       98798.730       15515.030       4.2427500      -2.0555000     -0.42525000       340.84100       1.9892339    0.0091850435
       900.00003       288.54824       98808.910       15730.329       3.2302500      -1.1090000     0.064250000       340.53500       1.9483810    0.0092241235
       905.00000       288.60692       98813.325       15878.812       3.4777500     -0.26400000     -0.31700000       341.02900       1.9495063     0.012480018
       910.00001       288.56804       98815.599       16052.967       3.3635000      -1.0480000     -0.18500000       340.95500       1.9831326     0.012412806
       915.00003       288.54581       98815.950       16124.915       2.5170000      -1.4175000      0.15625000       341.13400       1.9169385     0.012867316
       920.99999       288.45947       98818.816       16140.914       3.7972500      -1.0712500     -0.33850000       340.87100       1.9380509     0.012272385
       926.00001       288.40975       98812.390       16093.382       4.2787500      -1.6467500    -0.026750000       340.39300       1.9316343     0.010611868
       931.00002       288.35162       98793.545       15946.232       3.9290000      -1.7650000      0.24225000       340.72000       1.9596466    0.0090776376
       935.99999       288.32068       98792.044       15855.504       2.8532500      -1.7147500      0.39400000       341.19900       1.9333561     0.012661991
       941.00001       288.29694       98790.285       15724.757       1.7260000      -1.3985000      0.36575000       341.29300       1.9402486    0.0094558001
       946.00002       288.28575       98798.719       15654.647       3.9582500      -1.8040000     -0.33575000       340.82900       1.9731206    0.0093760763
       950.99999       288.30892       98826.692       15629.614       2.6305000     -0.23425000     0.075750000       341.31600       3.0397017     0.010418687
       956.00000       288.29011       98832.383       15568.746       1.9950000       1.2902500     -0.16025000       341.37400       3.4933367     0.011991389
       961.00002       288.28024       98834.570       15527.245       2.9445000     -0.82150010     -0.34650000       341.29400       5.3227221     0.013218807
       965.99999       288.20454       98828.394       15441.147       4.3412500      0.31425000      0.50175010       341.07600       4.5754294     0.012516382
       971.00000       288.05873       98805.919       15313.890       4.7367500       1.2860000     -0.38725000       340.87000       3.3510172     0.011676294
       976.00002       287.98790       98797.735       15217.506       3.1492500      -1.1495000      0.60100000       340.59100       3.9758419     0.012893631
       980.99999       287.88122       98784.807       15095.142       2.6100000     -0.10475000     -0.33475000       340.99900       4.3126170     0.015512680
       986.00000       287.86694       98791.016       15037.483       3.4757500     -0.42175000      0.71725000       341.25300       2.8339905     0.011897590
       991.00002       287.95478       98815.127       15019.169       4.0367500     -0.31725000     -0.40275000       340.84300       2.6822614    0.0089137261
       995.99999       287.95602       98821.415       14990.576       3.1822500     -0.74025010      0.89475010       340.88300       2.3167508    0.0086666305
       1001.0000       287.96589       98835.294       14986.390       3.0950000     -0.64675000      0.30675000       341.53200       2.0422139    0.0099096968
       1007.0000       287.86932       98814.023       14975.783       3.7807500     -0.32000000    -0.069750000       340.90600       2.1038863     0.010159336
       1012.0000       287.83732       98803.868       14982.855       3.3390000      0.10550000      0.24950000       341.04400       2.4216951     0.015066698
       1017.0000       287.86023       98790.341       15051.036       3.1042500     -0.57025000      0.24875000       341.37600       2.3463082     0.013201401
       1022.0000       287.85039       98786.613       15073.136       4.5822500     -0.39050000      0.20675000       341.25900       2.1884464     0.010133686
       1027.0000       287.84056       98790.261       15076.903       4.1812500      -1.1292500      0.22975000       340.89600       2.0619228    0.0087034869
       1032.0000       287.85735       98804.866       15069.712       2.9722500      -1.0557500      0.23325000       341.18600       1.9644919    0.0090123180
       1037.0000       287.84570       98810.860       15051.814       3.1517500      -2.0760000      0.14225000       341.15800       1.9281334    0.0090872085
       1042.0000       287.78849       98822.559       14991.468       3.1015000     -0.38100000      0.62825000       341.46500       1.9206038     0.011315362
       1047.0000       287.84555       98821.604       15017.849       2.1010000      -1.2120000    -0.037250000       341.46800       1.9453203    0.0098337887
       1052.0000       287.85750       98817.005       15025.206       3.3555000      -1.6655000     -0.60650000       341.41100       1.9289704     0.010205963
       1057.0000       287.87022       98796.687       15070.451       4.4320000     -0.68150000      0.72775010       341.08300       2.2004801     0.013983817
       1062.0000       287.86278       98792.092       15069.430       3.7740000     -0.94850000     -0.14600000       341.48700       2.6740203     0.011763946
       1067.0000       287.83071       98793.635       15038.865       2.4165000      0.70900010    -0.055250000       341.52100       2.7631803     0.011294814
       1072.0000       287.74441       98796.711       14974.850       4.0465000      0.74025010      0.57425000       341.21500       2.3591157     0.010091781
       1077.0000       287.71558       98806.539       14903.121       4.0677500      0.92125000    -0.034000000       340.97600       2.6722350     0.010058337
       1082.0000       287.69425       98833.914       14796.651       2.8042500      -1.2470000     0.072750000       341.11800       3.2169903     0.012806972
       1087.0000       287.68530       98835.633       14684.971       2.8742500     -0.48075000     -0.10750000       341.32300       5.6523665     0.013762206
       1092.0000       287.69394       98833.277       14625.669       3.1450000     -0.75325010      0.21075000       341.00700       5.0980564     0.018644802
       1098.0000       287.72008       98807.717       14577.677       1.5195000     -0.40850000       1.3652500       341.60100       5.6740754     0.018380432
       1103.0000       287.75122       98801.533       14591.577       3.9732500      -1.4247500      0.43450000       341.28200       5.3664453     0.016627537
       1108.0000       287.83868       98800.561       14689.761       1.7470000       1.3012500      0.71375000       341.57300       4.8855579     0.013201004
       1113.0000       287.86621       98803.129       14766.092       3.1017500      -1.7592500      0.64950000       341.30500       3.6495682     0.016003557
       1118.0000       287.87183       98826.776       14914.292       2.6710000      0.25850000      0.18775000       341.06100       3.0511192     0.012377205
       1123.0000       287.85924       98834.077       14981.261       4.0455000      -1.8192500       1.3425000       341.45600       2.7565586     0.010984749
       1128.0000       287.77650       98835.598       14999.123       4.5977500       1.0212500      0.21400000       340.87300       2.2820389     0.013683612
       1133.0000       287.73750       98831.977       15006.191       3.1587500     -0.92450000      0.56125000       341.00100       1.9747838     0.011754991
       1138.0000       287.69571       98809.073       14943.848       4.8987500      0.42975000     -0.18600000       340.84500       1.9423186     0.011655705
       1143.0000       287.68767       98801.434       14913.152       3.6555000      0.72825000     -0.76325010       341.16500       1.9637263    0.0092057436
       1148.0000       287.73428       98795.691       14905.512       3.6275000     -0.60775010     -0.61900000       340.80300       1.9370947     0.010547775
       1153.0000       287.75418       98797.447       14874.183       3.4507500     -0.17225000      0.26500000       340.98000       1.9430801     0.013483285
       1158.0000       287.79042       98822.700       14833.718       2.7252500     -0.27200000     0.085000000       341.10100       2.1676005     0.014854545
       1163.0000       287.80906       98828.982       14795.978       3.8655000      0.65875010     -0.15800000       341.08800       3.2474732     0.011027903
       1168.0000       287.78666       98829.997       14704.992       3.0622500    -0.041000000      0.42775000       341.14600       2.9203915     0.010269717
       1173.0000       287.79841       98827.430       14687.820       4.2627500      -1.4732500      0.83525000       341.05100       2.4619942     0.013461920
       1178.0000       287.84865       98801.856       14741.550       3.9475000      -1.5810000      0.40150000       341.19400       2.0488689    0.0090368714
       1183.0000       287.85770       98795.438       14759.908       3.4710000      -2.0190000     -0.33650000       340.92500       1.9393326     0.010525316
       1189.0000       287.84405       98800.258       14793.693       3.1852500     -0.53525000     0.083000000       340.83300       1.9005252     0.010613459
       1194.0000       287.85385       98805.784       14844.143       4.2015000     -0.55525000     -0.63825010       340.96900       1.8691840     0.013763587
       1199.0000       287.84286       98829.057       14890.652       3.5680000      -1.0985000     0.048000000       341.10300       1.9469700     0.010079283
       1204.0000       287.84641       98835.235       14931.030       4.5205000     -0.58875000      0.20250000       340.80300       1.8821147     0.010876761
       1209.0000       287.88136       98835.843       15016.311       4.6960000      -1.1862500     0.037500000       340.86400       1.9195677    0.0091124844
       1214.0000       287.91131       98830.879       15062.618       3.7295000     -0.55975000    -0.050750000       340.78800       1.9496600     0.011967847
       1219.0000       287.92530       98803.716       15067.274       4.1122500      -1.7575000      0.68350010       340.90600       1.9209099     0.011288049
       1224.0000       287.95938       98801.361       15079.055       3.7985000     -0.81675000      0.19925000       340.98400       1.9242238     0.012283444
       1229.0000       288.00819       98810.994       15057.602       3.0020000      -1.1320000    -0.013000000       341.05200       1.9292359     0.013129487
       1234.0000       288.07206       98816.076       15096.931       3.8162500      0.12400000     -0.25900000       340.88600       1.8981269    0.0094334258
       1239.0000       288.17132       98841.987       15167.088       3.6002500      0.17450000     0.066750000       340.71000       1.9329528     0.011753808
       1244.0000       288.22700       98846.025       15227.320       2.7242500     -0.61525010      0.28850000       340.88800       1.9319773    0.0092360886
       1249.0000       288.26399       98831.956       15331.161       3.9525000      -1.0047500      0.39200000       341.06700       1.9248929     0.013883984
       1254.0000       288.32432       98823.210       15419.814       3.2675000      -1.0255000     -0.15150000       340.83900       2.4742544     0.010982078
       1259.0000       288.38873       98798.085       15486.589       3.0740000     -0.23600000      0.49625000       341.10500       2.4412674     0.010735582
       1264.0000       288.41482       98796.238       15560.860       1.8537500     -0.93450000      0.16000000       341.24200       2.7103289     0.013156196
       1269.0000       288.45199       98813.149       15676.966       2.1405000     -0.90325000      0.55200000       341.26500       3.4387623     0.010970650
       1274.0000       288.46487       98817.171       15734.551       3.5520000      0.78375010      0.12500000       341.00100       4.0338780     0.013798915
       1280.0000       288.42267       98835.081       15776.403       2.4842500      0.37475000      0.67700000       341.25300       4.6441902     0.011222164
       1285.0000       288.37666       98833.085       15757.652       3.5887500      0.47575000      0.52050000       341.29300       4.1309700     0.010711956
       1290.0000       288.31625       98805.497       15666.924       3.1657500    -0.028000000      0.12575000       341.23900       4.9070447     0.011448044
       1295.0000       288.27649       98799.957       15618.959       3.9850000     -0.64825000      0.11075000       341.09400       4.0634260     0.012440858
       1300.0000       288.20160       98795.326       15545.296       3.9430000      -1.1125000     -0.32525000       341.16300       3.1684755     0.012378402
       1305.0000       288.17435       98800.257       15492.118       4.0412500      -1.4772500      0.11800000       341.00000       2.7806282     0.013853425
       1310.0000       288.21121       98824.805       15499.809       3.9355000     -0.68375000    -0.028000000       341.13700       2.2979639     0.015806786
       1315.0000       288.19496       98830.345       15415.236       4.0775000      0.41050000     0.058250000       341.07300       2.0696973     0.011407580
       1320.0000       288.14597       98834.827       15248.686       4.2955000     0.081250000     0.028500000       341.19800       1.9369939     0.011751267
       1325.0000       288.14185       98830.141       15163.344       3.7880000     -0.64400010    -0.039000000       341.28300       1.9244571    0.0097362303
       1330.0000       288.12055       98805.576       15029.883       3.5837500    -0.096000000    -0.029750000       341.23800       1.9211231     0.010801144
       1335.0000       288.15911       98800.119       15013.483       1.8477500      0.21650000     -0.54325000       340.88100       2.8021364     0.012708661
       1340.0000       288.27092       98797.711       15097.421       4.1177500      0.98050000      0.29250000       341.23800       4.2763309     0.012984839
       1345.0000       288.34148       98799.336       15178.980       2.6645000     -0.90500000      0.70000000       341.45100       3.2948995     0.011613398
       1350.0000       288.45059       98815.425       15335.906       1.8922500      -1.2947500     -0.25700000       341.42600       3.3722574     0.014155983
       1355.0000       288.48177       98818.612       15435.283       2.7052500      -1.3605000     0.071000000       341.34300       2.2587396     0.012417610
       1360.0000       288.44548       98818.116       15543.321       2.3865000      -1.7000000     -0.16550000       341.44300       1.9454209     0.010356102
       1365.0000       288.45541       98814.225       15617.422       3.6895000      -1.3497500     -0.16050000       341.12900       1.9278121     0.010195461
       1371.0000       288.44349       98796.371       15671.175       3.2450000      -1.4977500     -0.23575000       341.86700       1.9146177     0.010818309
       1376.0000       288.45245       98800.664       15690.036       2.8612500      -2.1715000     -0.36400000       341.07500       2.5770070     0.014315040
       1381.0000       288.52109       98814.573       15702.259       2.8300000     -0.82025000      0.11950000       342.02600       3.3574715     0.012226915
       1386.0000       288.49547       98818.590       15659.151       2.7122500      -1.4635000      0.65000000       342.30300       3.4428680     0.012127834
       1391.0000       288.41002       98835.756       15558.876       1.6440000      0.54200010      0.61125000       342.92500       5.4606130     0.019510351
       1396.0000       288.36972       98831.681       15481.627       3.0402500      0.49975000      0.32375000       342.06200       4.3194309     0.012037515
       1401.0000       288.26911       98803.277       15363.145       2.9292500     -0.59700000       1.0740000       342.78100       3.1158794     0.014890471
       1406.0000       288.30307       98800.641       15302.482       3.8030000      0.46575000     -0.13525000       341.46900       2.3537038     0.012329146
       1411.0000       288.44024       98801.471       15265.469       4.5917500      -1.1475000     0.051500000       341.15000       2.4783391     0.010503159
       1416.0000       288.50021       98807.749       15231.757       5.8522500     -0.52275000     -0.34975000       340.81400       2.9650064     0.013304086
       1421.0000       288.59982       98832.384       15199.198       4.2775000     0.088500000      0.30700000       341.83800       3.0858973     0.010406986
       1426.0000       288.65184       98836.051       15224.350       3.7467500    -0.050000000      0.25700000       341.78800       2.7390865     0.010054810
       1431.0000       288.63608       98832.633       15268.921       5.7482500       1.3765000      -1.0905000       340.85600       2.9834991     0.012135462
       1436.0000       288.67540       98828.850       15358.419       5.0410000       1.2055000      0.32750000       340.87400       2.6411308     0.016317770
       1441.0000       288.74934       98812.603       15535.911       4.0965000      -1.5515000    -0.089000000       341.53900       2.5485907     0.010646107
       1446.0000       288.78089       98814.039       15627.722       3.7812500      -1.2685000    -0.047500000       342.11100       2.3226341     0.011459008
       1451.0000       288.79453       98823.992       15708.787       4.6155000     -0.17575000      0.17525000       341.76800       2.1086113     0.012931720
       1456.0000       288.82461       98828.865       15783.014       4.0230000     -0.13925000      0.40100000       341.77400       2.0415188     0.013481162
       1462.0000       288.84417       98845.258       15831.185       5.1527500     -0.34900000      0.69925000       341.45500       2.1747155     0.011489952
       1467.0000       288.91503       98820.802       15919.649       4.8632500    -0.028500000     -0.11875000       341.41600       2.3555343     0.013941918
       1472.0000       288.95598       98813.469       15954.306       2.4645000      0.14825000       1.2377500       342.18100       2.2460744     0.010858251
       1477.0000       288.98464       98809.816       15954.839       5.5087500      -2.1957500     -0.13750000       341.45200       2.1505266     0.010533989
       1482.0000       289.00676       98802.294       15913.539       5.0162500      -1.3730000     -0.88000010       340.65500       2.0015882     0.017167828
       1487.0000       289.01556       98804.170       15886.492       4.6542500      0.65475000     -0.30925000       341.88000       1.9619917     0.014134997
       1492.0000       288.99984       98822.176       15826.857       4.8457500   -0.0032500000     0.047000000       340.91900       1.9475957     0.011786194
       1497.0000       289.01479       98820.158       15801.658       4.0312500      0.55600010     -0.32225000       340.88000       2.3179995     0.010064474
       1502.0000       289.00623       98820.098       15765.713       4.1692500     -0.38900000     -0.17700000       341.36100       2.1835374     0.014914693
       1507.0000       288.96989       98817.314       15693.492       4.7135000      -1.0740000     -0.47150000       341.37600       2.0402808     0.012311879
       1512.0000       288.95010       98819.074       15656.603       3.4837500     -0.54275000      0.26950000       341.59200       1.9871957     0.015136007
       1517.0000       288.93031       98823.292       15635.500       2.9907500      0.48625000      0.50350000       341.80300       2.2409468     0.011818865
       1522.0000       288.88744       98831.338       15623.626       3.3327500     -0.25200000     -0.14500000       342.11900       2.2054688     0.010556324
       1527.0000       288.90052       98831.031       15624.380       3.7927500     -0.22300000      0.48300000       342.14100       2.0551112     0.011413428
       1532.0000       288.95033       98833.063       15659.952       4.6627500     -0.65950000     -0.44350000       340.91000       1.9799637     0.010480380
       1537.0000       289.01471       98806.540       15639.248       4.9182500      -1.1760000     -0.48075000       341.82300       1.9910438    0.0093575592
       1542.0000       289.01889       98800.452       15625.242       4.2992500      -2.2502500     -0.51025000       341.39700       1.9366070     0.010941826
       1547.0000       288.93941       98809.812       15583.597       4.7492500     -0.46600000     -0.37975000       340.84100       1.9244928    0.0099188481
       1553.0000       288.89174       98814.609       15568.157       4.0162500      0.28400000     -0.20825000       341.06200       1.9911187     0.013534712
       1558.0000       288.81984       98842.596       15601.289       3.8452500      -1.1820000     -0.41925000       340.79500       2.4388542     0.014236277
       1563.0000       288.78270       98846.429       15596.327       3.2132500      -1.7982500     -0.17175000       341.76800       2.7618192     0.013429293
       1568.0000       288.78569       98819.372       15610.741       4.9277500      0.13025000     0.020750000       341.32700       2.3981442     0.011452052
       1573.0000       288.79711       98812.780       15577.936       4.2907500     -0.99125000     -0.32850000       341.58700       2.0726537     0.010002684
       1578.0000       288.80584       98802.837       15434.566       3.4610000     -0.97125010     -0.41375000       341.61800       2.0997362     0.011867949
       1583.0000       288.84860       98801.689       15394.764       3.8597500      -1.0765000      0.49125000       341.72600       1.9776857     0.015417784
       1588.0000       288.97337       98828.484       15382.890       5.4487500      -1.1972500     -0.15450000       341.34200       1.9217526     0.013086701
       1593.0000       289.02178       98834.941       15389.968       2.9015000      -2.5205000     -0.64425000       340.84800       1.9241429     0.011150980
       1598.0000       289.07493       98826.788       15522.842       3.5002500      -1.7405000      0.22625000       341.66400       1.9921689     0.010145743
       1603.0000       289.06968       98825.673       15562.239       1.8997500      -1.4737500     -0.14450000       341.97800       1.9244376     0.011027997
       1608.0000       288.98739       98813.649       15582.643       2.6425000      -1.3025000      0.20075000       341.93400       1.9540584     0.010372797
       1613.0000       288.89460       98812.375       15544.662       3.0860000      -1.6800000      0.49125000       341.32800       1.8751182     0.016706512
       1618.0000       288.70414       98830.198       15405.400       4.4957500      -1.5890000      0.52100000       341.14100       1.9240703     0.014519100
       1623.0000       288.61782       98832.601       15314.459       1.6235000     -0.35800000      0.58200000       341.79000       1.8946905     0.012912453
       1628.0000       288.56324       98827.895       15195.758       2.9462500     -0.61075000     0.075250010       342.15900       1.9107531     0.013748699
       1633.0000       288.52670       98825.584       15105.070      -65.536000      -65.536000      -65.536000       307.23200       1.8579908     0.013083072
       1639.0000       288.60854       98807.750       15057.213       3.5422500      0.11175000      0.11525000       341.65300       1.9552846    0.0098848862
       1644.0000       288.61079       98807.031       14986.314       3.7392500     -0.19300000    -0.035750000       341.42900       1.9896236    0.0096729020
       1649.0000       288.56233       98824.472       14882.633       3.7782500     -0.65700000     -0.61300000       341.02500       2.0479370     0.011623900
       1654.0000       288.54270       98827.793       14821.882       5.8890000      0.18800000      0.24600000       341.44100       2.0101570    0.0099885931
       1659.0000       288.49112       98832.659       14745.133       5.7085000      -1.9210000     0.096000000       341.45700       1.9143833     0.014756199
       1664.0000       288.48862       98832.072       14724.493       5.7080000     -0.13975000      -1.1195000       341.01200       1.9212900     0.012478378
       1669.0000       288.55018       98813.733       14780.469       5.2592500     -0.85950010     -0.16075000       340.69900       1.9149582     0.011564623
       1674.0000       288.55623       98812.560       14793.559       4.2875000      0.14475000      0.42750000       341.41500       1.8833747     0.016622617
       1679.0000       288.54351       98824.927       14811.189       4.5485000    0.0077500000    -0.030000000       341.04700       1.8811137     0.014741898
       1684.0000       288.55351       98826.611       14832.805       4.8975000     -0.43700000      0.57250010       341.33000       1.8796478     0.016543834
       1689.0000       288.53004       98835.127       14826.124       4.2015000     -0.73600010      0.70425000       341.58100       1.9467233     0.010468558
       1694.0000       288.54740       98831.871       14854.018       4.1692500     -0.81350000    -0.072250000       340.98100       3.4768094     0.014086573
       1699.0000       288.63256       98803.364       14927.755       4.6655000      0.42150000      0.12575000       341.07400       3.1346323     0.013834650
       1704.0000       288.66865       98801.078       14969.088       4.1727500     -0.17825000    -0.050500000       341.06000       4.0750605     0.017280731
       1709.0000       288.68222       98813.499       14986.773       4.9492500      -1.0585000      0.10450000       341.06700       7.0107418     0.019787393
       1714.0000       288.71254       98815.870       15044.404       4.5622500      -1.9622500     -0.54450010       340.83600       5.7278322     0.015957721
       1719.0000       288.76473       98831.383       15125.020       3.4832500     -0.17400000       1.2055000       341.83900       5.2268364     0.017940465
       1724.0000       288.75759       98834.163       15179.991       3.2035000      0.43150000     -0.18500000       341.29000       4.5827680     0.014440209
       1730.0000       288.71493       98812.706       15301.458       3.1687500     -0.66650000     -0.14125000       340.98400       4.3990459     0.017075785
       1735.0000       288.68876       98812.835       15306.854       4.0117500     0.096500000     0.038250000       340.75500       3.6583830     0.014142188
       1740.0000       288.57891       98825.107       15213.835       4.3392500     -0.51825000     -0.38750000       341.08500       2.7440507     0.016170403
       1745.0000       288.58331       98826.427       15182.599       4.0402500       1.6537500   -0.0037500000       341.29900       2.2360193     0.012917213
       1750.0000       288.67012       98835.270       15094.532       4.5050000     -0.38125000     0.082250010       341.56900       2.0705075     0.012151323
       1755.0000       288.72662       98830.382       15100.652       5.1405000      -1.0235000     -0.28300000       340.75700       2.0116588    0.0097678919
       1760.0000       288.87253       98802.543       15218.397       4.3690000     0.018750000    -0.059750000       340.68200       1.9450771     0.011460845
       1765.0000       288.87142       98801.943       15224.647       3.3102500      0.47175000      0.66375010       341.32100       1.8896567     0.013439599
       1770.0000       288.77137       98814.005       15227.186       4.9460000      -1.2967500     -0.98250010       340.82600       1.9693143     0.014406158
       1775.0000       288.72499       98816.623       15198.589       3.3477500      -1.9732500     -0.59075000       341.46600       1.9406758     0.011292062
       1780.0000       288.60207       98832.405       15060.985       3.8430000      -1.8327500       1.0177500       341.98200       1.9219998     0.017343571
       1785.0000       288.56113       98833.560       15032.236       3.2725000     -0.29625000      0.63125000       341.78500       1.9801520     0.010115468
       1790.0000       288.61187       98811.706       15072.246       5.0157500     -0.86625000      0.13225000       341.07500       1.9028596     0.011983448
       1795.0000       288.59551       98813.608       15058.880       5.1832500      -1.7947500      0.57975000       341.52500       1.8942609     0.013062998
       1800.0000       288.55797       98828.427       15067.102       4.7570000     -0.96675000    0.0015000000       340.95300       1.8937192     0.013360406
       1805.0000       288.53800       98833.492       15043.691       4.0202500     -0.55225000     -0.31100000       341.32300       1.9258937     0.012160838
       1810.0000       288.47813       98848.006       14933.318       4.5195000      -1.1525000      0.17000000       341.03100       1.9250909     0.011837506
       1815.0000       288.49655       98848.330       14939.998       2.7752500     -0.59700000     0.051250000       341.31700       1.9284499     0.011701490
       1821.0000       288.60117       98828.132       15018.758       3.5680000     -0.49625000     -0.43400000       340.99100       1.9160064     0.010474043
       1826.0000       288.62214       98828.678       15069.142       2.7125000      -1.5725000     -0.52625000       341.54300       1.9201088     0.012517062
       1831.0000       288.67815       98836.152       15195.100       3.2910000     -0.22575000   -0.0067500000       341.69100       2.1995811     0.012290706
       1836.0000       288.64399       98834.305       15222.279       3.9830000      -1.1907500      0.64850000       341.69200       2.2430917     0.010865349
       1841.0000       288.50721       98838.446       15194.701       2.3175000      0.20325000      0.40025000       342.36700       2.1759661     0.014711489
       1846.0000       288.45583       98833.807       15174.683       3.5635000     -0.15700000      0.24250000       341.87100       2.1769157     0.013467019
       1851.0000       288.38604       98811.360       15116.679       2.0912500     -0.83175000      0.39050000       342.26100       2.9430324     0.010990232
       1856.0000       288.38205       98813.465       15091.971       3.7640000     -0.95450000      0.80400000       341.80300       2.6286072     0.012401849
       1861.0000       288.43818       98832.307       15077.728       1.9530000      -1.0097500       1.0815000       341.91500       2.3446184     0.016497402
       1866.0000       288.47683       98831.740       15048.652       4.7515000      -1.6690000      0.10225000       340.84400       2.2132959     0.011469724
       1871.0000       288.55810       98832.818       15031.157       4.5345000      -2.3727500    -0.069250000       341.38600       1.9844522     0.021758803
       1876.0000       288.57054       98829.276       14981.590       3.0875000     -0.82950000    -0.050750000       341.70300       1.9295520     0.017072958
       1881.0000       288.54875       98806.111       14883.601       2.6692500      -1.1690000     -0.66025000       341.54800       1.9194949     0.013895928
       1886.0000       288.55867       98807.355       14863.276       2.5187500      -1.2315000      0.84425000       341.90600       1.9405594     0.012066538
       1891.0000       288.54357       98826.657       14854.009       2.9947500     -0.33600000     -0.44300000       341.73300       2.0038365     0.013329373
       1896.0000       288.55248       98826.992       14873.878       2.8822500      0.38350000     0.055250000       341.81600       2.1722663     0.012213267
       1901.0000       288.59465       98824.504       14956.434       2.3910000      0.16675000      0.54150000       342.03700       2.1045312     0.012436773
       1906.0000       288.62479       98827.473       15002.113       5.0057500     -0.99600010     -0.32625000       341.39500       1.9738187     0.013208756
       1912.0000       288.65004       98823.595       15040.154       4.0815000     -0.27975000      0.23550000       341.28200       1.9072754     0.016809086
       1917.0000       288.70011       98843.232       15153.079       1.4027500     -0.97600010      0.75300000       341.78800       1.9401052     0.012028937
       1922.0000       288.71280       98845.243       15213.949       3.5965000     -0.20650000      0.61600010       341.79300       1.8906143     0.012776448
       1927.0000       288.70090       98837.407       15258.831       2.9265000      0.26850000      0.49775000       341.38100       1.9536147     0.012908166
       1932.0000       288.65119       98812.330       15321.532       4.6172500     -0.20700000     -0.18925000       341.18900       2.0061644     0.010472760
       1937.0000       288.63113       98812.914       15304.015       2.7885000      0.13625000      0.40050000       341.64300       2.0655972     0.017402099
       1942.0000       288.58820       98812.257       15208.311       2.9502500     -0.79625000      0.84750000       341.95400       2.0907483     0.014805397
       1947.0000       288.64516       98837.069       15199.478       5.2757500      -2.5027500     -0.45200000       340.80600       2.0622209     0.014755595
       1952.0000       288.65674       98845.234       15159.192       4.4737500     -0.98375000     -0.83925000       340.91700       1.9231517     0.013189997
       1957.0000       288.64008       98826.734       15100.831       3.9737500     -0.69625000      0.44375000       341.67100       1.9157707     0.015817783
       1962.0000       288.65006       98823.400       15074.299       4.3647500      0.71150000     -0.27575000       341.26100       1.9143405     0.014270540
       1967.0000       288.66009       98823.747       15051.735       3.3520000      -1.8032500      0.24875000       341.43400       1.9057851     0.011016123
       1972.0000       288.62989       98825.352       14983.234       4.6020000    -0.086500000      0.19775000       340.97700       1.8484053     0.016025526
       1977.0000       288.68473       98822.418       15033.895       3.5955000     -0.82150010       1.1617500       341.85800       1.9166157     0.012973742
       1982.0000       288.81161       98828.203       15171.924       5.8462500     -0.15600000    -0.052750000       341.08400       1.9218482     0.015943295
       1987.0000       288.85436       98801.157       15249.369       4.0812500      -1.4235000    -0.019500000       341.66400       1.9032734     0.012982086
       1992.0000       288.86834       98794.955       15309.557       4.8660000      -2.1142500      0.17700000       340.93000       1.9214524     0.013753952
       1997.0000       288.78435       98816.034       15292.612       3.9402500      -1.6852500     -0.75600000       341.26300       1.8582846     0.020704188
       2003.0000       288.73692       98817.281       15322.333       3.8412500     -0.45000000      0.53725000       341.89500       1.8895408     0.020224881
       2008.0000       288.72444       98814.250       15414.795       2.5090000     0.078000000      0.73825000       342.25800       1.8721491     0.017267914
       2013.0000       288.69484       98817.055       15437.143       4.0852500      0.51700000      0.48275000       342.06300       2.0975738     0.011887422
       2018.0000       288.68177       98800.907       15472.540       4.4147500     -0.43275000      0.41000000       341.57000       2.2452868     0.012229605
       2023.0000       288.65048       98801.042       15436.916       2.3050000      0.57350000      0.23075000       342.32300       2.2534967     0.010154116
       2028.0000       288.57686       98832.811       15285.620       2.0662500     -0.15100000      0.43275000       342.16100       2.1984533     0.011664166
       2033.0000       288.53805       98839.900       15185.912       2.4235000      0.11875000       1.0402500       342.10700       3.1664693     0.013632994
       2038.0000       288.50966       98829.264       15072.973       4.1900000     -0.56575000    -0.067000000       341.22400       2.5644799     0.014671262
       2043.0000       288.49061       98830.216       14966.077       2.8802500      0.18000000      0.31150000       341.91400       2.3804122     0.015505984
       2048.0000       288.51454       98824.450       14882.031       3.7422500      0.72750000      0.32750000       341.57900       2.2593603     0.011260930
       2053.0000       288.50354       98823.006       14795.202       3.3615000     -0.57275000      0.25975000       341.50300       2.0713542     0.016199418
       2058.0000       288.46731       98841.966       14676.738       3.2297500     -0.70475010     0.078750010       342.11800       2.0521690     0.015281439
       2063.0000       288.44758       98844.181       14602.176       3.1922500     -0.56975000     0.072000000       341.62800       2.0881778     0.010099857
       2068.0000       288.40986       98826.023       14547.583       2.8832500     -0.68525000     -0.33025000       342.13800       2.0285624     0.014428338
       2073.0000       288.39091       98823.513       14518.747       4.3180000     -0.88350000     -0.25450000       341.33600       1.9928172     0.015820700
       2078.0000       288.39977       98823.543       14536.382       3.9990000      -2.2057500     -0.10275000       341.81900       1.8750283     0.016343031
       2083.0000       288.39966       98823.926       14542.325       4.0532500      -2.5035000      0.13350000       341.16700       1.8661571     0.014159506
       2088.0000       288.37200       98837.623       14540.934       4.0935000      -1.5495000  -0.00050000000       341.53200       1.9317676     0.014725564
       2094.0000       288.40226       98843.937       14586.937       4.8217500      -1.2745000     -0.45600000       341.20600       1.9259154     0.012482221
       2099.0000       288.47598       98839.106       14646.267       3.9530000      -1.8042500     -0.29100000       341.72100       1.8202670     0.020229576
       2104.0000       288.51568       98840.477       14710.276       2.3610000      -1.0237500      0.30425000       342.21000       1.8928407     0.017879374
       2109.0000       288.59025       98849.553       14814.153       4.8050000      -1.9897500     0.090500000       341.48900       1.8708798     0.016375915
       2114.0000       288.62270       98846.092       14903.780       3.4342500      -2.0380000     0.074500000       341.37800       1.8912532     0.013842421
       2119.0000       288.61304       98829.437       15015.912       3.5157500      -1.2707500      0.97900000       341.83000       1.8981331     0.013641136
       2124.0000       288.59939       98828.561       15065.986       3.5797500      -3.2772500      0.30150000       341.69900       1.8965829     0.014009059
       2129.0000       288.53510       98828.881       15071.061       2.0465000      -2.3737500      0.39625000       341.94900       1.8614610     0.016457544
       2134.0000       288.54195       98828.968       15101.654       3.8087500      -1.8607500     -0.96625010       341.56600       1.8883562     0.014235330
       2139.0000       288.59420       98848.451       15115.204       4.8185000      -1.9637500     -0.10275000       341.40400       1.8991079     0.020293680
       2144.0000       288.60415       98848.814       15105.884       3.6842500     -0.71475010      0.17275000       341.70100       1.8890127     0.012535599
       2149.0000       288.65307       98824.339       15115.737       1.8435000     -0.25650000   -0.0072500000       341.48600       1.8987993     0.011982253
       2154.0000       288.66510       98822.327       15097.306       2.7937500      -1.1875000     -0.29000000       341.13200       1.8904536     0.010316499
       2159.0000       288.60523       98832.188       15001.820       2.9252500      -2.1297500     0.029500000       340.91000       1.8782336     0.014878656
       2164.0000       288.58886       98829.736       14968.796       3.8745000      -1.2540000      0.14225000       341.03500       1.8674798     0.014201997
       2169.0000       288.63830       98828.916       15002.600       4.2020000      -1.9182500     -0.24350000       341.12300       1.9004748     0.011901127
       2174.0000       288.59721       98831.529       14964.278       3.7615000      -2.3952500     -0.58300000       341.11600       1.8978705     0.012170389
       2180.0000       288.47367       98823.266       14885.885       3.9770000      -1.5242500      0.11550000       341.15200       1.9069464    0.0096793436
       2185.0000       288.41429       98823.833       14835.623       3.7162500      -1.5845000     -0.47200000       341.32600       1.8977361     0.017805942
       2190.0000       288.29119       98843.547       14716.355       4.5245000      -1.3105000    -0.058500000       340.95700       1.9073753     0.013850857
       2195.0000       288.26597       98842.909       14695.389       3.5312500      -1.2875000      0.68550000       341.51500       1.8939397     0.012535920
       2200.0000       288.35248       98823.196       14765.576       5.2345000     -0.48925000     0.053000000       341.44700       1.9115373    0.0097490541
       2205.0000       288.35605       98823.705       14770.610       3.5280000     -0.43925000     -0.31450000       341.07600       1.8926414     0.015607210
       2210.0000       288.35745       98830.855       14781.013       2.2852500     -0.43500000   -0.0062500000       341.24900       1.8885215     0.014110197
       2215.0000       288.35162       98829.821       14793.430       4.8222500      0.16925000     -0.13175000       341.13400       2.2252721     0.010888365
       2220.0000       288.28898       98837.387       14767.171       5.5540000      0.51150000     -0.49450000       341.23300       2.2038861     0.010668989
       2225.0000       288.29106       98837.006       14780.360       6.0752500      -1.0437500      0.10675000       341.18200       2.1360952     0.011647037
       2230.0000       288.34228       98817.400       14843.402       3.0372500     -0.54525000      0.23850000       341.50400       2.0096632     0.020791595
       2235.0000       288.36218       98818.259       14865.269       2.5422500      -1.9945000     0.078750010       341.88100       1.9130368     0.012009311
       2240.0000       288.38758       98837.400       14859.863       4.5505000      -2.4027500    -0.083000000       341.22100       1.9282069     0.012567588
       2245.0000       288.41749       98836.851       14890.033       4.4952500     -0.65175000      0.41675000       341.61600       1.9075564     0.015524490
       2250.0000       288.44191       98828.636       14925.237       4.9107500     -0.27375000     0.089250010       341.31800       1.8876621     0.015403959
       2255.0000       288.46188       98831.273       14963.465       5.0525000     -0.39525000     -0.49875000       341.18400       1.8870119     0.014511061
       2260.0000       288.51014       98828.578       15057.957       4.0815000      -1.3680000    -0.074750010       341.27200       1.9465689     0.010533048
       2265.0000       288.50756       98829.394       15066.118       3.7492500     0.049000000      0.48425000       341.53300       1.9641967     0.011551016
       2271.0000       288.46291       98849.432       15019.554       1.6012500      -1.5722500       1.4475000       341.57500       1.9012884     0.013244184
       2276.0000       288.42444       98846.189       14983.041       2.5912500     0.079750000      0.23575000       341.72700       1.9145169     0.011470204
       2281.0000       288.35162       98822.900       14896.835       4.0492500     0.093250010    -0.080750000       341.14400       1.9071187     0.011192561
       2286.0000       288.32068       98823.331       14854.250       3.8387500    0.0095000010      0.15975000       341.24000       1.8663550     0.019545772
       2291.0000       288.29694       98831.088       14838.737       3.2652500     -0.16850000      0.46875000       341.37400       1.8576010     0.015105257
       2296.0000       288.28575       98828.168       14792.315       3.6665000     -0.93000010     -0.18775000       341.37300       1.9195032     0.011413875
       2301.0000       288.29993       98829.330       14738.795       4.1517500      0.44700000     -0.11850000       341.22300       1.9512829    0.0097573640
       2306.0000       288.29993       98833.327       14686.362       4.9075000     0.049250000      0.16425000       340.99800       2.0873161     0.014438629
       2311.0000       288.29163       98831.296       14596.702       3.6705000      0.63550000      0.32325000       341.26800       2.0349730     0.014037553
       2316.0000       288.31053       98827.334       14587.643       4.2902500      0.19150000     -0.12000000       341.40800       1.9778057     0.011960492
       2321.0000       288.34598       98832.229       14617.424       4.7190000      -1.1942500      0.22725000       341.16400       1.9620611     0.010802563
       2326.0000       288.36570       98830.616       14643.592       4.8837500     -0.90875010      0.12975000       341.23300       1.9168084     0.013081790
       2331.0000       288.41251       98810.824       14726.825       2.9040000      -1.9275000    -0.047000000       341.09000       1.9154216     0.011904276
       2336.0000       288.40453       98814.130       14754.223       2.6710000     -0.92350010      0.21150000       341.59100       1.9118977     0.011021656
       2341.0000       288.35368       98837.796       14753.039       5.0930000      -1.7700000     -0.85975000       341.00600       1.9260889     0.011420806
       2346.0000       288.33355       98837.400       14768.282       6.1602500     -0.89475010      0.58350000       341.20700       1.8763569     0.017447064
       2351.0000       288.30577       98829.195       14786.908       5.6777500      -1.5595000     -0.30275000       341.22600       1.8745151     0.015231675
       2356.0000       288.27580       98832.098       14780.249       3.1037500     -0.23950000      0.94150010       341.56100       1.9095483     0.013720023
       2362.0000       288.26213       98830.301       14778.350       4.6422500     -0.17500000      0.46850000       340.90800       1.8817207     0.013406948
       2367.0000       288.15524       98826.193       14663.967       2.6947500     -0.51650000      0.36225000       341.15800       1.9223544     0.012624764
       2372.0000       288.09450       98830.069       14582.301       2.9110000      -1.5792500      0.43550000       341.37000       1.8779613     0.018739817
       2377.0000       288.04604       98833.931       14497.501       5.1890000     -0.92625000     -0.23700000       341.01400       1.9044267     0.012154060
       2382.0000       287.98024       98828.184       14377.956       2.9745000     0.084750000      0.58175000       341.44500       1.9559795     0.013393495
       2387.0000       287.98401       98830.682       14310.694       4.4945000     -0.67000000    -0.086750000       341.21000       1.9116053     0.011474734
       2392.0000       288.05553       98848.685       14285.611       3.9862500     -0.36325000    -0.054000000       341.23800       1.8855725     0.016242910
       2397.0000       288.05425       98831.077       14194.199       3.7675000     -0.75050000      0.16250000       341.32500       1.9613580     0.013508023
       2402.0000       288.05547       98827.365       14142.715       3.5872500     -0.19600000     -0.34250000       341.48100       2.1044082    0.0098070148
       2407.0000       288.01502       98838.266       14105.051       4.1000000     -0.10150000    -0.089750010       341.23200       2.2494882     0.012055200
       2412.0000       287.99408       98836.494       14078.197       4.0525000      -1.7095000     -0.41125000       341.00500       2.1212321     0.012535298
       2417.0000       287.98542       98832.237       14071.683       4.0285000      -2.6105000      0.23800000       341.13600       1.9744718     0.012995572
       2422.0000       288.00634       98829.925       14112.319       4.1955000     -0.35500000     0.055250000       341.09800       1.8516638     0.016144737
       2427.0000       287.98460       98833.007       14102.396       3.5597500     -0.39975000     -0.19250000       341.23800       1.8931885     0.012365099
       2432.0000       287.94427       98829.712       14070.751       3.2035000      -1.1500000    0.0082500000       341.35400       1.9120551     0.012472310
       2437.0000       287.93092       98832.221       14072.831       4.2355000      -1.3250000     -0.33150000       340.96400       1.8827404     0.011988663
       2442.0000       287.93843       98836.460       14099.794       3.0597500     -0.87000010      0.52100000       341.31300       1.8888642     0.011349155
       2447.0000       288.01576       98830.559       14197.078       3.4805000     -0.78950010     -0.88675000       341.07800       1.9128544     0.010724892
       2453.0000       288.06312       98828.147       14275.145       3.2915000     -0.70050000      0.25700000       341.29900       1.8976128     0.010676105
       2458.0000       288.09043       98841.226       14337.016       4.0952500      -2.1732500     -0.49575000       341.08000       1.8781874     0.013030381
       2463.0000       288.10909       98842.731       14389.423       4.1422500     -0.46450000     -0.62600000       341.11000       1.9383828     0.011429235
       2468.0000       288.10004       98829.384       14425.420       3.6457500      -2.7522500   0.00025000000       341.04100       1.9017905     0.010841495
       2473.0000       288.10004       98828.843       14454.892       4.5107500      -2.1315000     -0.28250000       340.74500       1.9429557    0.0093676229
       2478.0000       288.11397       98838.076       14497.917       4.8737500      -1.9680000     -0.23325000       340.91600       1.9509714    0.0099856638
       2483.0000       288.10262       98835.767       14500.464       5.3362500      -2.0920000      -1.1985000       340.93600       1.9298174     0.010429354
       2488.0000       288.05168       98828.075       14440.557       3.3775000      -1.5737500     -0.59150000       340.90500       1.8806749     0.018857679
       2493.0000       288.04268       98830.176       14427.983       2.8730000      -1.7277500    -0.047500000       341.11900       1.9203352     0.011177210
       2498.0000       288.02926       98832.090       14393.326       3.0130000      -1.6797500     -0.14325000       341.17700       1.8881718     0.012793190
       2503.0000       288.04163       98829.256       14404.758       2.4677500     -0.64425000      0.40150000       341.25700       1.8989649     0.011421854
       2508.0000       288.13831       98833.566       14512.719       3.7057500      -2.3682500     -0.80550000       340.89800       1.9291792     0.011465026
       2513.0000       288.16550       98837.314       14552.684       4.5645000      -2.2655000     -0.40950000       340.80200       1.9125171     0.011402245
       2518.0000       288.14215       98830.257       14551.910       2.7082500      -2.5050000     -0.68550000       341.05200       1.9422882    0.0098421789
       2523.0000       288.15245       98828.696       14589.263       4.1715000      -1.1077500    -0.061500000       340.96600       1.9076693     0.011621748
       2528.0000       288.13031       98841.118       14595.166       3.8352500      -1.5472500     -0.28425000       340.87600       1.9454228     0.011487854
       2533.0000       288.14272       98842.654       14641.322       4.0435000      -1.0425000     -0.27425000       341.01200       1.9065764     0.011802582
       2538.0000       288.25344       98829.231       14796.224       3.3885000      -1.2447500      0.16100000       341.06700       1.9090017    0.0098822467
       2544.0000       288.26799       98828.985       14866.313       2.9622500     -0.80900000      0.23925000       341.08100       1.9400041     0.011708738
       2549.0000       288.21875       98836.545       14872.953       2.3970000      -1.3130000      0.27625000       341.20000       1.8953431     0.011853562
       2554.0000       288.19517       98835.192       14893.181       3.3057500     -0.60775010   -0.0015000000       341.03100       1.9114357     0.014619680
       2559.0000       288.08290       98833.658       14833.539       2.3477500     -0.35775000      0.40700000       341.27600       1.8831733     0.010499433
       2564.0000       288.07822       98836.655       14856.358       4.1122500      -1.7792500     -0.13600000       340.99700       1.9262563     0.011834752
       2569.0000       288.17561       98838.291       14961.343       4.4095000     -0.80150000     0.039750000       340.87200       1.8690164     0.024885884
       2574.0000       288.21570       98833.819       15007.616       3.5215000     -0.55075000    -0.012250000       340.86200       1.9267345     0.015119036
       2579.0000       288.29027       98828.188       15069.107       3.8535000     -0.93125000     0.025000000       341.03400       1.9126683     0.012738534
       2584.0000       288.32335       98830.515       15097.715       3.2302500     -0.67800000     0.034750000       341.03600       1.9436814    0.0098912443
       2589.0000       288.32586       98831.529       15065.520       4.5442500     -0.48425000      0.50925000       341.08300       1.9405533     0.014676163
       2594.0000       288.29838       98828.981       15065.419       3.8502500     -0.38750000      0.29750000       341.06700       1.9214427     0.013014216
       2599.0000       288.23969       98830.530       15097.592       2.9075000     -0.59625010     0.050000000       341.18100       1.9083660     0.011086824
       2604.0000       288.18587       98837.936       15076.409       3.2227500     -0.76500000     -0.25300000       340.90300       1.8783070     0.013296212
       2609.0000       288.07294       98844.589       15035.230       3.7997500      -1.1192500     0.049250000       340.99400       1.9100356     0.012296480
       2614.0000       288.02038       98845.500       14984.250       2.8455000     -0.73450010      0.47050000       341.03500       1.9197825     0.011743338
       2619.0000       287.99205       98855.033       14859.507       3.0685000      0.84700010    -0.017500000       341.06500       1.9735381    0.0098404617
       2624.0000       287.98945       98858.588       14809.386       3.9207500       1.6235000      0.35250000       341.05900       1.9340834    0.0096474198
       2629.0000       288.03825       98846.977       14793.404       4.1095000     0.050000000      0.25900000       341.01100       1.8980466     0.013616980
       2635.0000       288.06200       98842.319       14782.602       3.7045000      0.22775000      0.81800000       341.07000       1.9151382     0.012041646
       2640.0000       288.12194       98845.964       14831.335       3.3422500     -0.91275010     -0.17550000       341.12900       1.9135567     0.014455998
       2645.0000       288.10375       98845.356       14829.861       2.5665000    -0.057250000      0.44175000       341.12200       1.9036285     0.010642763
       2650.0000       288.02911       98839.205       14814.771       2.7252500      0.84475000      0.51225000       341.14900       1.9189556     0.010668863
       2655.0000       287.97227       98839.474       14789.746       3.5580000     -0.76400010      0.21525000       341.13200       1.9157806     0.010053906
       2660.0000       287.85005       98847.872       14726.499       2.7852500     -0.69550000     -0.39050000       341.05400       1.9610342    0.0094272283
       2665.0000       287.81885       98845.060       14708.788       2.6010000      0.53575000     -0.41875000       341.11300       1.9082281     0.010966296
       2670.0000       287.85418       98833.989       14725.774       2.4910000     -0.62825000     0.059500000       341.21100       1.9428058     0.011205412
       2675.0000       287.84424       98834.183       14694.097       2.8222500      -1.2597500     -0.31575000       341.16900       1.9406813     0.010443031
       2680.0000       287.85705       98837.684       14653.997       2.0940000     -0.93000010      0.34675000       341.26900       1.9481721     0.011540946
       2685.0000       287.85066       98833.111       14621.322       2.1602500     -0.69150000     0.020500000       341.31700       1.9155584     0.010530236
       2690.0000       287.82420       98829.069       14574.616       3.3817500     -0.18725000    -0.035000000       341.10400       1.9128684    0.0089959130
       2695.0000       287.77770       98831.757       14500.324       3.1925000      -1.5565000     -0.46375000       340.80800       1.9147246     0.013243995
       2700.0000       287.70498       98828.656       14411.956       2.7390000     -0.68050000      0.15750000       341.01500       1.9141591     0.012074788
       2705.0000       287.68139       98829.538       14358.571       2.4145000     -0.99225000     -0.36200000       341.01500       1.9236861     0.011538948
       2710.0000       287.65437       98844.610       14279.057       2.9350000      -2.0947500      0.25750000       341.09500       1.9280470     0.012466404
       2715.0000       287.63035       98849.715       14224.627       1.1592500     -0.46250000      0.56700000       341.22900       1.9140356     0.011665967
       2721.0000       287.64840       98848.207       14214.507       4.8952500      -1.1997500     -0.38025000       340.93200       1.9250199     0.013739150
       2726.0000       287.65854       98841.646       14204.054       3.4440000      -2.3925000      0.20025000       340.97800       1.9138619     0.011867689
       2731.0000       287.65236       98828.666       14184.908       4.0647500      -1.6745000     -0.16800000       340.98100       1.8953180    0.0097702661
       2736.0000       287.64259       98829.288       14165.037       3.8157500     -0.87000010      0.38250000       340.93700       1.9099958     0.013638608
       2741.0000       287.65826       98831.226       14173.057       3.0467500     -0.79375000      0.60825000       340.83900       1.9115394     0.012859638
       2746.0000       287.64933       98827.369       14158.262       4.7792500      -1.6572500     -0.32875000       340.74700       1.9287657     0.012316994
       2751.0000       287.58891       98829.391       14094.530       4.0152500      -2.3357500     -0.76325010       340.87600       1.9287478     0.010021580
       2756.0000       287.59643       98833.467       14110.378       4.4672500      -1.3622500     0.057000000       340.89300       1.9119963     0.012212966
       2761.0000       287.65561       98830.257       14178.278       4.3117500      -3.1120000     -0.20350000       340.85200       1.8918264     0.014539830
       2766.0000       287.65705       98828.101       14204.507       3.5495000      -3.2270000      0.32175000       340.91800       1.8710433     0.011258198
       2771.0000       287.66591       98835.281       14273.562       4.5025000      -2.4397500     -0.71125000       340.68400       1.8895672     0.017423290
       2776.0000       287.63872       98839.503       14249.695       3.2535000      -1.8295000     -0.42650000       340.76200       1.9199456     0.013958345
       2781.0000       287.54207       98835.628       14144.185       3.1875000      -1.2975000     -0.26750000       340.94200       1.9206451     0.012619102
       2786.0000       287.52975       98832.660       14110.324       2.6860000      -3.9585000     -0.18500000       340.90500       1.9142010     0.011072125
       2791.0000       287.53502       98834.659       14054.459       3.8417500      -2.3215000    -0.091750000       340.93000       1.9341921    0.0094356792
       2796.0000       287.56276       98837.741       14044.809       5.2532500      -4.0065000     -0.14150000       340.79400       1.9291543     0.015415559
       2801.0000       287.65859       98835.912       14103.641       4.7990000      -2.0360000     -0.17500000       340.73000       1.8987863     0.010304084
       2806.0000       287.67100       98832.883       14095.960       5.0127500      -3.3937500     -0.38375000       340.84000       1.9000196     0.015539736
       2812.0000       287.65640       98835.565       14060.463       4.5330000      -2.9875000     -0.26125000       340.94500       1.9192898     0.011654491
       2817.0000       287.60005       98835.277       14017.648       3.4972500      -2.2087500      0.14025000       340.83200       1.8764430     0.016933883
       2822.0000       287.58748       98834.030       14017.487       3.3567500      -1.7005000     -0.61550000       340.86400       1.8987445     0.012558500
       2827.0000       287.59949       98835.256       14045.901       2.8347500      -2.3745000      0.45075000       340.93400       1.8984510     0.011415872
       2832.0000       287.64982       98846.531       14118.771       5.4700000      -2.8795000     -0.71150000       340.71500       1.8770257     0.013133483
       2837.0000       287.67038       98849.188       14158.250       3.9225000      -2.2512500     -0.18600000       340.86100       1.9187037     0.010794270
       2842.0000       287.70633       98845.404       14216.016       2.8710000     -0.33675000     0.086750000       340.87700       1.9090396     0.012306163
       2847.0000       287.67010       98845.745       14193.632       3.4085000      -1.5082500      0.98300000       340.90600       1.9247194    0.0096103596
       2852.0000       287.68700       98845.859       14229.643       4.5442500      -1.9127500      0.18350000       340.83600       1.9267179    0.0096383945
       2857.0000       287.76052       98841.843       14323.480       3.5700000      0.18200000      0.49100000       340.88800       1.8998414     0.016761078
       2862.0000       287.80035       98839.783       14388.359       4.9522500      0.70600000     -0.14550000       340.77500       1.8887417     0.016996676
       2867.0000       287.84025       98838.974       14457.623       3.9530000     0.034750000     -0.12500000       340.71800       1.9340230     0.011283205
       2872.0000       287.91877       98840.472       14575.129       3.3482500     -0.20475000     -0.18025000       340.92500       1.9194967     0.011300600
       2877.0000       287.91408       98840.492       14594.568       4.1057500      -1.2627500     -0.10200000       340.78100       1.9407667     0.010720241
       2882.0000       287.84988       98839.570       14553.656       3.6757500      -2.7410000    -0.020250000       340.88900       1.8751805     0.013447206
       2887.0000       287.79964       98844.678       14513.379       2.3130000      -1.7255000     -0.23525000       340.79800       1.9234833     0.013721118
       2892.0000       287.78671       98845.780       14508.174       1.7242500     -0.59075000      0.31925000       340.98000       1.9548706     0.010168991
       2897.0000       287.84533       98845.876       14581.838       2.1507500     -0.30325000      0.38200000       340.97600       1.9119985     0.010359484
       2903.0000       287.85703       98845.883       14586.610       2.7215000     -0.90600000      0.49675000       341.04600       1.9430946     0.010816826
       2908.0000       287.85650       98839.926       14555.795       3.9632500     -0.81200000     -0.52200000       340.85600       1.8948179     0.011601006
       2913.0000       287.85541       98839.195       14535.646       4.0962500      -1.0997500     -0.22450000       340.96700       1.9159504     0.013297141
       2918.0000       287.80981       98843.611       14448.633       1.8507500     -0.13500000      0.64650010       341.10400       1.9351891     0.011805793
       2923.0000       287.79105       98845.604       14414.840       2.6382500     -0.11775000     0.050250000       340.98100       1.9347215     0.010625266
       2928.0000       287.79993       98850.650       14434.312       3.3785000     -0.91100010      0.10725000       340.89100       1.9253049     0.011036879
       2933.0000       287.79990       98851.389       14439.803       3.2342500     -0.74000000      0.44125000       340.97500       1.9824476    0.0095980921
       2938.0000       287.80037       98845.271       14456.887       3.1977500      0.13825000      0.11150000       341.00500       1.9568532    0.0098565641
       2943.0000       287.80060       98844.296       14471.210       3.4255000     -0.61075000      0.20175000       340.86000       1.9423651    0.0098315747
       2948.0000       287.81446       98844.680       14487.812       4.2225000      -1.3800000     -0.35325000       340.87200       1.9188595     0.011927703
       2953.0000       287.80344       98844.809       14497.156       3.2370000      -1.1467500      0.17025000       340.85400       1.9235949     0.010853131
       2958.0000       287.76647       98850.728       14511.342       2.7607500      -1.5412500      -1.1337500       340.73900       1.9434356    0.0087404790
       2963.0000       287.74636       98851.407       14509.938       3.8782500      -1.4315000     -0.31650000       340.76500       1.9400613    0.0093234691
       2968.0000       287.70985       98845.493       14494.976       3.2687500     -0.75575010     -0.12950000       340.88000       1.9407736     0.010003490
       2973.0000       287.69083       98844.651       14475.024       4.3707500     -0.84850000     -0.44075000       340.88500       1.9405406     0.012470811
       2978.0000       287.68610       98846.020       14427.970       3.3710000     -0.28575000       1.0250000       340.92500       1.9262160     0.014431618
       2983.0000       287.69738       98845.012       14407.392       4.3307500     0.025250000    -0.064500000       341.05300       1.8519522     0.014548603
       2988.0000       287.73410       98841.625       14399.570       3.3295000      -1.2660000    -0.076250000       340.96600       1.9092575     0.011943865
       2994.0000       287.75762       98845.783       14387.750       3.2867500      -1.3585000     -0.11075000       340.88000       1.9241895    0.0092438660
       2999.0000       287.80791       98858.775       14409.153       1.7725000     -0.87025000       1.7125000       340.95800       1.9300125     0.011119471
       3004.0000       287.81049       98856.391       14397.244       4.2037500      0.35175000      0.67675000       341.01000       1.9428306     0.014108134
       3009.0000       287.76263       98843.370       14350.677       3.1247500      -1.0552500      0.15250000       340.90300       1.9468650    0.0098521565
       3014.0000       287.74247       98845.043       14333.467       3.3102500      -1.6580000     -0.15200000       340.95900       1.9155793     0.018247576
       3019.0000       287.69278       98848.344       14299.020       3.2975000     -0.81425010      0.19750000       341.00200       1.8983110     0.011484501
       3024.0000       287.69017       98843.247       14306.610       3.5430000      -1.4417500      0.49100000       340.92500       1.9134666     0.010417171
       3029.0000       287.75174       98841.941       14381.829       4.3795000     -0.85200010     -0.62350000       340.76200       1.9377143     0.012082668
       3034.0000       287.75840       98846.886       14398.928       2.7662500      -1.0800000     -0.65800010       340.96200       1.9343775    0.0094698058
       3039.0000       287.74410       98848.198       14393.950       2.7802500      0.92650000      0.73825000       341.08200       1.9261095     0.011866793
       3044.0000       287.75405       98843.179       14410.300       4.2317500    -0.070750010    -0.079750000       340.89500       1.8999512     0.016285314
       3049.0000       287.72859       98842.453       14388.564       3.2205000      -1.1572500     -0.13000000       340.91800       1.9405569     0.010630063
       3054.0000       287.74642       98847.382       14409.857       3.9332500      -1.0732500     -0.38275000       340.86200       1.9340705     0.011152723
       3059.0000       287.83296       98848.334       14498.444       3.1740000      -1.2925000      0.58575000       340.82400       1.9289145     0.011008172
       3064.0000       287.86951       98843.238       14535.024       2.2992500     -0.69425000     -0.68425010       340.90100       1.9099269    0.0099539269
       3069.0000       287.90835       98842.181       14569.869       3.4512500      0.39575000     -0.41350000       340.88800       1.9414100     0.013369989
       3074.0000       287.91122       98847.143       14573.606       3.1247500     -0.97850010     -0.21025000       340.94100       1.9728700    0.0097425692
       3079.0000       287.86156       98847.993       14524.287       2.8035000     -0.73450010     0.099250000       341.00200       1.9781967    0.0098680060
       3085.0000       287.83761       98841.949       14503.475       2.8902500     -0.48600000      0.47725000       340.92400       1.9270864    0.0097220148
       3090.0000       287.80113       98846.580       14478.842       3.6440000      -1.1405000     -0.13375000       341.03200       1.9081855     0.011627702
       3095.0000       287.78746       98846.684       14465.468       2.7027500    -0.073000010      0.64050000       341.05900       1.9187093     0.010837950
       3100.0000       287.81213       98828.886       14493.182       3.5560000      -1.3207500     -0.24175000       340.87000       1.9472963    0.0098778001
       3105.0000       287.79577       98826.066       14460.354       3.4210000     -0.57275000     -0.45825000       341.00500       1.9428429     0.010390737
       3110.0000       287.74778       98839.101       14383.812       2.5367500     -0.25400000      0.50150000       340.94100       1.8959502     0.014427783
       3115.0000       287.74440       98843.628       14346.089       2.8132500     -0.91625010     -0.21850000       341.08200       1.9130781    0.0094717808
       3120.0000       287.73217       98845.821       14265.993       3.5132500     -0.59550010     -0.28550000       340.99100       1.9144158     0.014811734
       3125.0000       287.75431       98846.284       14265.551       2.0577500     0.016500000     -0.50750010       341.12100       1.9168759     0.010994063
       3130.0000       287.84135       98844.918       14342.694       1.4442500    -0.041250000       1.0505000       341.11500       1.9155892     0.010282601
       3135.0000       287.87483       98845.925       14378.121       2.8207500     -0.42225000      0.31300000       341.18600       1.9490500     0.010731216
       3140.0000       287.89973       98844.467       14441.382       2.4170000      0.25175000      0.10125000       341.18300       1.9360998     0.012506722
       3145.0000       287.91351       98845.121       14474.250       4.2680000     -0.80150000      0.54725000       340.87600       1.9279040     0.011893363
       3150.0000       287.87846       98851.307       14453.766       3.4835000     -0.55075000    -0.092250000       340.93000       1.9363609     0.011167791
       3155.0000       287.91144       98851.086       14505.509       2.2920000     -0.39800000      0.44725000       341.17700       1.9584453     0.011120497
       3160.0000       287.99682       98842.525       14604.703       3.4015000     -0.88475010      0.65225010       340.88300       1.9335731     0.013773011
       3165.0000       288.02073       98845.330       14659.725       3.7612500     0.079250000      0.73175000       341.07000       1.9495016     0.013446130
       3170.0000       288.05667       98858.707       14746.192       4.1242500      0.28400000     -0.22100000       341.04500       1.9090423     0.012057290
       3176.0000       288.06244       98853.987       14785.555       3.8610000     -0.85225000     0.095750000       340.79200       1.9670478     0.013720017
       3181.0000       287.99730       98843.630       14760.384       2.0120000      -1.2802500     0.084500010       341.08100       1.9249819     0.011365340
       3186.0000       287.98609       98846.296       14751.313       1.9147500     -0.71950000      0.28325000       341.10900       1.9060885     0.011615627
       3191.0000       288.00015       98846.066       14737.799       3.2590000     -0.83500000      0.62000000       341.08600       1.9127860     0.013410811
       3196.0000       288.00034       98841.129       14714.736       3.0240000      -1.2797500      0.13050000       340.89700       1.9540324    0.0095831980
       3201.0000       288.00021       98844.267       14674.981       2.7012500      -1.7525000     -0.33575000       340.86600       1.9254775     0.010795106
       3206.0000       288.00039       98849.409       14640.983       2.6192500     -0.51575010      0.43750000       341.00700       1.9523342     0.011396739
       3211.0000       288.00037       98846.675       14599.928       3.2200000     0.048750000      0.29025000       341.03000       1.9361996     0.011787026
       3216.0000       288.00042       98841.685       14572.081       3.8872500     -0.27675000     -0.47175000       340.78300       1.9162407     0.014772315
       3221.0000       287.99108       98846.217       14529.726       2.7590000      0.18700000      0.14500000       340.98900       1.9127807     0.011620295
       3226.0000       288.00971       98847.527       14542.191       3.0132500      0.17125000     -0.23400000       340.88900       1.8917853     0.012994286
       3231.0000       288.04508       98833.171       14590.519       3.0112500     -0.46150000      0.12925000       340.95000       1.9047047     0.011174636
       3236.0000       288.06520       98831.773       14623.475       4.1542500     -0.92100010     -0.66125010       340.85200       1.9376279     0.014199509
       3241.0000       288.12014       98845.698       14704.030       3.4095000      0.61575000    -0.018750000       340.87700       1.9380492     0.012491565
       3246.0000       288.09369       98849.023       14708.004       2.7032500     -0.24850000     -0.15250000       340.98700       1.9172255     0.010992885
       3251.0000       287.98856       98844.591       14642.640       2.7690000     -0.27750000   0.00025000000       341.06000       1.9041839    0.0099654377
       3256.0000       287.98607       98845.441       14668.262       2.4925000      0.16775000     0.041750000       341.07100       1.8653861     0.019877012
       3261.0000       287.99520       98853.410       14715.326       2.0310000      0.10375000      0.74650000       341.13900       1.9293136     0.011529183
       3267.0000       288.06966       98833.811       14814.313       3.0597500     -0.82975010     -0.49075000       341.07800       1.9176780     0.013340903
       3272.0000       288.07464       98832.188       14819.231       2.5090000      -1.2292500     -0.49375000       341.05800       1.9270324     0.012148828
       3277.0000       288.03041       98836.704       14760.392       1.9892500     -0.89675000      0.22500000       341.30900       1.9066042     0.017175812
       3282.0000       287.89517       98846.307       14597.030       3.4665000     -0.84175000    -0.075000000       341.10800       1.9313866     0.011582014
       3287.0000       287.84587       98843.086       14521.613       2.6292500     -0.76950000    -0.011250000       341.10200       1.9537869     0.011423729
       3292.0000       287.78852       98848.240       14424.757       3.1237500      0.35300000      0.34250000       341.04100       1.9002549     0.012890412
       3297.0000       287.77024       98820.459       14352.990       3.9867500     -0.16150000     -0.17850000       341.07800       1.9211749     0.015560521
       3302.0000       287.78726       98813.981       14327.650       3.8787500      -1.4090000   -0.0067500000       340.89200       1.9499209     0.010999745
       3307.0000       287.86033       98835.487       14328.090       4.5270000     -0.96600000     -0.17825000       341.05000       1.9200650     0.010851008
       3312.0000       287.89989       98845.442       14332.032       3.8582500      0.11075000     -0.27100000       340.90500       1.9073250     0.015847923
       3317.0000       287.93940       98855.398       14359.538       2.8592500     -0.99650010      0.23475000       340.92700       1.9571760     0.012501405
       3322.0000       288.01306       98875.552       14451.227       3.5097500      -1.6245000     -0.12950000       340.80200       1.9334364    0.0098328248
       3327.0000       288.03023       98873.367       14479.294       3.0937500     0.079500000    -0.049000000       341.05200       1.9434600     0.010640407
       3332.0000       287.99974       98854.642       14481.741       2.8800000     -0.77150010     0.070500000       341.11800       1.9317676     0.011013101
       3337.0000       287.98500       98844.662       14464.319       2.3667500      -1.0900000      0.15050000       340.97300       1.9350178     0.012043285
       3342.0000       287.99354       98841.908       14495.848       3.3957500     -0.27225000   -0.0092500000       340.98000       1.9527986     0.010453472
       3347.0000       288.04545       98862.383       14588.759       2.9955000      -1.3705000    -0.085500000       340.95700       1.9325047     0.010907617
       3353.0000       288.05733       98863.483       14654.689       2.1552500     -0.33450000      0.26350000       341.14900       1.9279589     0.010285232
       3358.0000       288.05614       98844.339       14750.760       3.0835000     0.031250000     -0.22725000       341.04100       1.9222223     0.012293082
       3363.0000       288.05493       98843.765       14791.201       2.2922500     -0.50700000      0.28975000       341.18800       1.9560529     0.013016946
       3368.0000       288.02470       98849.324       14780.915       3.8755000   -0.0057500000      0.16850000       340.81700       1.9070317     0.010547473
       3373.0000       287.99477       98844.396       14751.977       3.4037500     0.036750000      0.10825000       340.78300       1.9314719     0.013574111
       3378.0000       287.96653       98841.380       14676.118       2.7015000     -0.47675000     -0.26075000       340.81200       1.9116290     0.010740158
       3383.0000       287.94669       98846.573       14618.825       2.5930000     -0.51050000      0.23600000       341.01400       1.9138148     0.011593470
       3388.0000       287.90924       98846.600       14542.931       2.5025000     0.025250000      0.24725000       341.09200       1.9060612     0.011613211
       3393.0000       287.88996       98843.839       14475.320       2.4457500     -0.61150000   -0.0047500000       341.09300       1.9478154     0.010146967
       3398.0000       287.90002       98853.785       14413.406       1.9632500     -0.16450000     0.087250000       341.02500       1.9377830     0.013521720
       3403.0000       287.90006       98858.230       14364.939       2.1375000     -0.33600000      0.17775000       341.18200       1.9264593     0.010269713
       3408.0000       287.88564       98846.558       14289.692       2.4672500     -0.69175000     -0.10750000       340.84100       1.9294867    0.0098361178
       3413.0000       287.89720       98842.962       14274.056       1.8780000     0.019000000     0.090750000       340.95400       1.9155958     0.012140401
       3418.0000       287.93409       98853.464       14314.149       1.5205000      0.11575000     -0.11725000       341.10000       1.9443703     0.011701159
       3423.0000       287.95414       98851.930       14347.130       1.7282500    -0.076000010      0.68900000       341.16700       1.9200404     0.011025049
       3428.0000       288.00440       98832.795       14444.866       1.7817500     -0.60225000     -0.19050000       341.11500       1.9339822     0.014848103
       3433.0000       288.01209       98832.282       14485.875       1.8640000     -0.75600000      0.14625000       341.11700       1.9602470     0.011664397
       3438.0000       287.95186       98848.833       14467.339       2.1707500     -0.67300000     0.038000000       341.18800       1.9070883     0.012953682
       3444.0000       287.94326       98845.546       14495.600       2.1662500     0.019500000     0.095500010       341.25600       1.9451570     0.015382680
       3449.0000       287.94302       98839.869       14520.949       1.8770000     -0.59750000      0.14075000       341.32800       1.9346341     0.010843320
       3454.0000       287.94657       98841.520       14537.176       2.6620000     -0.82100000     -0.32450000       340.90400       1.9507439     0.010035747
       3459.0000       287.99567       98828.337       14589.087       1.4945000     -0.63550000      0.32575000       341.37100       1.9390750     0.011321896
       3464.0000       288.01216       98826.738       14604.811       3.0357500      -1.0800000     -0.32825000       340.97200       1.9501410     0.012139498
       3469.0000       287.98767       98849.493       14565.429       2.1997500     -0.51625000      0.29975000       341.22000       2.0153246     0.011569080
       3474.0000       288.00173       98854.736       14566.770       3.1015000     -0.13250000     -0.24150000       340.97600       1.9403866     0.010558992
       3479.0000       288.02604       98842.422       14583.001       3.6862500     -0.14050000      0.13850000       340.94900       1.9086405     0.010211180
       3484.0000       288.05991       98844.432       14595.428       2.7265000     -0.85525010      0.27350000       341.19200       1.9368727     0.010262393
       3489.0000       288.14620       98858.776       14640.707       2.3572500     -0.51600000      0.27200000       341.04300       1.9250925     0.011387064
       3494.0000       288.16849       98856.353       14640.140       3.0660000     -0.75250010     -0.26600000       341.03100       1.9394590     0.011015297
       3499.0000       288.15818       98843.374       14600.907       3.4357500     -0.47425000     -0.29450000       341.09600       1.9627154     0.013916336
       3504.0000       288.15421       98845.066       14584.353       4.0652500      -2.6022500    -0.070750010       341.01900       1.9628562     0.012664735
       3509.0000       288.09235       98844.413       14535.819       2.4395000     -0.85075000    -0.032500000       341.22300       1.9672002     0.012956978
       3514.0000       288.08982       98843.448       14531.761       1.6130000     0.098250000     0.085000000       341.19300       1.9192465     0.012231710
       3519.0000       288.13900       98861.453       14579.995       2.4810000     -0.54550000      0.89150010       341.20000       1.9223044     0.011316299
       3524.0000       288.15927       98864.252       14595.809       3.6075000     -0.76025000     -0.32575000       340.90800       1.9009216     0.010482532
       3529.0000       288.19514       98843.594       14608.743       3.1410000     -0.57325010    -0.069750000       341.01400       1.9422602    0.0095069556
       3535.0000       288.21272       98843.081       14631.019       2.9580000      -1.3842500     0.019500000       341.17900       1.9342996     0.011311300
       3540.0000       288.18889       98858.691       14619.821       1.9225000     -0.52675000     -0.74100010       341.21500       1.9072970     0.012544807
       3545.0000       288.20502       98855.326       14658.851       2.8765000     -0.62525000      0.43850000       341.24500       1.9226055     0.011928667
       3550.0000       288.25220       98843.544       14760.941       3.8190000     -0.45350000     -0.10025000       340.88200       1.9248983     0.013730878
       3555.0000       288.25566       98845.787       14788.105       2.3652500     -0.82725010      0.38675000       341.13600       1.9342642     0.012428837
       3560.0000       288.24628       98844.133       14800.924       2.6855000     -0.71050010     -0.17800000       341.17200       1.9444516     0.010187439
       3565.0000       288.25669       98843.966       14815.136       3.0717500     -0.92050000      0.27300000       341.18800       1.9298008    0.0098852809
       3570.0000       288.23188       98862.502       14773.917       3.2142500      -1.7692500      0.12750000       341.06400       1.9121820     0.010799217
       3575.0000       288.25396       98863.834       14776.353       3.0507500      -1.3140000     -0.13975000       341.06700       1.9754051     0.010508416
       3580.0000       288.35264       98842.841       14837.145       3.8567500      -1.4117500     -0.23500000       341.01500       1.8796367     0.014097401
       3585.0000       288.37001       98842.964       14831.815       2.4567500      -1.1090000     -0.62725000       340.91300       1.9119331     0.012525176
       3590.0000       288.35832       98858.581       14789.326       3.7497500      -1.0440000     -0.21100000       341.08100       1.9352373    0.0098850549
       3595.0000       288.35181       98855.009       14770.212       2.6515000      -1.0150000     -0.26350000       341.23300       1.9392972     0.011389859
       3600.0000       288.28985       98843.446       14716.778       2.6600000      -1.6702500     -0.23425000       341.12900       1.9332799    0.0095505400
       3605.0000       288.29233       98845.784       14713.366       2.2957500     -0.21725000      0.65550010       341.22600       1.9691109     0.012968627
       3610.0000       288.35429       98841.767       14771.199       1.7987500     -0.13375000      0.75350000       341.39300       1.9141331     0.012258718
       3615.0000       288.35826       98844.822       14768.042       1.8037500     -0.14425000      0.24200000       341.42900       1.9180100     0.012869878
       3620.0000       288.34626       98875.555       14748.582       1.8580000      0.25150000     0.045250000       341.34200       1.9227013     0.010460667
       3626.0000       288.35813       98872.435       14734.701       1.7170000     -0.99800000     -0.25075000       341.27300       1.9259134     0.014517025
       3631.0000       288.32508       98842.841       14674.227       3.3187500     0.062750000    -0.094000000       340.97600       1.9358729     0.010994060
       3636.0000       288.37068       98842.159       14691.489       2.3447500     -0.48250000     -0.40400000       340.99300       1.9432816     0.015880658
       3641.0000       288.49285       98844.018       14750.789       2.2017500    -0.014500000    -0.063500000       341.16500       1.9592174     0.011703579
       3646.0000       288.54423       98842.790       14810.539       1.7907500     -0.20875000     0.081000000       341.44600       1.9399492     0.011541168
       3651.0000       288.60489       98856.832       14917.959       1.7107500     0.077750000     0.064250000       341.54100       1.8965151     0.020965429
       3656.0000       288.62763       98858.345       14968.501       2.6480000     -0.41150000    -0.022500000       341.20900       1.9583875     0.010158128
       3661.0000       288.58209       98842.157       14999.562       2.1417500     -0.62200000     -0.28875000       341.13500       1.9471970     0.010573450
       3666.0000       288.61937       98844.457       15042.462       2.5920000      0.16550000   -0.0017500000       341.52600       1.9709884     0.010072774
       3671.0000       288.69258       98864.276       15074.439       1.7880000     -0.16775000      0.13050000       341.36900       1.9238899     0.011476351
       3676.0000       288.73239       98860.042       15091.341       2.6370000      0.34550000      0.24575000       341.16700       1.9152136     0.014745080
       3681.0000       288.80609       98845.471       15123.059       2.9570000      0.72800000     -0.56675000       341.10600       1.9041257     0.016147072
       3686.0000       288.82817       98843.262       15111.538       2.7877500      0.43150000      0.30025000       341.74800       1.9125380     0.013816002
       3691.0000       288.80020       98832.984       15053.217       2.7530000     -0.79100000     -0.40075000       341.30300       1.8962590     0.011781681
       3696.0000       288.80038       98833.447       15021.628       3.0305000      0.46500000     0.020250000       341.83100       1.8987480     0.016776643
       3701.0000       288.78240       98853.849       14977.278       2.5897500     0.088000010     0.068750000       341.90500       1.8953604     0.013189349
       3706.0000       288.81975       98851.578       14959.846       2.9297500     -0.70775000     -0.22550000       341.87000       1.8617042     0.013804427
       3711.0000       288.89207       98832.026       14961.124       2.8517500     -0.44500000     -0.49325000       341.28700       1.9201786     0.013366295
       3717.0000       289.03026       98844.277       14961.501       2.1622500     -0.29875000    -0.057000000       341.22800       1.9059950     0.012813295
       3722.0000       289.03808       98845.249       14940.717       3.3422500     -0.30475000     -0.18300000       341.39100       1.9117855     0.013877102
       3727.0000       288.97204       98846.207       14903.852       2.8887500      -1.1252500      0.19075000       341.91300       1.9039053     0.012772509
       3732.0000       288.79726       98858.724       14845.438       2.5007500     -0.63125000      0.47450000       342.41800       1.9290608     0.012633830
       3737.0000       288.73771       98856.977       14788.294       2.5565000     -0.43650000      0.48625000       342.33000       1.8968014     0.014700176
       3742.0000       288.62652       98836.703       14718.046       2.4752500     -0.69475000      0.32350000       342.42400       1.8837064     0.012016251
       3747.0000       288.66989       98853.884       14627.514       2.6307500      0.33550000     0.015750000       342.30700       1.8950184     0.011871113
       3752.0000       288.69981       98857.412       14568.606       2.6455000     -0.39075000    -0.038750000       342.38700       1.8661513     0.013664748
       3757.0000       288.70047       98856.698       14490.126       3.7505000      0.18800000      0.26925000       341.85200       1.8873016     0.012237257
       3762.0000       288.73783       98856.997       14473.981       2.5497500    0.0065000000      0.77350000       342.30500       1.9572323    0.0090790155
       3767.0000       288.79973       98853.588       14501.780       4.9612500    -0.042250000     -0.36700000       341.40400       1.8883210     0.013169356
       3772.0000       288.91130       98836.444       14591.728       3.8302500    -0.078250010     -0.24075000       341.28300       1.8747521     0.010491146
       3777.0000       288.93876       98840.357       14631.571       3.3012500     0.053250000      0.15850000       341.78700       1.8638227     0.012143311
       3782.0000       288.95604       98858.350       14694.979       3.5615000     -0.69525000      0.70725010       341.46200       1.8897174     0.012206837
       3787.0000       288.91627       98846.082       14712.103       3.5160000      0.42625000      0.11075000       341.83000       1.9290122     0.010990973
       3792.0000       288.93244       98844.997       14781.783       4.2270000     -0.59100000      0.48725000       342.45100       1.8877997     0.014093492
       3797.0000       289.04614       98833.608       14970.997       3.5372500    -0.012000000     -0.23450000       342.10400       1.8398913     0.021656445
       3802.0000       289.10678       98830.853       15082.108       3.7717500    -0.017500000      0.55700000       342.11600       1.8603406     0.017630359
       3808.0000       289.18016       98861.314       15208.368       3.2327500      -1.3310000     -0.24175000       342.53600       1.8674660     0.013469996
       3813.0000       289.21730       98865.326       15268.839       1.7790000      -1.4960000     -0.37925000       341.82100       1.8956845     0.014908109
       3818.0000       289.18514       98844.443       15230.022       2.6850000     -0.90075000      0.28375000       342.11400       1.8748325     0.011742149
       3823.0000       289.19630       98843.832       15230.633       1.5395000     -0.25625000     -0.19325000       342.40800       1.8848125     0.013690848
       3828.0000       289.20573       98842.314       15221.992       4.5015000      -1.7405000    0.0090000010       341.79700       1.8846270     0.015204369
       3833.0000       289.24835       98842.870       15230.198       2.6332500     -0.96400000      0.66550000       342.68700       1.9129798     0.012298578
       3838.0000       289.35955       98872.654       15251.587       3.9157500     -0.99950000      0.24150000       342.39200       1.8724965     0.010103817
       3843.0000       289.41897       98876.695       15284.264       2.4932500     -0.60050000       1.1405000       342.61500       1.8660084     0.019655191
       3848.0000       289.45271       98846.040       15322.791       6.2980000      -1.3667500      0.22550000       341.69900       1.8898778     0.019762390
       3853.0000       289.51243       98841.686       15380.685       5.2545000     -0.95100000      0.39150000       341.24700       1.9284372     0.011922874
       3858.0000       289.56608       98841.843       15480.380       4.9340000      -1.3460000     -0.13875000       341.08000       1.9269999     0.016681031
       3863.0000       289.60582       98842.591       15548.572       3.6325000     -0.62925000    0.0045000000       341.59900       1.9043618     0.013806047
       3868.0000       289.74988       98872.236       15651.018       3.6502500      -1.5852500     -0.66550000       341.64400       1.9074465     0.010192184
       3873.0000       289.73051       98875.975       15683.179       4.0965000      -1.5620000     -0.80900000       341.60500       1.8892934     0.014967075
       3878.0000       289.52636       98845.804       15666.904       3.0312500     -0.91325000      0.18600000       342.16500       1.8918497     0.011622840
       3883.0000       289.42544       98841.250       15620.950       5.3115000      -1.9870000     -0.73525010       341.55000       1.8693932     0.012287995
       3888.0000       289.23296       98845.017       15499.158       3.8767500      -1.0850000     -0.18475000       341.81900       1.8849264     0.011211088
       3894.0000       289.14445       98843.586       15384.383       5.0242500      -1.7845000     -0.45500000       340.98900       1.8849997     0.012291580
       3899.0000       289.22510       98863.974       15252.714       4.3907500      -1.1815000    0.0030000000       341.46900       1.8529022     0.023651651
       3904.0000       289.25863       98864.002       15171.254       3.4682500     -0.87075010      -1.0717500       341.63400       1.8685951     0.014026492
       3909.0000       289.33189       98833.489       15118.584       4.6697500      -1.4367500     0.021250000       341.55500       1.8710018     0.011636911
       3914.0000       289.36801       98831.174       15068.862       4.4200000     -0.97700010     -0.11625000       342.39100       1.8686398     0.013096157
       3919.0000       289.38202       98840.933       15041.393       3.5070000      0.10400000      0.18875000       341.73800       1.9002827     0.016121818
       3924.0000       289.41246       98846.083       15025.337       4.4532500     -0.38675000     0.048000000       341.94400       1.9063436     0.011096548
       3929.0000       289.46436       98874.234       15027.559       2.7800000     -0.60450010      0.27100000       342.06700       1.8595553     0.016536517
       3934.0000       289.45731       98875.687       15017.591       2.8925000     -0.91175000      0.28775000       342.30200       1.9080235     0.012036822
       3939.0000       289.39305       98844.856       14998.712       2.4972500      0.10375000      0.39625000       342.76100       1.8986656     0.013068767
       3944.0000       289.39686       98841.808       15017.684       1.7485000     -0.51525000      0.31750000       343.00400       1.9036185     0.010789682
       3949.0000       289.39806       98844.124       15057.766       2.7667500      -1.8345000     -0.64900000       342.35200       1.9092098     0.015443083
       3954.0000       289.39221       98843.332       15080.754       3.1525000      -1.2435000     -0.40550000       342.22800       1.9082199     0.012071763
       3959.0000       289.45182       98863.765       15152.250       3.3060000      -1.0117500     -0.87350000       341.20100       1.8938070     0.010569461
       3964.0000       289.46465       98863.742       15166.413       1.1535000     -0.36100000     0.077750000       342.31100       1.8633502     0.013781932
       3969.0000       289.39143       98833.094       15111.194       2.2387500    -0.071000000    -0.098500010       342.19500       1.8940503     0.013992859
       3974.0000       289.38848       98830.559       15095.319       2.9572500     -0.54900000      0.44525000       342.33200       1.8941423     0.011163328
       3979.0000       289.39923       98843.403       15052.870       2.9822500     -0.91000000    -0.082250010       342.34400       1.8511843     0.015801617
       3985.0000       289.47672       98846.407       15075.043       2.7922500     -0.30175000     0.078500000       342.38800       1.9096876     0.013711467
       3990.0000       289.63638       98864.767       15155.516       2.8412500     -0.75025000      0.51200000       342.20200       1.9087699     0.010255476
       3995.0000       289.69381       98862.826       15193.706       1.7100000     -0.21725000     -0.30625000       342.46500       1.9460198     0.013135755
       4000.0000       289.75609       98832.325       15254.530       2.5520000      -1.4400000     -0.33800000       342.13700       1.8534886     0.016442367
       4005.0000       289.77670       98831.763       15288.331       2.1650000    -0.028500000      0.28425000       342.13400       1.8712760     0.011934773
       4010.0000       289.70146       98843.660       15282.028       2.7345000     -0.21375000      0.61075000       341.68700       1.8979891     0.013346334
       4015.0000       289.68766       98846.196       15299.907       2.5475000     -0.53725000     -0.51425000       341.87600       1.8686062     0.012816406
       4020.0000       289.72258       98864.749       15355.830       3.2532500     -0.80150000      0.39925000       342.28900       1.8531268     0.018763964
       4025.0000       289.69050       98862.897       15340.439       5.9930010     -0.84950010     -0.42275000       341.44300       1.8414617     0.013390205
       4030.0000       289.60481       98832.316       15282.264       4.6700000      -1.1237500     -0.22800000       341.34900       1.8901082     0.010874866
       4035.0000       289.58135       98831.763       15242.519       4.6995000     -0.26225000     -0.10075000       341.85600       1.8924710     0.013931163
       4040.0000       289.53120       98841.220       15139.557       3.7415000       1.2845000     -0.43175000       341.69800       1.8926652     0.011513339
       4045.0000       289.54075       98847.266       15117.389       4.0835000      0.61950000     0.063250010       341.82200       1.8506795     0.014060023
       4050.0000       289.67364       98875.326       15148.116       3.3880000      0.12000000      0.13825000       341.86500       1.8902005     0.012075545
       4055.0000       289.65814       98874.063       15164.986       3.3490000      0.90425000     -0.20125000       341.86000       1.8986272     0.013272777
       4060.0000       289.57050       98845.437       15241.318       2.9552500     -0.19625000     -0.16900000       341.84200       1.8966860     0.013905196
       4065.0000       289.52402       98840.231       15225.375       5.1007500      -1.3397500     -0.15500000       341.46300       1.8196575     0.011876592
       4070.0000       289.42414       98830.069       15170.342       3.6795000      -1.2490000    -0.086000000       341.75600       1.9017407     0.016148531
       4076.0000       289.33806       98836.187       15087.088       3.8660000     -0.13275000     0.035000000       342.11700       1.9080161     0.013934451
       4081.0000       289.31708       98867.696       14963.684       4.1277500     -0.70550000     -0.41000000       341.66200       1.8607847     0.018858321
       4086.0000       289.25878       98871.509       14848.038       2.8945000      -1.1382500      0.23300000       342.14300       1.8832802     0.012893801
       4091.0000       289.14945       98868.595       14707.707       3.0230000     -0.64475010     -0.11650000       341.57800       1.8781650     0.016436196
       4096.0000       289.10705       98864.002       14624.622       1.8980000     -0.77875010      0.22175000       342.37700       1.8669990     0.013140500
       4101.0000       289.09726       98842.220       14533.224       2.8622500     -0.62250000    -0.080000010       342.08800       1.8389592     0.014303720
       4106.0000       289.08574       98842.445       14491.310       2.5757500      -1.8767500     -0.50450000       342.18400       1.8808944     0.014436402
       4111.0000       289.09083       98856.657       14510.752       2.3910000    0.0045000000     0.095000010       342.53400       1.8775557     0.012596320
       4116.0000       289.10932       98855.960       14518.826       1.7010000     -0.78900000      0.67725000       342.76600       1.8486033     0.011148417
       4121.0000       289.16422       98859.461       14542.107       3.7550000     -0.82875000     -0.19125000       342.38200       1.8872330     0.013761425
       4126.0000       289.14692       98853.279       14556.016       3.5655000      -1.7012500     -0.11300000       342.11700       1.8558516     0.013982728
       4131.0000       289.10307       98825.651       14581.702       2.0065000     -0.90850000      0.68625000       342.65000       1.8713601     0.014418978
       4136.0000       289.09276       98827.857       14607.650       2.6745000      -1.2517500      0.27325000       342.14500       1.9122654     0.010291988
       4141.0000       289.05006       98844.619       14635.925       2.4655000      -1.0255000      0.43275000       342.48100       1.8688381     0.014694691
       4146.0000       289.02886       98848.648       14640.037       2.4040000      -3.7275000      0.17300000       341.73800       1.8815444    0.0094058711
       4151.0000       289.05647       98865.300       14647.588       3.5012500      -1.7622500    -0.089500000       341.55200       1.8991703     0.014508952
       4156.0000       289.04786       98861.376       14636.721       3.3347500      -2.5020000     0.057750000       341.85800       1.8892520     0.011171522
       4161.0000       288.99721       98831.514       14586.368       3.9872500      -2.7565000    -0.035500000       341.45100       1.7454473     0.021538226
       4167.0000       289.00012       98839.847       14572.699       3.0172500     -0.37425000      0.35150000       342.31100       1.8716723     0.017260689
       4172.0000       289.00012       98843.417       14564.241       4.2722500      -3.2175000      0.15175000       341.20700       1.8951078     0.014048733
       4177.0000       289.00012       98850.668       14559.849       1.8775000      -2.3847500       1.9470000       341.95100       1.8937482     0.010975902
       4182.0000       288.99380       98875.529       14553.281       2.9545000      -2.5162500      0.13175000       341.72700       1.9152243     0.010009228
       4187.0000       289.01552       98873.425       14582.187       3.7360000      -1.1497500     -0.13025000       341.82500       1.8944629     0.010887054
       4192.0000       289.04393       98854.678       14621.746       4.0670000      -1.7932500     -0.22600000       341.86500       1.9148721     0.013479190
       4197.0000       289.11526       98843.401       14713.956       4.0235000      -1.7830000     -0.20525000       341.33000       1.8757797     0.014315713
       4202.0000       289.15699       98841.548       14780.277       3.7632500      -1.9757500      0.45750000       341.85600       1.9146571     0.013278951
       4207.0000       289.18528       98859.437       14843.839       3.9355000      -1.6045000    0.0040000000       341.53900       1.8818059     0.014214033
       4212.0000       289.20632       98866.649       14893.408       3.9860000      -1.4765000    -0.033250000       341.84100       1.8712164     0.012379967
       4217.0000       289.21501       98871.389       14929.166       3.0152500      -1.4162500    0.0062500000       341.91600       1.8526308     0.014073789
       4222.0000       289.19318       98879.115       14935.325       4.3907500     -0.87225000     0.048500000       341.66300       1.8942407     0.016935120
       4227.0000       289.21453       98873.109       14983.447       3.8170000      -1.5732500    -0.023500000       341.66000       1.8270264     0.021629209
       4232.0000       289.25593       98852.840       15042.807       4.4942500      -1.7782500     -0.97375010       341.69900       1.9025992    0.0099905245
       4237.0000       289.28409       98853.822       15115.735       4.3882500      -1.3965000     -0.87300000       341.73600       1.9018331     0.011029519
       4242.0000       289.26800       98853.438       15143.799       2.4442500      -2.6242500    -0.013500000       341.89200       1.9048929     0.012266248
       4247.0000       289.13899       98870.448       15099.157       3.9680000      -1.0582500       1.0342500       342.05200       1.8860538     0.015109921
       4252.0000       289.08708       98874.081       15081.922       3.4285000      -3.4762500     -0.39250000       341.30800       1.8777498     0.012591341
       4258.0000       289.05389       98858.784       15047.307       2.8007500      -2.1257500     -0.37225000       341.58800       1.8905191     0.012098008
       4263.0000       289.03654       98853.985       15027.930       2.2400000      -1.4782500     -0.12275000       341.72000       1.9037343     0.012842260
       4268.0000       289.11981       98842.097       15067.056       2.8850000      -3.1997500   -0.0072500000       341.72000       1.9233752     0.011657707
       4273.0000       289.11584       98841.875       15037.469       3.4860000      -4.1807500    -0.050250000       341.56900       1.8763403     0.010861717
       4278.0000       289.03210       98860.659       14956.378       4.3687500     -0.75325010     -0.73550000       341.80700       1.8712826     0.012764883
       4283.0000       288.99194       98867.400       14892.579       3.4835000     -0.80975000     -0.20700000       341.66000       1.8912438     0.015887146
       4288.0000       288.90526       98878.156       14777.383       2.9190000     -0.89850000      0.70600000       341.62000       1.8916645     0.013530338
       4293.0000       288.87820       98878.519       14703.242       3.4445000     -0.11900000      0.17975000       341.44600       1.8909720     0.012568742
       4298.0000       288.93409       98856.795       14647.769       2.3792500     -0.19625000      0.71175000       341.93200       1.8653841     0.013469913
       4303.0000       288.95388       98852.350       14623.509       2.9412500     -0.78050010     -0.21675000       341.91700       1.8277279     0.013866520
       4308.0000       288.99093       98851.812       14622.170       3.5555000     -0.18600000      0.98250010       341.79700       1.8738339     0.013858594
       4313.0000       289.00965       98853.430       14642.063       4.4667500     -0.14250000     -0.11750000       341.82800       1.8830792     0.012955789
       4318.0000       289.01364       98876.266       14706.868       4.1707500      0.72675000     -0.20325000       341.70300       1.8792532     0.012291236
       4323.0000       289.00204       98879.359       14767.183       2.6397500     -0.13450000     -0.14150000       341.79300       1.8972967     0.010712623
       4328.0000       288.96501       98865.307       14864.173       4.8792500      -1.5195000     -0.52125000       341.65400       1.8772370     0.013506144
       4333.0000       288.94467       98859.084       14919.380       3.8610000     -0.20550000     -0.10925000       341.55400       1.8849666     0.013309048
       4338.0000       288.90962       98838.431       14978.658       2.3387500      0.29300000      0.42375000       342.00700       1.8784779     0.011554329
       4343.0000       288.89120       98835.546       14993.317       4.1420000     -0.31425000     -0.23800000       341.81600       1.8914452     0.011393790
       4349.0000       288.90012       98856.935       14938.347       3.5585000     -0.64825000    -0.092250000       341.78600       1.8758094    0.0099670023
       4354.0000       288.90024       98863.583       14907.666       4.2540000     -0.25450000    -0.075750000       341.36900       1.9113285     0.011475111
       4359.0000       288.91336       98878.588       14871.059       3.1522500     -0.72525000      0.64125000       341.74800       1.9143214     0.010050853
       4364.0000       288.89931       98878.877       14812.643       3.2097500    -0.066750000     -0.54950000       341.73300       1.8660715     0.012039178
       4369.0000       288.84917       98858.177       14729.260       4.4457500     -0.15450000    -0.010000000       341.51000       1.8908862     0.012399945
       4374.0000       288.84289       98851.895       14679.850       2.9472500     -0.32825000      0.18375000       341.71500       1.8625284     0.016261644
       4379.0000       288.85661       98841.706       14626.586       3.5310000     -0.77050010     -0.28225000       341.56900       1.8834858     0.013693685
       4384.0000       288.84672       98842.795       14577.433       3.3985000     0.052500000     0.055750000       341.75400       1.9442164    0.0088151104
       4389.0000       288.85723       98862.731       14563.883       4.2137500     -0.39725000      0.67075000       341.77600       1.9103416    0.0090462730
       4394.0000       288.85358       98869.013       14533.244       3.8447500     -0.78200010      0.19100000       341.52100       1.8772571     0.011425785
       4399.0000       288.80488       98879.050       14466.532       5.1715000      -1.6757500       1.5205000       341.64900       1.8718372     0.014889717
       4404.0000       288.78876       98877.629       14440.064       3.9140000      -1.2047500      0.33125000       341.72400       1.9456151    0.0080784044
       4409.0000       288.81309       98855.609       14449.735       4.1612500     -0.34700000   -0.0090000010       341.23900       1.9137497     0.010806894
       4414.0000       288.79936       98852.178       14437.163       4.8007500      0.19100000     -0.74375000       341.32700       1.8603891     0.012602635
       4419.0000       288.76179       98852.236       14424.045       3.8457500      -1.2865000    -0.064000000       341.31000       1.9251928    0.0085089332
       4424.0000       288.74186       98854.763       14420.483       5.3625000       1.2860000      0.34225000       341.50700       1.8539076     0.014046913
       4429.0000       288.71780       98873.838       14405.827       4.5860000      -1.3357500      0.42625000       341.50200       1.8383954     0.013754260
       4435.0000       288.68224       98879.671       14406.736       5.5935000     -0.57475000      0.71025000       341.41400       1.9118758     0.013138947
       4440.0000       288.65806       98881.615       14447.700       3.4320000      -1.2292500     -0.67650000       341.40500       1.8990401     0.011485165
       4445.0000       288.63810       98872.949       14436.538       3.4822500      -2.0062500     -0.39125000       341.44100       1.8632403     0.014156324
       4450.0000       288.61271       98846.343       14412.882       5.5745000      -1.5430000     0.021250000       341.39400       1.8186757     0.026296269
       4455.0000       288.58269       98839.808       14365.963       3.2127500     -0.44000000     -0.18350000       341.53000       1.8348482     0.016067952
       4460.0000       288.55813       98830.304       14266.108       5.2912500      -1.3197500     -0.34025000       341.21300       1.8977122     0.012359323
       4465.0000       288.53816       98834.358       14212.352       4.6957500      -1.0165000     -0.16950000       341.30000       1.8824538     0.015013102
       4470.0000       288.51262       98864.154       14193.002       5.1150000      -1.7515000     0.077500000       341.35800       1.8698223     0.012107329
       4475.0000       288.48287       98872.785       14111.538       4.6505000     -0.74075000     -0.32425000       341.39300       1.9178028     0.013749799
       4480.0000       288.46930       98881.373       14012.470       3.5667500      -2.3685000     -0.37375000       341.40900       1.8820485     0.014322745
       4485.0000       288.43340       98875.382       13917.453       4.1085000      -1.4767500      0.10850000       341.50200       1.8870067     0.010497009
       4490.0000       288.34776       98847.437       13730.883       3.5502500     -0.50225000      0.45725000       341.48800       1.9274685     0.011897240
       4495.0000       288.33056       98839.323       13676.498       3.1492500      -1.4627500     -0.24000000       341.45100       1.8887593     0.016127570
       4500.0000       288.35404       98829.269       13707.540       2.7572500     -0.58725010     0.018250000       341.53500       1.8508003     0.014490856
       4505.0000       288.34391       98826.402       13707.979       5.5650000      -3.0995000       1.0242500       341.38500       1.8769298     0.013538878
       4510.0000       288.36785       98835.695       13761.561       3.8540000       1.1820000      0.67575000       341.39800       1.8413644     0.013788491
       4515.0000       288.34551       98844.927       13782.850       3.6425000      -1.5620000     -0.12175000       341.29200       1.9177862    0.0094972148
       4520.0000       288.23605       98861.697       13748.818       4.8655000     -0.14375000      0.68625000       341.22100       1.9009302    0.0094519669
       4526.0000       288.23920       98862.896       13810.906       2.8620000      -1.2505000    -0.039250000       341.24800       1.8884966     0.011194243
       4531.0000       288.29810       98863.073       13930.816       3.5677500     -0.67675000     -0.19800000       341.12900       1.8847720     0.011488784
       4536.0000       288.30798       98859.643       13973.998       4.5977500      -1.3992500     -0.10550000       341.12300       1.8902925     0.016543748
       4541.0000       288.36106       98836.272       14041.999       5.0260000     -0.54850000     -0.90850000       341.20800       1.9309691    0.0082303672
       4546.0000       288.36327       98837.504       14048.680       3.7637500     -0.38225000      0.34650000       341.22800       1.9170521     0.012549895
       4551.0000       288.28861       98853.232       13960.205       2.5877500      -1.5165000      0.36750000       341.38300       1.7886291     0.015801216
       4556.0000       288.29614       98861.176       13964.166       3.4535000     -0.65100000      0.14600000       341.39300       1.9113720    0.0099434548
       4561.0000       288.34700       98878.518       13993.883       5.9720000     -0.48200000      0.16150000       341.12900       1.8707682     0.013261854
       4566.0000       288.36686       98878.303       14021.558       7.0457500      -1.3080000     -0.43225000       341.18300       1.8853157     0.010431054
       4571.0000       288.41218       98867.736       14092.899       4.7755000      -2.3315000     -0.38925000       341.01200       1.9042069     0.010013826
       4576.0000       288.40483       98861.059       14106.568       5.3572500      -2.2027500     -0.87200000       341.04400       1.8749977     0.019965129
       4581.0000       288.34490       98843.777       14080.989       1.9840000      -2.0902500      0.68925010       341.35300       1.8734644     0.015163476
       4586.0000       288.34350       98840.289       14100.257       3.8115000     -0.39075000      0.44950000       341.24800       1.8965142     0.013171206
       4591.0000       288.34290       98842.110       14116.739       5.4067500      -2.8725000      0.36700000       341.16100       1.8982906     0.010124895
       4596.0000       288.35151       98848.709       14138.394       5.5540000      -2.3620000     0.032000000       341.07600       1.8640728     0.017412875
       4601.0000       288.41227       98865.506       14202.209       2.9737500      -2.1072500      0.96050010       341.24200       1.8781819     0.010812500
       4606.0000       288.40493       98870.754       14212.444       5.9320000     -0.93950000     -0.68700000       341.14300       1.8700770     0.016388572
       4611.0000       288.33639       98879.216       14162.336       4.8195000      -2.7920000      0.31700000       341.06700       1.9018443     0.011426257
       4617.0000       288.37472       98862.679       14237.768       4.2587500     -0.39575000     -0.18550000       341.25600       1.8469406     0.013284710
       4622.0000       288.39314       98854.553       14288.026       4.2897500      -1.0030000      0.16925000       341.17100       1.9183341     0.010731626
       4627.0000       288.42385       98847.650       14351.923       5.4552500     -0.13200000     -0.13875000       341.05300       1.8935825     0.013824799
       4632.0000       288.51847       98836.266       14481.020       4.4895000     -0.32300000     -0.16900000       341.21700       1.8691692     0.016947411
       4637.0000       288.51416       98840.059       14513.024       4.3392500      -2.8612500      0.13550000       341.02500       1.8780349     0.016038514
       4642.0000       288.45032       98854.720       14492.832       5.6722500      -1.3265000     0.081750010       341.12500       1.8788324     0.015331387
       4647.0000       288.41473       98870.262       14474.092       4.5402500    -0.057000000      0.21050000       341.16200       1.9110685     0.010552026
       4652.0000       288.39302       98877.885       14462.868       2.1655000   -0.0070000000      0.90150000       341.29400       1.8743155     0.012680380
       4657.0000       288.40009       98880.235       14454.362       3.4080000       1.0857500     -0.34350000       341.27400       1.8540681     0.014507598
       4662.0000       288.40011       98877.734       14445.809       3.3020000      0.19150000     -0.68650000       341.25800       1.8942870     0.010959522
       4667.0000       288.40019       98870.345       14438.032       3.3672500      -1.0087500      0.33650000       341.34600       1.8724335     0.010497616
       4672.0000       288.40039       98854.403       14429.352       2.5757500     -0.60425000      0.50925000       341.38000       1.8841057     0.017056691
       4677.0000       288.40059       98849.703       14428.944       2.5797500     -0.84625010     -0.11925000       341.06600       1.9043508     0.013576032
       4682.0000       288.39958       98842.457       14428.264       4.2647500     -0.87775000     -0.20225000       341.30600       1.8869487     0.013984399
       4687.0000       288.42963       98853.396       14468.778       2.9597500     -0.74225000     -0.57725000       341.29200       1.9287779     0.011865704
       4692.0000       288.41231       98860.417       14474.051       4.2787500     -0.36500000       1.0725000       341.35800       1.8876693     0.010993414
       4697.0000       288.33925       98870.458       14462.031       4.2912500      -1.1892500     -0.19675000       341.17600       1.9389776     0.010105531
       4702.0000       288.29955       98876.654       14448.002       4.5120000      0.10775000     -0.44075000       341.23200       1.9232271    0.0092707572
       4708.0000       288.21952       98885.150       14389.938       4.8550000      -2.2905000      0.73125000       341.25100       1.9050567     0.013355695
       4713.0000       288.18201       98882.641       14355.196       2.1312500     -0.11475000      0.17925000       341.46100       1.7808202     0.026819369
       4718.0000       288.21481       98867.153       14349.375       3.4072500      0.14375000      0.13875000       341.50200       1.9086659     0.012318688
       4723.0000       288.20351       98859.206       14313.251       4.6245000     -0.87300000     -0.60850000       341.19600       1.9092654     0.014574347
       4728.0000       288.16635       98838.833       14259.347       3.9950000       1.2570000     -0.21400000       341.34700       1.8687611     0.021833826
       4733.0000       288.14636       98835.804       14210.377       6.1560000      0.50625000      0.35325000       340.97600       1.9496565     0.010751868
       4738.0000       288.09555       98854.063       14122.948       4.9502500     -0.94650010     -0.99975000       341.04500       1.8876172     0.011218121
       4743.0000       288.08757       98862.103       14078.685       4.2760000      0.64100000     -0.44650000       341.09900       1.9001483     0.013948935
       4748.0000       288.13436       98878.090       14063.999       6.4400010       1.8270000     -0.25925000       340.97600       1.8989095     0.012033010
       4753.0000       288.15430       98884.518       14052.841       4.7245000      0.36100000      -1.4065000       341.00000       1.9242834     0.013590829
       4758.0000       288.19096       98881.580       14065.012       4.4870000     -0.54200010    -0.017500000       341.03000       1.8987007     0.011380509
       4763.0000       288.20986       98876.232       14081.605       2.7177500      0.41525000      0.88750000       341.25000       1.8817580     0.012219413
       4768.0000       288.18599       98859.795       14094.033       3.9105000      -1.2922500     -0.17000000       341.23100       1.9196282     0.012034869
       4773.0000       288.19739       98853.090       14129.242       3.6622500      -1.0497500     -0.79475000       341.07600       1.8426156     0.014120992
       4778.0000       288.24867       98843.607       14199.774       3.6680000     -0.55200000      0.57675000       341.15600       1.8830616     0.012131707
       4783.0000       288.25757       98842.114       14250.537       5.4072500     0.037250000     -0.17275000       340.95100       1.9267645     0.010388315
       4788.0000       288.27065       98854.851       14317.910       5.7270000       1.2810000     -0.35950000       340.90900       1.9207020     0.011634422
       4793.0000       288.25797       98861.843       14358.967       3.8915000       1.6580000     -0.29850000       341.08200       1.8930737     0.011336453
       4799.0000       288.16706       98874.499       14385.275       4.7217500     -0.49725000      0.66900000       341.02400       1.9201588     0.012589117
       4804.0000       288.13091       98878.423       14388.108       4.9232500      0.16300000     0.023000000       341.04000       1.8915637     0.011768436
       4809.0000       288.10533       98880.377       14369.230       6.4225000      0.37200000      0.51500000       341.05400       1.9170230    0.0099251439
       4814.0000       288.08922       98875.942       14347.949       4.0267500     -0.61400000      0.29550000       341.16700       1.8781116     0.020407944
       4819.0000       288.08765       98859.376       14290.950       4.0445000      0.90750000       1.4967500       341.06700       1.9078424     0.010064987
       4824.0000       288.10166       98851.685       14272.023       5.0240000      -1.9430000     -0.63925000       341.06300       1.9239836     0.011766269
       4829.0000       288.13856       98837.913       14265.246       5.4377500      -2.2737500     -0.14700000       341.08200       1.9151030     0.010840679
       4834.0000       288.15872       98837.071       14266.545       4.2285000      -1.5032500     0.095250000       341.00400       1.9221981     0.014364593
       4839.0000       288.20815       98850.485       14310.610       2.0160000      -1.5890000      0.30150000       341.14700       1.8669595     0.020908918
       4844.0000       288.21070       98857.810       14312.810       3.1452500      -1.7390000      0.16875000       341.18000       1.9146941     0.010574723
       4849.0000       288.16290       98872.607       14284.574       4.2590000      -1.4390000     -0.30900000       341.06000       1.8800635     0.012933556
       4854.0000       288.14280       98879.437       14281.529       3.7790000      0.41600000     -0.11175000       341.13200       1.9101808     0.014747937
       4859.0000       288.10501       98883.411       14263.747       3.5175000      0.91925010   -0.0020000000       341.18700       1.9011274     0.011938981
       4864.0000       288.08849       98880.779       14267.179       3.1942500     -0.29350000     -0.17350000       341.13400       1.9028188     0.013667409
       4869.0000       288.09991       98868.651       14308.428       2.6697500     -0.39575000     0.024500000       341.14000       1.9374208     0.010638266
       4874.0000       288.09991       98862.633       14327.549       3.8130000     -0.94150010     -0.34150000       341.21500       1.8984869     0.015024067
       4879.0000       288.10016       98849.247       14340.757       2.5502500     0.090750000      0.22050000       341.28400       1.9093891     0.014892172
       4884.0000       288.10011       98847.215       14352.626       3.7517500     -0.82925000   -0.0027500000       341.18600       1.8957255     0.012070992
       4890.0000       288.10022       98857.623       14357.749       2.8255000     -0.95600000     -0.15700000       341.31600       1.9126085     0.012689980
       4895.0000       288.10040       98863.253       14368.701       4.2365000      -2.1030000     0.086500000       341.11600       1.8603816     0.013473764
       4900.0000       288.09949       98874.243       14377.167       2.9547500     -0.80475000      0.19900000       341.33400       1.9268307     0.014357433
       4905.0000       288.09920       98879.023       14394.434       3.0055000      0.27600000      0.71125000       341.29600       1.8936021     0.010943702
       4910.0000       288.11080       98881.418       14439.703       3.5407500     -0.70125000     -0.84325000       341.21800       1.9236691     0.011872180
       4915.0000       288.09439       98881.249       14434.037       2.7332500     -0.87825010      -1.1745000       341.16800       1.8943427     0.014647628
       4920.0000       288.04630       98879.402       14399.066       3.1062500     -0.33600000      0.39275000       341.20900       1.9128748     0.012174849
       4925.0000       288.04234       98872.604       14385.315       2.7767500     -0.13275000    -0.027250000       341.18500       1.8848403     0.010354747
       4930.0000       288.04291       98856.750       14351.875       3.7865000      -1.4560000     -0.18375000       341.05500       1.8638053     0.015694616
       4935.0000       288.04913       98851.096       14325.533       4.3655000      0.62475000     -0.37700000       341.07800       1.8958984     0.010481942
       4940.0000       288.11120       98841.089       14333.203       5.4065000      0.59525000     -0.45300000       341.10300       1.8852612     0.013444018
       4945.0000       288.10822       98843.966       14299.652       6.1000000      -1.7245000     -0.22075000       341.08100       1.8867166     0.012806524
       4950.0000       288.04703       98862.680       14201.581       5.6275000      -3.3710000      0.48650000       340.97800       1.9479294    0.0099731676
       4955.0000       288.04352       98870.031       14193.122       4.8192500     -0.62975000     -0.26800000       340.97000       1.8879979     0.011897854
       4960.0000       288.05447       98879.953       14228.878       4.4090000      -2.4512500      0.63825010       341.02500       1.9435217    0.0097236747
       4965.0000       288.04459       98884.050       14236.497       4.3532500     -0.66700010       1.4287500       341.19900       1.8912079     0.012548026
       4970.0000       288.05755       98881.451       14294.145       3.6582500     -0.13450000      0.61075000       341.21500       1.8843957     0.011133091
       4975.0000       288.05129       98879.831       14299.370       3.0857500     -0.38075000      0.78675000       341.21600       1.9173766     0.011333780
