MIRICO/SHELL project - Processed LDS file generated on
Fri Jul 21 20:47:25 2017
Time stamp for record start
05/12/2017  10:37: 4.0000
Nb of points in the record
         985
Beam position index
       6.0000000
Beam angle (degrees)
       13.594000
Open Path length (m)
       58.300000
****************** Temporal data record ************************
Elapsedtime_sec Temp_K Press_Pa Humidity_ppmv WindX_m/s WindY_m/s WindZ_m/s Speedofsound_m/s CH4vmr_ppmv CH4vmrerror_ppmv  
      0.00000000       287.65497       98806.650       15082.092       3.3160000     -0.57875000      0.33575000       340.53100       1.8854303     0.014774557
       5.0000131       287.65622       98800.711       15103.536       3.4970000      -1.1352500      0.12100000       340.54700       2.0226300     0.011008084
       10.000026       287.66504       98789.267       15136.866       3.5182500      -1.9852500    -0.016000000       340.67700       1.9367851     0.011863577
       14.999999       287.63760       98785.889       15111.294       4.8770000      -2.1345000      0.26325000       340.66200       2.0779066     0.014667555
       20.000012       287.55082       98790.354       15021.016       4.2445000      -2.3532500     0.099250000       340.70100       1.8477726     0.014371865
       25.000025       287.51989       98790.367       14968.219       3.6245000     -0.94150010      0.61775000       340.85400       1.8370026     0.012721882
       29.999998       287.48771       98788.369       14880.943       3.5257500     -0.43750000      0.80050000       340.88400       1.9437472     0.013445708
       35.000011       287.49462       98792.017       14867.616       2.3517500      -1.2267500    -0.075000000       340.73800       1.8323110     0.019619687
       40.000024       287.56426       98798.610       14908.198       3.2735000     -0.27775000      0.37350000       340.84900       1.9368534     0.015846053
       44.999997       287.54667       98804.614       14900.189       3.4352500       1.6040000    -0.041750000       340.48600       1.9728083     0.013154380
       50.000010       287.51105       98815.401       14913.143       2.0690000    -0.098500010      0.35050000       340.94300       1.9655097     0.015646480
       55.000024       287.48253       98819.727       14903.587       2.7277500     -0.27125000    -0.068750000       340.91300       2.0193615     0.015726579
       59.999996       287.39357       98820.592       14847.291       1.9015000     -0.75800000      0.12775000       340.86700       1.9675041     0.012427032
       66.000004       287.40002       98820.366       14849.311       2.2207500     -0.42100000      0.17225000       340.97800       1.8756356     0.014210971
       71.000017       287.40002       98820.401       14842.992       3.1942500      0.21150000    -0.039000000       340.70000       1.9769257     0.014404108
       76.000030       287.40002       98820.450       14832.504       3.9620000     0.065500010      0.66950010       340.76900       1.8582329     0.014616815
       81.000003       287.39986       98821.007       14818.853       4.8070000      0.66150000      0.92300000       340.75900       1.9985281     0.015147270
       86.000016       287.39994       98818.883       14796.338       4.0427500      0.97525010      0.81925000       340.75300       1.9002075     0.024509793
       91.000029       287.40094       98816.644       14761.105       2.5175000     -0.67725000     -0.50325000       340.76800       1.8635718     0.019272540
       96.000002       287.41502       98807.067       14757.925       2.8820000      -1.6752500     0.072750000       340.60200       1.9176069     0.012609000
       101.00002       287.40648       98799.987       14755.215       3.5317500     -0.71450000     0.055250000       340.75000       1.9457856     0.013790375
       106.00003       287.38465       98788.810       14802.454       2.7847500      0.56750010      0.22100000       340.93700       2.0300514     0.013139474
       111.00000       287.35596       98783.586       14801.596       1.7737500     -0.63700000      0.10075000       340.82200       1.9643837     0.012848571
       116.00001       287.28482       98780.376       14756.773       2.8260000     -0.48550000     0.080500010       340.75700       2.0332401     0.016435689
       121.00003       287.24362       98782.850       14721.935       3.9675000      -1.0247500      0.47925000       340.59800       1.9623587     0.011719430
       126.00000       287.21465       98790.239       14677.677       3.8147500     -0.64175000    -0.023750000       340.70100       2.0658792     0.017358459
       131.00001       287.18785       98804.274       14597.836       3.4045000     -0.79925010     -0.10850000       340.74300       1.9107405     0.011145552
       136.00003       287.20092       98815.531       14576.498       3.3310000     -0.38425000     -0.19750000       340.75100       2.0723723     0.017218307
       141.00000       287.25587       98832.086       14586.221       5.1610000     -0.96900000     -0.54350000       340.59600       1.8460127     0.012385643
       146.00001       287.25455       98840.167       14559.172       4.5700000      -2.2065000     -0.11500000       340.54800       2.0454078     0.014162506
       151.00003       287.25591       98842.748       14548.476       3.9212500     -0.68725000      0.80100010       340.75100       1.8951808     0.013067315
       156.99999       287.20967       98833.410       14518.817       3.8142500     -0.92875000     -0.10525000       340.63900       1.9135810     0.013395799
       162.00001       287.19106       98829.418       14512.006       3.5570000      0.12675000      0.30175000       340.78000       2.0039256     0.014456346
       167.00002       287.21439       98823.793       14564.359       3.3790000     -0.66500000    -0.021500000       340.74800       2.0960126     0.017918304
       172.00003       287.20284       98818.963       14563.081       2.4487500      -1.8492500    -0.012250000       340.65100       2.0504363     0.015622312
       177.00001       287.16620       98819.559       14527.001       3.4837500    -0.074500000     -0.36075000       340.74700       1.9597645     0.014688751
       182.00002       287.14629       98815.220       14506.296       3.2967500     -0.52825000      0.14925000       340.76100       1.9408969     0.011461559
       187.00003       287.08128       98805.678       14433.957       2.8427500      -1.1062500      0.27600000       340.67100       1.7693602     0.012465271
       192.00000       287.08468       98798.636       14421.215       4.5055000      -1.0837500     -0.70500000       340.73400       1.9270626     0.014514604
       197.00002       287.16875       98783.090       14475.962       4.3277500      -1.3622500     -0.22650000       340.78400       1.8937484     0.013073461
       202.00003       287.20841       98781.904       14497.623       3.8135000     -0.71075000     0.023000000       340.62300       1.8650921     0.012999362
       207.00000       287.28033       98794.881       14536.936       4.1347500     -0.93450000      0.34500000       340.72600       1.9619789     0.015107356
       212.00002       287.31758       98800.947       14562.848       3.2645000     -0.62675010    -0.094500010       340.71400       1.9808202     0.013402388
       217.00003       287.28563       98813.500       14541.157       3.9685000      0.18300000      0.37200000       340.68400       1.8127598     0.012950810
       222.00000       287.29708       98823.245       14563.086       2.9745000     -0.94500010      0.10850000       340.68800       1.9371959     0.011687161
       227.00002       287.34796       98826.977       14635.439       5.2597500      -1.9400000     -0.30775000       340.51100       1.8152966     0.012238446
       232.00003       287.35674       98830.947       14665.572       3.1190000      -1.0220000     -0.11250000       340.64100       1.9120915     0.012303707
       237.00000       287.35560       98841.085       14692.576       3.2342500      -1.7912500      0.47650000       340.60000       1.7618024     0.014211944
       242.00002       287.35434       98842.646       14714.723       3.4415000      -1.9195000      0.10025000       340.57000       1.9424917     0.017109124
       248.00002       287.29175       98834.152       14687.164       4.3362500      -1.8292500     -0.42000000       340.47600       1.8275111     0.014545449
       253.00000       287.28909       98828.878       14697.880       1.8267500      0.36800000      0.34250000       340.76100       1.9322016     0.014878286
       258.00001       287.33722       98820.172       14746.528       1.7007500      -1.0072500      0.56500000       340.73100       2.0170327     0.013430855
       263.00002       287.35728       98812.146       14769.242       3.6087500     -0.78525000     -0.36425000       340.62200       2.0340957     0.011798398
       267.99999       287.39421       98803.095       14804.993       2.6252500     -0.56300000      0.30675000       340.76000       2.0000448     0.011714327
       273.00001       287.41026       98797.385       14809.274       5.2792500      -1.2590000      0.47950000       340.64000       1.9987139     0.012463580
       278.00002       287.38693       98784.766       14758.418       4.1820000      -1.0292500     0.089000000       340.48900       1.9282215     0.012767650
       282.99999       287.40050       98788.328       14764.353       3.3567500      -1.2977500     -0.35900000       340.60600       2.0403994     0.012100678
       288.00001       287.43833       98815.916       14784.745       3.8902500      -1.8517500     -0.26600000       340.59900       2.0719603     0.011198554
       293.00002       287.45807       98818.950       14809.721       2.8985000      -1.0685000     -0.50275000       340.56400       2.0071262     0.012254179
       298.00003       287.49499       98816.166       14867.170       2.4230000      -1.3710000      0.78375010       340.69700       1.9935272     0.012457869
       303.00001       287.51123       98817.067       14926.777       3.2755000      -1.1897500      0.11325000       340.62800       2.0476285     0.016018804
       308.00002       287.52732       98798.734       15015.907       4.6950000    -0.061500000     -0.16950000       340.61300       2.0395578     0.014953110
       313.00003       287.49971       98795.983       15046.845       1.5127500     -0.93475000      0.27525000       340.93500       2.1091474     0.013112952
       318.00001       287.42443       98816.673       15082.540       2.0295000      -2.8435000      0.37250000       340.89100       2.0852096     0.013772019
       323.00002       287.38434       98817.765       15071.492       4.7797500      -2.3672500     -0.30500000       340.64400       2.1021677     0.013329830
       328.00003       287.29683       98808.073       14970.879       4.0020000     -0.57900010     -0.33550000       340.56300       2.0642956     0.012046485
       333.00000       287.27737       98803.663       14914.131       3.7700000     -0.54025000     0.089250010       340.84800       2.0710417     0.016649430
       339.00001       287.34184       98790.500       14847.608       2.8512500      0.19400000      0.16300000       340.85000       2.0297955     0.013035459
       344.00003       287.36146       98786.368       14798.474       2.8225000     -0.80000000     -0.16975000       340.91500       1.8397913     0.011664135
       349.00000       287.37623       98786.807       14727.966       3.2175000     0.080250000     -0.34900000       340.86900       1.9187247     0.011664384
       354.00001       287.42279       98791.720       14732.796       3.3285000     -0.37375000      0.30600000       340.73900       1.9316019     0.011826233
       359.00002       287.48453       98800.686       14780.561       3.7582500      0.32300000     -0.41300000       340.78300       2.1325488     0.016328262
       364.00000       287.52486       98810.029       14824.000       3.5720000     -0.22275000      0.44800000       340.95300       2.0168186     0.013043622
       369.00001       287.61048       98830.979       14942.353       3.2740000     0.026000000      0.36850000       340.89200       1.8910322     0.013120563
       374.00002       287.62199       98835.885       14989.180       3.7485000      0.60150000     -0.23300000       340.66200       1.8172786     0.014627498
       379.00000       287.55789       98832.719       14976.653       4.5280000     -0.37250000     -0.48050000       340.51600       2.0225378     0.013690201
       384.00001       287.53804       98829.800       15014.431       3.8702500      0.35275000     0.058750000       340.74500       2.0222684     0.013297528
       389.00002       287.50114       98818.564       15059.351       2.8062500     -0.41275000      0.12075000       340.91100       1.9025424     0.014338242
       394.00000       287.48747       98810.623       15096.992       3.3337500    -0.067500000     0.012000000       340.86100       2.1659224     0.015518263
       399.00001       287.51131       98802.004       15192.713       3.6265000      0.48725000     -0.40550000       340.71200       1.9551577     0.012291342
       404.00002       287.49459       98796.535       15185.143       4.1462500     -0.46725000      0.27850000       340.64900       2.0236023     0.013766476
       408.99999       287.44755       98787.299       15103.495       4.0812500     -0.18075000     -0.50200000       340.73000       2.0374343     0.011505588
       414.00001       287.44400       98789.477       15058.306       1.9052500     -0.11150000      0.88400010       341.00700       2.1597424     0.026822295
       419.00002       287.42078       98801.001       14943.538       2.1595000     -0.98725000     0.040750000       340.88700       2.0041683     0.013689802
       423.99999       287.45885       98810.267       14921.985       3.3985000      -1.8807500      0.20025000       340.89900       2.0088199     0.010797084
       430.00000       287.59465       98830.324       14970.390       3.4137500      -1.4827500      0.19925000       340.97900       2.0064873     0.012228104
       435.00001       287.64528       98837.647       15002.590       2.5022500      -1.4132500     -0.29175000       340.79000       2.0456880     0.014695592
       440.00003       287.71548       98843.658       15082.781       2.6082500     -0.79100000     -0.22975000       341.01900       2.1068995     0.015702539
       445.00000       287.71848       98840.124       15107.371       2.4267500    0.0037500000      0.46375000       341.30400       2.0869384     0.011992454
       450.00001       287.64575       98828.376       15103.606       3.2472500      -1.2167500     -0.18075000       340.81400       2.0388533     0.015408632
       455.00003       287.64487       98818.650       15134.336       2.5167500      0.16575000      0.21850000       340.86100       2.1614779     0.014825780
       460.00000       287.63432       98799.889       15145.238       1.3485000     -0.11750000      0.81400000       341.49700       2.0359820     0.012296236
       465.00001       287.66159       98792.534       15204.326       3.3072500      0.26800000      0.15475000       340.66300       2.0313429     0.011185112
       470.00003       287.74936       98787.176       15323.840       4.0927500     -0.15675000   -0.0037500000       341.11300       2.0169962     0.012321252
       475.00000       287.78028       98790.609       15381.991       2.9002500     -0.32750000      0.28850000       340.75800       2.1319210     0.015609876
       480.00001       287.78445       98802.192       15436.573       2.4450000     -0.10125000     -0.38775000       340.86400       1.9969114     0.013422116
       485.00002       287.83268       98811.825       15474.916       3.1392500      0.27075000      0.11000000       341.20700       2.1102288     0.014733849
       490.00000       287.89015       98830.135       15477.823       2.3075000     -0.72750000     -0.27925000       341.25700       2.0156946     0.011669644
       495.00001       287.93045       98837.466       15499.799       3.3005000     -0.93600000      0.42075000       341.17700       2.0064611     0.012790214
       500.00002       288.01408       98842.532       15539.366       2.9990000      0.19325000     -0.17700000       340.98000       2.0186542     0.018690168
       505.00000       288.01833       98841.044       15534.891       3.8612500      0.44825000     -0.16500000       340.67300       2.0717606     0.011061601
       510.00001       287.96265       98833.599       15512.331       3.5355000      0.10700000    -0.019250000       340.77100       2.0705308     0.013691780
       516.00002       287.86967       98814.114       15440.969       3.6407500    -0.088250000     -0.39525000       340.95500       1.9951673     0.013233441
       521.00003       287.83748       98803.939       15397.850       3.6507500      0.26100000     -0.18950000       340.66100       2.0063587     0.015279897
       526.00000       287.82982       98796.237       15361.999       3.1432500      0.84900000     0.087500010       340.97800       1.9541354     0.012236419
       531.00002       287.85650       98786.967       15344.506       2.5712500     -0.20225000      0.18250000       341.26900       1.9635555     0.011635436
       536.00003       287.82530       98788.697       15277.129       2.2797500    -0.049250000      0.36475000       341.44000       1.8873702     0.012061702
       541.00000       287.79400       98798.437       15183.392       1.9030000      0.31075000      0.28750000       341.47100       1.9541160     0.011505296
       546.00002       287.74628       98819.392       15128.992       5.0810000       1.5985000     -0.78575000       340.99600       2.0560947     0.014020935
       551.00003       287.76968       98827.996       15128.906       3.7412500      0.61225000     -0.23800000       340.40000       1.8952959     0.013129910
       556.00000       287.93196       98834.441       15242.658       3.4987500      0.41550000     -0.27300000       341.38200       2.0576988     0.013008246
       561.00001       288.05094       98834.139       15340.087       4.0555000      0.24175000     -0.12475000       340.90000       1.9977939     0.012035090
       566.00003       288.24505       98814.206       15456.109       2.6490000      -1.1890000     0.071000000       341.43500       1.9624100     0.011127445
       571.00000       288.33092       98804.011       15571.663       4.5195000     -0.30375000      0.32125000       340.89800       1.9497418     0.016727438
       576.00001       288.35528       98796.288       15691.311       3.6885000     -0.31800000     0.038000000       340.78400       1.8303959     0.012975858
       581.00003       288.30731       98788.373       15820.503       3.9082500     -0.32400000      0.19225000       341.27800       1.9912478     0.012936458
       586.00000       288.30539       98785.776       15928.623       2.6927500      0.81175010      0.39925000       341.50000       2.0052762     0.015473529
       591.00001       288.25064       98788.552       16059.206       2.6532500      0.17125000     -0.35250000       341.05800       2.1248904     0.012195390
       596.00003       288.23911       98796.389       16034.487       5.3387500       1.9620000     -0.12225000       340.48900       2.3559065     0.012095870
       601.00000       288.21189       98804.130       15996.491       4.2555000      0.74650000      0.16575000       340.79800       2.8717183     0.014183662
       607.00001       288.08502       98827.129       15812.489       3.7047500     -0.39225000     0.055750000       341.09300       2.8589861     0.020821708
       612.00002       288.02791       98834.429       15696.416       4.1552500       1.2662500     0.021500000       341.27600       2.9988828     0.013717880
       617.00003       288.02446       98836.292       15613.119       4.8635000      0.71700000     -0.27225000       340.90900       3.1149824     0.024602995
       622.00001       287.99453       98832.652       15506.623       4.2462500     0.097250010   -0.0065000000       340.62000       3.0538704     0.019009542
       627.00002       287.96637       98812.136       15380.622       3.2087500      0.63125000     -0.14625000       341.22200       2.8201071     0.021124689
       632.00003       287.94653       98802.371       15278.059       2.5700000     -0.79575000     0.038750000       341.31000       2.7360936     0.013891005
       637.00000       287.86715       98788.847       15135.355       3.1692500      0.12825000      0.34500000       341.16900       2.9779912     0.014223272
       642.00002       287.88160       98786.486       15070.575       3.2190000      0.64525000      0.11825000       341.03200       3.7204936     0.013188027
       647.00003       287.98880       98797.934       15052.669       2.7872500      0.56275000      0.25450000       341.69500       3.4402484     0.015872661
       652.00000       288.05965       98806.229       15068.582       4.8282500      0.42275000    -0.059750000       340.88600       2.8905105     0.016019138
       657.00002       288.21898       98827.046       15158.870       4.8610000     -0.10925000     -0.38825000       340.28600       1.9622130     0.018662089
       662.00003       288.28384       98834.395       15242.413       4.1365000      0.73500000    -0.087250000       340.99300       3.2383749     0.034305110
       667.00000       288.24262       98833.279       15324.946       6.4695010      0.13425000     -0.55100000       340.73000       4.1683608     0.015290842
       672.00002       288.25271       98831.933       15458.327       4.5315000     -0.18325000      0.27125000       340.63000       4.7368097     0.023847631
       677.00003       288.23015       98821.798       15669.615       4.9527500      0.64050000     -0.30275000       340.47900       4.6656492     0.020731245
       682.00000       288.24262       98813.755       15815.044       4.3142500     -0.36350000     0.092250000       341.10300       5.2060840     0.018668239
       687.00002       288.39558       98801.433       16069.373       4.1077500      0.59325000     -0.33825000       341.14400       5.2835015     0.018386102
       692.00003       288.37958       98797.657       16130.291       2.4252500      0.20400000      0.20600000       341.58400       4.2164631     0.022362426
       698.00000       288.23062       98795.166       16004.885       2.7905000      0.80875000     -0.51950000       341.55100       3.2693148     0.013182696
       703.00001       288.12009       98800.060       15879.076       4.0832500      0.31725000      0.14525000       341.03800       2.7568588     0.019946504
       708.00002       287.83685       98823.262       15584.098       3.6782500      0.14550000     -0.12675000       341.29400       2.9011744     0.020094580
       713.00000       287.73039       98829.743       15399.196       4.1042500      0.84250000     -0.22000000       340.60300       3.2059622     0.023949536
       718.00001       287.74859       98832.422       15234.614       3.3502500      0.19625000     -0.27475000       341.14300       4.2916384     0.014675807
       723.00002       287.73592       98831.968       15092.552       5.4777500       1.0242500      0.17400000       340.55800       4.4535301     0.014334745
       727.99999       287.80794       98819.830       14985.752       4.0227500     0.043250000     -0.17650000       340.67000       4.3031787     0.020694960
       733.00001       287.81054       98811.755       14883.371       4.0245000     -0.14150000     0.010250000       341.07300       4.3128479     0.020650772
       738.00002       287.73592       98800.512       14775.925       2.9870000     -0.24050000      0.60625000       341.59300       3.9095213     0.016541030
       743.00003       287.74352       98797.696       14721.113       4.3270000      -1.0110000     -0.37775000       340.33200       3.5490985     0.017766358
       748.00001       287.75491       98795.152       14689.916       2.8690000      -1.2297500     -0.24750000       341.00700       2.5250911     0.023017963
       753.00002       287.80537       98799.996       14697.092       2.9992500     -0.38875000     -0.53400000       341.46700       2.8889247     0.016927545
       758.00003       287.96440       98823.190       14762.211       3.2570000     -0.69950000  -0.00075000000       341.37200       2.6115493     0.012815363
       763.00001       288.03695       98829.711       14828.452       3.1712500      -1.6752500     0.084750000       340.65800       2.1252148     0.014762598
       768.00002       288.08905       98834.886       14913.122       4.1550000     -0.99850000     -0.34375000       340.45800       2.0003301     0.016116427
       773.00003       288.12202       98831.643       15023.293       2.9017500   -0.0045000000      0.19975000       340.86500       1.9807992     0.016529603
       778.00000       288.08704       98809.616       15179.328       3.4077500     -0.70600000      0.15100000       341.08200       1.8685001     0.018088822
       783.00002       288.10067       98800.281       15300.383       3.9640000     -0.98000000     -0.29300000       341.04700       2.0395646     0.013670988
       789.00003       288.13091       98787.227       15473.169       3.2140000      -1.4797500      0.47175000       341.57100       2.1804252     0.025995639
       794.00000       288.16687       98787.983       15561.684       3.6402500     -0.95275000    -0.064000000       341.11400       2.7007230     0.020777220
       799.00001       288.24105       98800.361       15603.177       2.7702500      0.51200000     -0.22525000       341.62300       3.0444019     0.016649838
       804.00002       288.27484       98809.710       15644.601       3.8705000     -0.55275010     -0.30725000       341.13100       3.8157848     0.020948962
       809.00000       288.31006       98830.367       15667.877       3.7047500      -1.6327500    -0.020750000       341.10000       5.0382510     0.024777391
       814.00001       288.30752       98835.174       15666.744       3.5997500     -0.94750010     -0.39925000       341.40400       4.3228308     0.015145335
       819.00002       288.26875       98832.606       15659.529       4.9062500      -2.2762500     -0.30650000       340.37300       2.9608591     0.019006755
       824.00000       288.23274       98829.705       15607.874       3.8665000      -2.1032500     0.081000000       340.79400       2.8256239     0.013537244
       829.00001       288.15869       98818.437       15497.038       3.4895000      0.25100000     -0.48650000       340.62500       2.4441920     0.014144808
       834.00002       288.12537       98810.496       15419.720       2.3070000     -0.14025000    -0.020500000       341.93300       1.8811831     0.017867947
       839.00000       288.11213       98798.551       15324.447       3.4477500      -1.3810000     -0.24300000       341.73600       1.9534865     0.012842883
       844.00001       288.08238       98797.988       15241.746       4.6267500      -1.1410000      0.11675000       341.99500       2.8249142     0.014425985
       849.00002       288.04713       98800.172       15152.301       3.6427500      0.45800000      0.26450000       341.35600       2.0961715     0.013962728
       853.99999       288.04350       98806.671       15113.677       2.4695000     -0.15975000     0.029500000       340.81300       1.9122994     0.015551435
       859.00001       288.04317       98830.594       15086.595       4.6010000     -0.80675010    -0.089750010       340.83400       1.9298759     0.014773231
       864.00002       288.04934       98835.526       15087.198       2.8105000      -1.1555000      0.19925000       341.43000       1.8699554     0.016027492
       868.99999       288.09899       98835.150       15148.604       3.8167500      -2.4282500      0.19625000       340.97100       1.8661800     0.018709220
       874.00001       288.11271       98829.171       15185.585       3.6475000      -2.0417500      0.84975000       341.28800       2.0374065     0.020002239
       880.00001       288.06453       98804.226       15208.222       4.1047500      -1.8892500     -0.13975000       341.09000       2.0028637     0.020349600
       885.00003       288.13908       98799.815       15293.655       3.8635000     -0.53250000     -0.56925000       341.03900       1.9201021     0.021087761
       890.00000       288.27143       98798.453       15405.086       3.5345000     -0.81950000     -0.13450000       341.09300       1.8660785     0.014198719
       895.00001       288.37125       98799.181       15545.811       4.3270000      -1.5315000      0.22025000       340.85300       1.8739358     0.016829379
       900.00003       288.56499       98809.892       15761.242       2.9610000      -1.5180000      0.53050010       340.63200       1.9873309     0.016436889
       905.00000       288.61114       98814.059       15906.636       3.2082500     -0.52450000      0.18675000       341.08500       2.0271157     0.026406167
       910.00001       288.56558       98815.772       16071.944       2.6642500      -1.1130000      0.14425000       340.99500       2.0992467     0.014362851
       915.00003       288.53837       98815.865       16132.415       2.3167500      -1.8207500    -0.053750000       341.28800       2.0818906     0.015613913
       920.00000       288.45947       98818.816       16140.914       4.5005000     -0.54250000     -0.22700000       340.89400       2.0060283     0.013336816
       925.00001       288.40975       98812.390       16093.382       4.3902500      -1.8067500    -0.036000000       340.42400       2.0704985     0.014413077
       930.00003       288.35162       98793.545       15946.232       4.1507500      -1.4807500    -0.065250000       340.68900       1.9928995     0.021664534
       935.00000       288.32068       98792.044       15855.504       2.3577500      -1.5465000      0.89400010       341.30300       1.9957196     0.014097195
       940.00001       288.29694       98790.285       15724.757       2.8767500      -2.7965000     -0.34300000       341.37500       2.0404212     0.015444091
       945.00002       288.28575       98798.719       15654.647       3.8512500      -1.6707500     -0.48975000       340.87100       1.9621148     0.017956191
       950.00000       288.30892       98826.692       15629.614       2.7845000    -0.086500000    -0.049750000       341.28300       2.6412097     0.015493288
       955.00001       288.29011       98832.383       15568.746       3.7885000    -0.016000000     -0.42025000       341.35900       3.4668572     0.015249554
       960.00002       288.28024       98834.570       15527.245       2.4910000     -0.26300000      0.32125000       341.52000       3.4037756     0.015213759
       965.00000       288.20454       98828.394       15441.147       4.0132500       1.0247500     -0.78850000       341.26400       4.4569040     0.015241276
       971.00000       288.04358       98804.086       15294.487       4.1185000       1.2607500     -0.45175000       340.69800       3.8718239     0.019386288
       976.00002       287.97520       98796.393       15198.416       2.3970000      0.18200000       1.0707500       341.00100       3.1737031     0.015584360
       981.00003       287.87433       98785.241       15081.201       2.7052500     -0.45175000     0.046250000       341.28000       2.7124296     0.015810222
       986.00000       287.87013       98793.470       15029.545       4.0160000     -0.11275000      0.92425010       341.24900       2.7771175     0.023594227
       991.00002       287.95602       98816.585       15012.463       3.6875000     -0.35900000     0.033250000       340.93500       3.2783234     0.015203997
       996.00003       287.96975       98831.208       14991.749       3.3257500     -0.82375000     -0.87675010       341.10900       2.6573181     0.021015874
       1001.0000       287.96242       98835.308       14985.843       2.6200000     -0.70900010      0.39325000       341.55100       2.2593750     0.013518140
       1006.0000       287.86932       98814.023       14975.783       3.7352500      0.35700000     -0.10650000       341.09100       2.8926637     0.018563446
       1011.0000       287.83732       98803.868       14982.855       2.7447500     -0.35700000     -0.32375000       341.02200       3.1068938     0.016272488
       1016.0000       287.86023       98790.341       15051.036       4.0432500     -0.84375010     -0.31350000       341.40700       3.4819287     0.015835242
       1021.0000       287.85039       98786.613       15073.136       4.2115000     -0.70775000     0.027750000       340.70400       2.9509770     0.016863392
       1026.0000       287.84056       98790.261       15076.903       3.6167500     -0.28600000     -0.12875000       340.91200       2.2623385     0.013231769
       1031.0000       287.85735       98804.866       15069.712       2.2507500     -0.94575010      0.36175000       341.30500       2.0594873     0.014887018
       1036.0000       287.84570       98810.860       15051.814       3.2362500      -1.9432500      0.25700000       340.97200       2.0949498     0.018593409
       1041.0000       287.78849       98822.559       14991.468       3.0447500      -2.7460000    -0.042750000       341.34800       2.0979962     0.013365011
       1046.0000       287.84555       98821.604       15017.849       2.2785000      -1.3165000    -0.053500000       341.36300       2.0611869     0.028109686
       1051.0000       287.85750       98817.005       15025.206       3.5810000      -1.0977500     -0.32675000       341.17700       1.9930547     0.017437947
       1056.0000       287.87022       98796.687       15070.451       3.8485000      -2.0522500     -0.57825010       341.09800       2.5256184     0.024015376
       1062.0000       287.85834       98791.909       15065.678       3.1995000      0.20700000     -0.30675000       341.47800       2.5941308     0.016385234
       1067.0000       287.77629       98793.481       15018.077       2.0622500       1.0277500      0.54150000       341.48100       2.8361071     0.018845117
       1072.0000       287.73766       98798.162       14962.075       4.5882500      0.54600000     0.092750010       341.13600       3.0883381     0.017220777
       1077.0000       287.71023       98825.877       14860.672       4.5800000      0.28275000      0.50550000       341.11400       3.3381660     0.016382945
       1082.0000       287.69151       98835.175       14780.918       2.4157500     -0.70675000      0.45400000       341.31000       3.7415939     0.014087072
       1087.0000       287.68603       98835.663       14670.637       3.4800000     -0.36850000     -0.12425000       341.22900       2.9322236     0.020787567
       1092.0000       287.69717       98832.054       14617.514       2.4142500     0.046000000      0.34450000       341.18100       3.1185517     0.016472338
       1097.0000       287.72008       98807.717       14577.677       2.6240000      0.47800000      0.57625000       341.30800       3.3350499     0.017433367
       1102.0000       287.75122       98801.533       14591.577       3.5862500     -0.46450000     -0.13250000       341.21800       4.3221115     0.028209406
       1107.0000       287.83868       98800.561       14689.761       2.5090000      0.11400000      0.47775000       341.33900       3.1325367     0.016481429
       1112.0000       287.86621       98803.129       14766.092       4.6207500      -2.0327500     -0.13550000       341.14700       3.1423217     0.014632497
       1117.0000       287.87183       98826.776       14914.292       3.7917500     -0.10900000      0.11975000       341.33300       3.4578569     0.015484386
       1122.0000       287.85924       98834.077       14981.261       3.7437500      0.17125000     -0.14500000       341.16400       4.1518855     0.014937500
       1127.0000       287.77650       98835.598       14999.123       4.1290000      0.99900010      0.73200010       340.90500       3.1190983     0.015316886
       1132.0000       287.73750       98831.977       15006.191       3.0062500     -0.74475000     -0.14725000       341.17200       2.3634451     0.014131635
       1137.0000       287.69571       98809.073       14943.848       3.6627500     -0.36625000      0.60550000       341.02900       2.3516152     0.021307555
       1142.0000       287.68767       98801.434       14913.152       4.0147500      0.14550000      0.36250000       340.73600       2.1051071     0.019564904
       1148.0000       287.73826       98795.451       14899.857       3.4535000     -0.31475000     -0.24325000       340.87000       2.0759568     0.018419645
       1153.0000       287.75817       98798.685       14867.001       3.3310000     -0.48825000     -0.12400000       341.06000       2.0084569     0.025244914
       1158.0000       287.79515       98824.456       14826.593       3.3467500     -0.60925000     -0.16125000       341.21700       2.4918240     0.019512560
       1163.0000       287.81128       98829.490       14787.799       4.3500000      0.27225000      0.16750000       341.08500       3.3194535     0.013910328
       1168.0000       287.78800       98829.983       14698.599       3.2940000     -0.89675000     -0.11500000       340.95100       3.1145029     0.014291321
       1173.0000       287.80228       98826.169       14688.824       4.5560000      -1.9037500     -0.17925000       341.17800       3.2523903     0.019492570
       1178.0000       287.85149       98799.960       14744.913       3.5635000     -0.86700000      0.39950000       341.20000       2.4331905     0.021749302
       1183.0000       287.85797       98795.073       14764.042       3.9897500      -1.7817500     -0.37475000       340.72300       2.0422256     0.016570573
       1188.0000       287.84405       98800.258       14793.693       4.1672500     -0.73600010      0.17450000       340.99400       2.0013843     0.016720964
       1193.0000       287.85385       98805.784       14844.143       3.3640000     -0.93025000     -0.62100010       341.12800       1.9805712     0.026290118
       1198.0000       287.84286       98829.057       14890.652       2.3845000     -0.24900000      0.53000000       341.05200       1.9769353     0.022080341
       1203.0000       287.84641       98835.235       14931.030       5.1662500     -0.34025000     -0.11075000       340.62100       2.0834202     0.017855387
       1208.0000       287.88136       98835.843       15016.311       4.1317500     -0.48125000     -0.35850000       340.86000       1.9913675     0.018348233
       1213.0000       287.91131       98830.879       15062.618       4.0112500      -1.4377500    -0.017000000       340.70000       2.0511790     0.024695336
       1218.0000       287.92530       98803.716       15067.274       4.7350000     -0.56100000     -0.27650000       340.72000       2.0008718     0.016603913
       1223.0000       287.95938       98801.361       15079.055       3.8502500      -1.0140000     -0.61650000       340.87400       2.1216420     0.016581879
       1228.0000       288.00819       98810.994       15057.602       2.2277500      -1.0822500      0.64600000       341.18200       1.9589116     0.016882413
       1233.0000       288.07206       98816.076       15096.931       3.4220000     0.049750000    -0.010000000       341.01100       2.0576747     0.014775920
       1239.0000       288.18344       98843.583       15178.045       3.5392500     -0.24200000     -0.13600000       340.76300       2.3142618     0.015854073
       1244.0000       288.23666       98845.651       15241.006       2.2930000     -0.51800000      0.15525000       341.01100       2.3519350     0.015884515
       1249.0000       288.27603       98830.418       15349.315       3.9672500      -1.2137500     -0.47000000       340.88500       2.0384143     0.014001308
       1254.0000       288.33642       98821.144       15436.908       3.5680000     -0.79200010      0.41175000       341.04200       2.2922738     0.011642588
       1259.0000       288.39495       98796.911       15501.117       3.7832500     -0.24000000     -0.28875000       340.91400       2.7787132     0.018527514
       1264.0000       288.41854       98797.075       15576.199       1.9187500     -0.54150000      0.77700000       341.30700       4.1026506     0.016362184
       1269.0000       288.45657       98813.964       15690.767       2.1082500     -0.95500000      0.36875000       341.37500       5.0175144     0.014174342
       1274.0000       288.46445       98817.960       15742.630       3.8427500      0.12250000     -0.25450000       340.97300       4.3293799     0.018745867
       1279.0000       288.42267       98835.081       15776.403       3.5890000      0.92075000     -0.32850000       340.85900       4.6103371     0.017975223
       1284.0000       288.37666       98833.085       15757.652       3.9690000      0.48625000     -0.37300000       341.14200       4.2306779     0.015204574
       1289.0000       288.31625       98805.497       15666.924       3.6075000      0.41275000     -0.37600000       341.19200       4.1766721     0.016151074
       1294.0000       288.27649       98799.957       15618.959       4.1910000     -0.64075010      0.33800000       341.26100       3.9832020     0.014490773
       1299.0000       288.20160       98795.326       15545.296       3.7747500     -0.62000000     -0.19775000       341.26800       4.4660230     0.019771779
       1304.0000       288.17435       98800.257       15492.118       4.7552500     -0.72025000    -0.058500000       341.46800       4.2622732     0.020618462
       1309.0000       288.21121       98824.805       15499.809       3.8030000    -0.032000000    -0.040000000       341.20100       2.6606374     0.012260527
       1314.0000       288.19496       98830.345       15415.236       3.5890000     -0.28700000    -0.030250000       341.09300       2.4110389     0.017657413
       1319.0000       288.14597       98834.827       15248.686       3.8695000    -0.042250000     0.055250000       341.00400       2.6987322     0.027917129
       1324.0000       288.14185       98830.141       15163.344       3.8545000     -0.80125000     -0.15700000       341.13100       2.3710986     0.020201603
       1330.0000       288.12530       98804.090       15021.326       3.9537500      0.61700000      0.17075000       341.18800       2.1010285     0.022985127
       1335.0000       288.17126       98799.619       15018.123       1.9512500     -0.98000000    -0.027500000       340.89600       2.0260693     0.015799265
       1340.0000       288.28497       98797.628       15110.980       4.0105000     0.077500000      0.21725000       341.38700       2.3956837     0.017138749
       1345.0000       288.35568       98800.273       15199.440       2.6882500      -1.0800000     0.084250000       341.46000       2.6834850     0.017543489
       1350.0000       288.45983       98816.360       15356.532       2.1517500      -1.5310000      0.34950000       341.71800       3.4094100     0.017733879
       1355.0000       288.48350       98818.803       15454.010       2.3365000      -1.0787500     -0.44075000       341.04700       2.7471469     0.016969960
       1360.0000       288.44745       98817.638       15559.965       2.2637500      -1.8952500      0.10400000       341.23800       2.0713478     0.026322913
       1365.0000       288.45743       98812.996       15629.504       3.7170000      -1.6247500     -0.22525000       340.92200       1.9221347     0.017977191
       1370.0000       288.44349       98796.371       15671.175       2.1935000      -1.9452500      0.20100000       342.08900       2.0409278     0.013236256
       1375.0000       288.45245       98800.664       15690.036       2.2782500      -1.5842500    -0.032500000       341.99700       2.7877355     0.016500977
       1380.0000       288.52109       98814.573       15702.259       2.9342500      -1.4487500      0.33075000       341.48700       3.2342501     0.021110067
       1385.0000       288.49547       98818.590       15659.151       3.6480000      -1.6677500      0.11625000       341.54400       3.9059538     0.029720251
       1390.0000       288.41002       98835.756       15558.876       2.9302500      0.15650000     -0.18850000       341.35800       5.2646381     0.017864104
       1395.0000       288.36972       98831.681       15481.627       3.7890000     -0.39700000      0.22125000       341.24100       4.6372735     0.016350492
       1400.0000       288.26911       98803.277       15363.145       2.5772500     -0.38500000      0.73675000       342.71100       3.6371470     0.020391841
       1405.0000       288.30307       98800.641       15302.482       2.7490000      0.49050000      0.30950000       341.45500       2.8003694     0.017086043
       1410.0000       288.44024       98801.471       15265.469       4.5507500      0.48950000    -0.011500000       341.69200       2.9733080     0.020526968
       1415.0000       288.50021       98807.749       15231.757       5.1110000     -0.67950000     -0.95725010       341.02300       3.7277191     0.020281495
       1421.0000       288.61219       98833.609       15201.598       4.9812500      0.59575000     -0.38825000       341.67700       4.1472421     0.018798786
       1426.0000       288.65928       98836.047       15233.343       3.6350000      0.73000000    -0.017750000       341.83000       3.8175450     0.014674291
       1431.0000       288.64291       98832.185       15283.630       3.8530000     -0.48800000      0.42900000       341.39400       3.0931949     0.017166480
       1436.0000       288.68482       98827.631       15381.122       5.8582500      0.76575010     -0.13900000       341.14800       3.3814554     0.024323403
       1441.0000       288.75665       98812.390       15555.717       4.0435000     -0.75200000    -0.069750000       341.65300       3.5580175     0.024965742
       1446.0000       288.77038       98820.943       15638.959       4.2887500     -0.94525000      0.15100000       341.79200       3.0865218     0.015168147
       1451.0000       288.80055       98824.872       15724.795       3.8605000      0.46400000      0.56325000       342.09800       2.7948385     0.015532374
       1456.0000       288.81548       98843.404       15780.255       4.5142500     -0.43475000     -0.20625000       341.52800       2.8224627     0.018043454
       1461.0000       288.84417       98845.258       15831.185       4.7787500      -1.2827500     -0.12825000       341.69800       2.7234531     0.018103724
       1466.0000       288.91503       98820.802       15919.649       5.9765010     -0.25825000     -0.13675000       341.36700       3.4574785     0.017046908
       1471.0000       288.95598       98813.469       15954.306       4.9450000       1.1467500     -0.16125000       341.30100       3.1184942     0.016890307
       1476.0000       288.98464       98809.816       15954.839       4.7832500     -0.60900000     -0.14525000       341.02800       2.4210572     0.020415504
       1481.0000       289.00676       98802.294       15913.539       4.9247500      -1.1937500     -0.69625000       340.68100       2.0075556     0.018126559
       1486.0000       289.01556       98804.170       15886.492       4.2182500      0.77000000      0.52450000       341.80800       1.9598240     0.021216772
       1491.0000       288.99984       98822.176       15826.857       4.4600000      0.10225000     -0.51225000       340.69700       2.1908090     0.013403432
       1496.0000       289.01479       98820.158       15801.658       4.0177500      0.67950000     0.069250000       340.87600       2.4569127     0.023945952
       1501.0000       289.00623       98820.098       15765.713       3.7777500       1.5730000      0.32400000       341.96300       2.5166896     0.017944832
       1506.0000       288.96989       98817.314       15693.492       5.1487500      0.43900000      0.15300000       341.56900       1.9303438     0.021704539
       1512.0000       288.94614       98819.721       15651.121       3.0325000     -0.85950010      0.14300000       341.69600       2.4776056     0.013690895
       1517.0000       288.89515       98829.794       15633.323       2.6900000      0.36250000      0.87300000       342.29800       2.9642686     0.014206352
       1522.0000       288.88804       98831.476       15622.633       3.2422500      0.19350000      0.72200010       342.16100       2.5982778     0.018844175
       1527.0000       288.93422       98835.529       15658.253       3.1995000      -1.0897500    -0.046750000       342.14600       2.3748720     0.016254778
       1532.0000       288.95436       98831.820       15659.066       4.1710000     0.017750000      0.63600000       341.43900       2.1088597     0.015721103
       1537.0000       289.01857       98804.608       15636.770       4.5230000     -0.94425000     -0.22575000       341.88400       2.0050415     0.016933073
       1542.0000       289.01518       98800.307       15621.960       4.2392500     -0.32900000    -0.089250010       342.30400       2.0023572     0.023247199
       1547.0000       288.93147       98810.244       15579.482       4.7375000     -0.37075000     -0.47475000       340.66900       1.8468047     0.017040405
       1552.0000       288.89174       98814.609       15568.157       4.2925000     -0.39750000     0.088250000       341.15400       2.2634221     0.032628440
       1557.0000       288.81984       98842.596       15601.289       3.8037500     -0.94600000     -0.18250000       341.15800       2.4160534     0.018924780
       1562.0000       288.78270       98846.429       15596.327       3.9680000      -1.6505000     0.047500000       341.68400       2.7765930     0.015273055
       1567.0000       288.78569       98819.372       15610.741       4.3072500     -0.21475000     -0.13375000       341.29800       4.3028261     0.017249874
       1572.0000       288.79711       98812.780       15577.936       4.0195000     -0.59375000     -0.43950000       341.56000       2.9521750     0.015643000
       1577.0000       288.80584       98802.837       15434.566       2.7400000     -0.59350000      0.87275000       341.81800       2.3171952     0.015630696
       1582.0000       288.84860       98801.689       15394.764       2.4522500      -1.7715000      0.25850000       342.23000       2.0855243     0.018573609
       1587.0000       288.97337       98828.484       15382.890       4.8077500     -0.83025000      0.40800000       341.21600       2.0683757     0.011983362
       1592.0000       289.02178       98834.941       15389.968       2.7212500      -1.7512500     -0.29850000       341.26100       2.0919993     0.017622063
       1598.0000       289.07782       98826.664       15533.563       3.0090000      -1.1672500     -0.15200000       341.84300       2.0030556     0.018163226
       1603.0000       289.06272       98825.301       15565.840       1.5440000      -1.3730000     0.038000000       342.29200       1.9940072     0.016743359
       1608.0000       288.97093       98812.887       15578.938       3.0255000      -1.4897500    -0.054250000       341.72500       1.8643111     0.019194129
       1613.0000       288.87290       98812.880       15531.252       4.3542500      -1.9352500      -1.1127500       341.39000       1.8740703     0.016444436
       1618.0000       288.68387       98831.081       15387.233       4.4180000      -2.7320000     -0.48125000       341.03800       1.8806368     0.016242713
       1623.0000       288.60507       98832.479       15296.240       2.8405000      -1.7110000     -0.36850000       341.82600       1.9320418     0.022163032
       1628.0000       288.55290       98827.629       15175.981       2.5195000     -0.96975000      0.13700000       342.05500       1.9768519     0.015073945
       1633.0000       288.52394       98824.827       15089.371      -65.536000      -65.536000      -65.536000       307.23200       2.3334547     0.029048190
       1638.0000       288.60854       98807.750       15057.213       3.0477500     -0.14650000     -0.24350000       341.41600       2.0391456     0.015167573
       1643.0000       288.61079       98807.031       14986.314       3.7557500     0.051500000      0.15700000       341.84800       2.8447151     0.018303043
       1648.0000       288.56233       98824.472       14882.633       4.4927500      -1.0980000     -0.23800000       341.08300       3.0286928     0.020151363
       1653.0000       288.54270       98827.793       14821.882       4.8415000     -0.74425010     -0.45825000       341.45100       2.3126302     0.020950742
       1658.0000       288.49112       98832.659       14745.133       4.5982500      -1.1830000      0.82400010       341.77500       2.0373097     0.020797271
       1663.0000       288.48862       98832.072       14724.493       6.2675000      0.65200000    -0.091500010       340.66400       1.8923224     0.016109431
       1668.0000       288.55018       98813.733       14780.469       5.1280000     -0.16875000      0.16350000       340.97200       1.8810536     0.017225758
       1673.0000       288.55623       98812.560       14793.559       4.2905000      -1.1000000     -0.69475000       341.42900       2.3484457     0.021290467
       1678.0000       288.54351       98824.927       14811.189       4.4077500     -0.65025000      0.20000000       341.45600       2.0022700     0.020068253
       1683.0000       288.55351       98826.611       14832.805       4.3705000      -1.0602500    -0.064000000       341.28900       2.0316285     0.023236733
       1689.0000       288.53155       98835.069       14830.247       2.9200000      0.27625000      0.19925000       341.80100       3.2207943     0.015677727
       1694.0000       288.55383       98830.329       14861.786       3.9235000     -0.61625000     -0.39500000       341.06300       3.7674793     0.029629348
       1699.0000       288.64076       98802.207       14936.519       4.1052500      0.70800000     -0.39625000       341.21400       4.0680772     0.019734451
       1704.0000       288.67438       98801.671       14976.606       4.6502500      0.40050000     -0.14175000       340.98900       3.8925666     0.018548613
       1709.0000       288.68828       98813.873       14997.195       4.5570000     -0.71600000    -0.061750000       340.97400       3.3825658     0.026142996
       1714.0000       288.71860       98816.494       15057.591       4.0837500      -1.2530000     -0.54650000       340.80200       2.8679299     0.020974035
       1719.0000       288.76534       98832.543       15136.107       2.6457500     -0.12825000      0.93050000       341.78500       2.9230956     0.018419525
       1724.0000       288.75311       98833.814       15190.833       3.0682500    -0.069250000     -0.25675000       341.61700       4.5292395     0.023146589
       1729.0000       288.71493       98812.706       15301.458       3.5665000    0.0040000000      0.20550000       341.18700       5.0943825     0.019728272
       1734.0000       288.68876       98812.835       15306.854       4.1460000     -0.37150000     -0.33700000       340.91100       3.9953963     0.020434029
       1739.0000       288.57891       98825.107       15213.835       4.4132500      -1.7120000     -0.76325010       341.13500       3.0250241     0.021686322
       1744.0000       288.58331       98826.427       15182.599       3.3010000      0.45550000      0.85000000       341.77400       2.5954722     0.016416927
       1749.0000       288.67012       98835.270       15094.532       5.0187500     -0.51350000      0.29125000       341.40800       2.2932093     0.023410235
       1754.0000       288.72662       98830.382       15100.652       4.4375000     0.076500010     -0.56100000       340.61300       1.9891642     0.019817569
       1759.0000       288.87253       98802.543       15218.397       4.7622500      0.48500000     -0.18200000       340.78500       2.0182316     0.018273945
       1764.0000       288.87142       98801.943       15224.647       3.5337500      -1.5445000     -0.31400000       341.11600       1.9569080     0.014943426
       1769.0000       288.77137       98814.005       15227.186       3.9422500      0.24450000      0.26425000       341.21300       2.8429757     0.029393043
       1774.0000       288.72499       98816.623       15198.589       3.1080000     -0.10375000      0.10275000       341.57000       2.4514620     0.017804761
       1780.0000       288.59093       98833.227       15052.428       4.9382500      -1.4357500     0.090250010       341.31500       2.1637271     0.016076338
       1785.0000       288.55736       98832.904       15030.691       5.4320000      -1.0695000     -0.46675000       341.15700       1.9253736     0.020197320
       1790.0000       288.60961       98811.481       15069.903       5.2172500      -2.4132500      0.33875000       341.40200       1.9875465     0.015925960
       1795.0000       288.59072       98814.896       15055.712       3.5910000      -1.5640000     -0.38750000       341.49100       1.9950694     0.027246647
       1800.0000       288.55397       98829.438       15064.059       4.4647500     -0.64725010     -0.17625000       340.78600       1.9164902     0.018710659
       1805.0000       288.53401       98834.508       15036.554       4.1762500     -0.58300000      0.13650000       341.18700       2.0212314     0.022783469
       1810.0000       288.47878       98848.675       14931.045       4.1822500      -1.0385000     -0.42550000       340.72800       1.9265595     0.015733732
       1815.0000       288.50478       98847.489       14946.751       3.1907500      0.40625000    -0.063250010       341.49200       2.0324460     0.016006514
       1820.0000       288.60117       98828.132       15018.758       3.3290000      -1.2805000     0.078250010       341.36400       1.8797874     0.018432596
       1825.0000       288.62214       98828.678       15069.142       2.9462500      -1.2875000      0.31775000       341.62700       2.0691986     0.018131031
       1830.0000       288.67815       98836.152       15195.100       3.8055000      0.99250010     -0.41600000       341.60500       2.3227947     0.018674030
       1835.0000       288.64399       98834.305       15222.279       4.2057500    0.0072500000     -0.23375000       341.54600       2.3766945     0.022524318
       1840.0000       288.50721       98838.446       15194.701       3.1995000      0.18200000    -0.076250000       341.21300       2.3297093     0.019956228
       1845.0000       288.45583       98833.807       15174.683       2.7430000      -1.9837500      0.25325000       342.21100       3.1888851     0.018196528
       1850.0000       288.38604       98811.360       15116.679       2.1220000    -0.064500000      0.45550000       342.21000       2.9433792     0.016958890
       1855.0000       288.38205       98813.465       15091.971       4.3200000      -1.6507500     0.088000010       341.34300       2.8791309     0.018326702
       1860.0000       288.43818       98832.307       15077.728       4.0447500      0.15975000      0.42300000       342.13100       2.9959718     0.027201903
       1865.0000       288.47683       98831.740       15048.652       4.9067500     -0.36200000     -0.62375000       341.14000       2.5267054     0.023981456
       1871.0000       288.56256       98832.503       15022.580       4.5067500     -0.82775000     0.023750000       341.62300       2.2041061     0.016640507
       1876.0000       288.57007       98827.978       14969.683       3.6530000      0.11375000     0.020750000       341.88400       2.0887540     0.020288283
       1881.0000       288.55075       98805.652       14877.474       3.2407500      -1.2265000     -0.69325010       341.00700       2.0416266     0.027107016
       1886.0000       288.56063       98808.666       14862.306       2.2560000      -1.8250000      0.36275000       341.68800       2.1315860     0.021309479
       1891.0000       288.54434       98827.024       14855.679       2.6115000      0.20800000      0.31350000       342.05900       2.4295926     0.019969236
       1896.0000       288.57049       98822.169       14918.091       2.4320000    -0.077500000      0.57025000       342.41700       2.9671160     0.020676267
       1901.0000       288.60068       98825.093       14965.770       4.8082500     -0.89925000     -0.54600000       340.80300       2.7891290     0.021946281
       1906.0000       288.63024       98823.865       14985.968       4.9210000     -0.68800000      0.49825000       341.39800       1.9898643     0.020091657
       1911.0000       288.65004       98823.595       15040.154       3.7962500     -0.89625010     -0.25900000       341.19900       1.8718218     0.017829489
       1916.0000       288.70011       98843.232       15153.079       1.5035000     -0.54125010      0.40900000       342.03500       2.0058662     0.024595592
       1921.0000       288.71280       98845.243       15213.949       2.4270000     -0.57675000      0.77375000       342.04600       2.0046055     0.019990306
       1926.0000       288.70090       98837.407       15258.831       4.2237500       1.3602500     0.080250000       341.39100       2.1635748     0.023728130
       1931.0000       288.65119       98812.330       15321.532       4.2085000      0.80675010      0.28225000       341.63500       2.1377413     0.016670481
       1936.0000       288.63113       98812.914       15304.015       3.6945000      0.27550000     0.017750000       341.14800       2.4964740     0.020799648
       1941.0000       288.58820       98812.257       15208.311       2.9205000      0.21025000      0.47125000       341.89000       2.2594217     0.022070734
       1946.0000       288.64516       98837.069       15199.478       5.2940000      -1.7510000     -0.34400000       340.82200       2.2137458     0.024530395
       1951.0000       288.65674       98845.234       15159.192       4.6312500      -2.1192500     -0.37450000       341.13100       2.0613890     0.020862847
       1956.0000       288.64008       98826.734       15100.831       3.5987500      -1.1772500      0.24025000       341.17900       1.9186241     0.022625274
       1962.0000       288.65206       98823.175       15069.469       3.8455000     -0.30650000      0.33875000       341.16900       1.8103903     0.017032061
       1967.0000       288.61359       98827.729       14982.903       2.8415000     -0.78550000      0.27175000       341.76100       2.0539763     0.023760851
       1972.0000       288.63779       98824.762       14988.891       4.1037500      0.20400000      -1.3452500       340.73500       2.0295821     0.020756050
       1977.0000       288.77175       98829.834       15121.895       2.5572500      -1.8185000      0.93150000       341.63700       1.8271955     0.018371404
       1982.0000       288.81907       98827.170       15183.705       5.1552500      -1.0247500     -0.19025000       341.33400       1.9185643     0.021912937
       1987.0000       288.86017       98799.104       15263.420       3.1012500      -1.0340000     -0.19925000       341.73600       1.9835286     0.016898059
       1992.0000       288.86662       98794.933       15318.559       4.2127500      -1.5590000     -0.60175000       340.84900       1.9742247     0.020693340
       1997.0000       288.77522       98816.610       15295.852       4.1272500      -1.4772500      0.10375000       341.54500       1.8810721     0.017231998
       2002.0000       288.73692       98817.281       15322.333       3.3445000     -0.23375000      0.79775010       341.92800       1.8810560     0.017437591
       2007.0000       288.72444       98814.250       15414.795       4.2385000   -0.0037500000    -0.053000000       340.82700       1.9038403     0.014944777
       2012.0000       288.69484       98817.055       15437.143       3.2595000      -1.4425000     -0.50150000       341.32400       2.0447607     0.017748774
       2017.0000       288.68177       98800.907       15472.540       3.5420000    -0.083250000     -0.20900000       341.85700       2.5370061     0.025623455
       2022.0000       288.65048       98801.042       15436.916       3.0012500      0.11225000      0.76800000       341.69500       2.4653581     0.019783682
       2027.0000       288.57686       98832.811       15285.620       4.9615000     -0.73800000      0.10250000       341.95100       2.0396590     0.020962074
       2032.0000       288.53805       98839.900       15185.912       2.9902500     -0.58050000      0.10700000       342.11000       2.3769279     0.027273172
       2037.0000       288.50966       98829.264       15072.973       4.6607500    -0.052000000     -0.42725000       341.37600       2.5981837     0.025450683
       2042.0000       288.49061       98830.216       14966.077       3.7070000     -0.29875000     -0.39275000       341.57800       3.1931068     0.028507378
       2047.0000       288.51454       98824.450       14882.031       3.3267500     -0.92675010      0.66250000       341.98600       2.6553179     0.020443659
       2053.0000       288.49988       98823.309       14777.689       3.4130000      0.25175000      0.17850000       341.69100       2.3746746     0.023873128
       2058.0000       288.46338       98843.016       14659.936       3.6837500      -1.3032500     0.062750000       341.50400       2.6563926     0.019819218
       2063.0000       288.44361       98843.714       14590.093       3.5685000      -1.0437500     -0.13800000       341.74900       2.6553724     0.017740363
       2068.0000       288.40506       98825.219       14539.818       2.1647500     -0.94050000     -0.13800000       341.93800       2.9760774     0.024850921
       2073.0000       288.38862       98823.465       14515.972       3.8792500      -1.0297500      0.12350000       341.33100       2.8029782     0.024216394
       2078.0000       288.39975       98823.323       14537.080       4.4450000      -1.7997500   -0.0082500000       341.85200       3.1332077     0.022448348
       2083.0000       288.39963       98824.447       14544.249       5.0847500      -2.9045000     -0.32675000       340.90800       1.9070624     0.017964336
       2088.0000       288.37458       98839.042       14546.644       4.7362500      -1.5970000      0.32750000       342.12500       1.9113442     0.019148396
       2093.0000       288.40226       98843.937       14586.937       4.1712500      -1.7807500      0.26500000       341.31400       1.9828916     0.023115615
       2098.0000       288.47598       98839.106       14646.267       3.7782500      -2.3910000     -0.65675000       341.39700       1.8230010     0.018691965
       2103.0000       288.51568       98840.477       14710.276       1.4937500      -1.2702500     0.021250000       341.97200       1.8385831     0.020018331
       2108.0000       288.59025       98849.553       14814.153       4.4052500      -1.6965000     -0.52000000       341.24400       1.8248315     0.022448281
       2113.0000       288.62270       98846.092       14903.780       3.3647500      -1.4320000     -0.97525010       341.25300       1.9194814     0.018358043
       2118.0000       288.61304       98829.437       15015.912       2.9837500      -1.1152500      0.38200000       341.89700       1.9109570     0.017412504
       2123.0000       288.59939       98828.561       15065.986       3.1895000      -1.5615000      0.36350000       341.43300       1.8997595     0.017788057
       2128.0000       288.53510       98828.881       15071.061       2.5427500      -2.6205000      0.50575000       341.53800       1.8137364     0.020860378
       2133.0000       288.54195       98828.968       15101.654       4.3795000      -3.8820000      -1.0385000       341.62800       1.7805536     0.020662045
       2138.0000       288.59420       98848.451       15115.204       4.4072500      -2.1085000      0.43100000       341.34100       1.7106211     0.019301595
       2144.0000       288.60614       98847.853       15103.097       3.4470000     -0.88350000      0.11975000       341.74800       1.9583146     0.021164697
       2149.0000       288.65752       98823.438       15113.975       2.3952500      -1.3615000    -0.064250000       341.61000       1.8756002     0.017541216
       2154.0000       288.66445       98822.673       15090.738       2.9875000      -1.1955000      0.33750000       341.68000       1.9515943     0.015806233
       2159.0000       288.60095       98831.800       14993.484       2.4807500      -1.0602500      0.93525000       341.25600       1.9880308     0.022665328
       2164.0000       288.58709       98829.092       14964.783       3.3137500      0.69200000    -0.022000000       341.55300       1.9057352     0.016038235
       2169.0000       288.63310       98829.530       14996.756       3.4565000      -1.5870000      0.71775000       341.46300       2.0079380     0.023519907
       2174.0000       288.58446       98831.913       14953.888       3.7210000      -1.4475000      0.20650000       341.20900       2.0414856     0.024214576
       2179.0000       288.47367       98823.266       14885.885       4.5115000      -1.0942500     -0.87225000       341.25100       2.0356860     0.017460391
       2184.0000       288.41429       98823.833       14835.623       4.2695000      -1.3235000    -0.045250000       341.26400       1.9281319     0.025289979
       2189.0000       288.29119       98843.547       14716.355       4.3097500     -0.56125000    -0.059750000       341.17800       2.0170634     0.015829358
       2194.0000       288.26597       98842.909       14695.389       4.6142500     -0.98075000      0.19525000       341.50400       1.8658086     0.016026836
       2199.0000       288.35248       98823.196       14765.576       4.7245000     -0.69925000      0.32450000       341.35300       2.0930189     0.023918539
       2204.0000       288.35605       98823.705       14770.610       3.0762500     -0.83975010     -0.16450000       341.39000       1.8857400     0.022431103
       2209.0000       288.35745       98830.855       14781.013       3.0292500      0.27125000      0.59700000       341.59500       2.0704631     0.024423666
       2214.0000       288.35162       98829.821       14793.430       6.1022500     -0.22400000     -0.16400000       341.34300       2.2302021     0.019871421
       2219.0000       288.28898       98837.387       14767.171       4.5047500      0.26400000     -0.21300000       341.26100       2.5257375     0.017291589
       2224.0000       288.29106       98837.006       14780.360       6.0767500     -0.78900000     -0.23375000       341.19600       2.3617848     0.025362258
       2229.0000       288.34228       98817.400       14843.402       2.8335000      -1.0107500      0.39925000       341.73500       2.0872740     0.022606356
       2235.0000       288.36617       98819.318       14868.446       3.1547500      -1.4177500       1.1692500       341.90500       1.9458528     0.017687440
       2240.0000       288.39356       98837.690       14865.097       4.6342500      -1.2870000      0.82750000       341.35800       2.0082523     0.019046230
       2245.0000       288.42348       98836.141       14897.268       3.1875000      0.82225010      0.35525000       341.51000       1.9515573     0.018348191
       2250.0000       288.44591       98829.064       14932.170       4.9507500     -0.57500000    -0.089500000       341.21500       2.0915076     0.019076801
       2255.0000       288.46586       98831.948       14972.181       4.7902500    -0.066000000     -0.29950000       341.21600       2.0352292     0.019050661
       2260.0000       288.51165       98828.446       15062.559       3.9465000     -0.15400000      0.60675000       341.48200       2.0161061     0.015603400
       2265.0000       288.50401       98830.000       15063.294       3.3572500      -1.1592500     -0.14525000       341.38500       1.9391653     0.018967913
       2270.0000       288.46291       98849.432       15019.554       2.8360000      -1.3412500      0.11375000       341.66500       2.3431766     0.028323388
       2275.0000       288.42444       98846.189       14983.041       2.5182500     -0.10150000      0.49900000       341.80100       2.1729323     0.015941009
       2280.0000       288.35162       98822.900       14896.835       4.8085000      0.67500000     -0.12300000       340.79100       1.9932792     0.024337591
       2285.0000       288.32068       98823.331       14854.250       3.6720000     -0.18300000      0.61475000       341.35400       1.9679631     0.023774768
       2290.0000       288.29694       98831.088       14838.737       3.4897500     0.078500000      0.14725000       341.02700       2.1791093     0.023271001
       2295.0000       288.28575       98828.168       14792.315       3.1510000      -1.8210000    -0.085250010       341.45400       2.9904986     0.018965452
       2300.0000       288.29993       98829.330       14738.795       4.1000000      0.35300000     -0.22550000       341.19000       2.3810965     0.018899431
       2305.0000       288.29993       98833.327       14686.362       4.3912500      0.20425000      -1.0935000       341.13800       2.1727211     0.023714253
       2310.0000       288.29163       98831.296       14596.702       2.6932500     0.034500000    -0.022500000       341.33200       2.2969698     0.019907198
       2315.0000       288.31053       98827.334       14587.643       3.7067500     -0.55725000     -0.40075000       341.10900       2.1897147     0.017272844
       2321.0000       288.34993       98832.202       14621.198       4.3557500     -0.30175000    -0.014000000       341.02800       2.0256243     0.021621210
       2326.0000       288.36964       98829.850       14651.018       3.8257500      -1.2792500      0.42300000       341.39300       1.9531643     0.021950269
       2331.0000       288.41294       98810.776       14733.607       3.0427500      -2.4480000     -0.30900000       341.42400       1.7824147     0.023254009
       2336.0000       288.39990       98815.854       14757.743       4.4502500      -1.7507500      0.21650000       341.24600       2.0506040     0.021534082
       2341.0000       288.34966       98838.215       14756.198       4.4825000      -2.5650000     -0.36950000       341.35400       2.0746157     0.019734937
       2346.0000       288.32982       98827.823       14783.817       5.2020000      -1.4552500     0.098500010       341.24400       1.8941379     0.025804877
       2351.0000       288.29977       98829.670       14786.510       5.2992500      -2.3650000     -0.61275010       341.29800       1.7803092     0.019567893
       2356.0000       288.29963       98834.235       14810.821       3.5520000    -0.040500000     0.074250010       341.32600       1.8411080     0.017333315
       2361.0000       288.26213       98830.301       14778.350       4.4597500     -0.13200000     -0.70125000       340.88400       1.9108857     0.025486400
       2366.0000       288.15524       98826.193       14663.967       4.1595000     -0.29300000     -0.10700000       341.26600       1.6568314     0.031632172
       2371.0000       288.09450       98830.069       14582.301       3.4097500     -0.40975000      0.50225000       341.43100       1.9191784     0.019441087
       2376.0000       288.04604       98833.931       14497.501       4.7545000      -1.0455000      -1.1702500       341.13100       2.0173435     0.018207267
       2381.0000       287.98024       98828.184       14377.956       3.4515000    -0.036750000      0.33100000       341.27400       2.0216958     0.025290936
       2386.0000       287.98401       98830.682       14310.694       5.1312500     -0.91975000     -0.33300000       340.96400       1.8668835     0.020861984
       2391.0000       288.05553       98848.685       14285.611       3.8250000     -0.86500010     -0.62850000       341.08700       2.5692182     0.017769557
       2396.0000       288.05425       98831.077       14194.199       3.4677500      -1.6665000     -0.58525000       341.23000       3.3524427     0.026726630
       2401.0000       288.05547       98827.365       14142.715       2.6242500      0.79400000      0.24575000       341.51700       2.5951235     0.017323936
       2406.0000       288.01502       98838.266       14105.051       3.0872500     -0.82500000     -0.47450000       341.21200       2.5751698     0.021994316
       2412.0000       287.99136       98835.842       14075.269       3.8650000      -1.3762500      0.22175000       341.03800       2.6246510     0.027454878
       2417.0000       288.01456       98828.298       14111.707       4.4447500      -2.6440000     -0.10425000       341.08700       2.3016795     0.018930443
       2422.0000       288.00301       98830.448       14111.284       3.4262500     -0.63925000     -0.74400000       341.05600       2.1260898     0.017625846
       2427.0000       287.95210       98832.134       14069.142       2.8127500     -0.44975000      0.40275000       341.37900       1.9703622     0.020188418
       2432.0000       287.94357       98829.234       14072.730       4.1860000      -1.3460000     -0.49650000       341.30400       2.0487374     0.018759455
       2437.0000       287.93043       98833.268       14076.018       4.3212500     -0.25600000     -0.67725000       341.16800       2.0669827     0.019032469
       2442.0000       287.94292       98837.007       14108.501       3.2212500      -1.7240000      0.98750010       341.07600       2.0755740     0.018784188
       2447.0000       288.02489       98829.788       14210.838       2.6962500      -1.1695000     -0.44325000       341.14400       2.1618258     0.030544818
       2452.0000       288.06312       98828.147       14275.145       4.1360000      -1.3245000     -0.52175000       341.03700       2.0380137     0.017641654
       2457.0000       288.09043       98841.226       14337.016       3.6490000      -2.1745000     -0.51550000       341.08200       1.8926609     0.013638482
       2462.0000       288.10909       98842.731       14389.423       3.0100000     -0.92800000       1.0540000       341.25200       1.9603267     0.017964737
       2467.0000       288.10004       98829.384       14425.420       3.5487500     -0.73225000      0.25150000       341.14400       1.8815762     0.018888216
       2472.0000       288.10004       98828.843       14454.892       4.6630000      -2.3332500     -0.17500000       340.74800       1.9843457     0.019135358
       2477.0000       288.11397       98838.076       14497.917       5.3940000      -1.4577500      0.74525000       341.08300       2.0550737     0.020478245
       2482.0000       288.10262       98835.767       14500.464       4.9617500      -2.0252500     -0.56275000       340.90100       2.0096277     0.017655432
       2487.0000       288.05168       98828.075       14440.557       3.9250000      -1.1250000     -0.15200000       341.01900       1.9670926     0.021779158
       2492.0000       288.04268       98830.176       14427.983       2.8680000      0.19750000      0.47000000       341.11700       1.9460335     0.018100217
       2497.0000       288.02926       98832.090       14393.326       3.3195000      -1.9452500     -0.27300000       341.19300       1.9888937     0.023572544
       2503.0000       288.04706       98828.836       14411.111       2.3935000      -2.1117500      0.63950000       341.28300       2.0405717     0.020989243
       2508.0000       288.14574       98834.523       14522.194       3.6932500      -1.8992500      0.13150000       340.88700       2.0789048     0.017963209
       2513.0000       288.16794       98837.752       14558.448       4.3337500      -1.3987500     -0.30925000       340.90000       2.0742994     0.018338103
       2518.0000       288.14421       98829.643       14559.067       2.0525000      -2.3265000       1.0910000       341.23400       1.9732359     0.024674255
       2523.0000       288.15451       98828.837       14597.205       4.1150000      -1.7255000     -0.10425000       341.01000       1.9930407     0.017613308
       2528.0000       288.13080       98841.827       14601.917       3.8982500      -1.1767500     -0.58650000       340.95100       2.0045592     0.017303920
       2533.0000       288.14820       98842.357       14654.285       2.9100000      -1.8275000     -0.90850000       340.99600       2.0214585     0.017316657
       2538.0000       288.25955       98828.821       14811.298       2.9910000     -0.98225000     -0.22075000       341.03100       1.9855168     0.019826221
       2543.0000       288.26799       98828.985       14866.313       3.0752500      -1.0857500     0.035000000       341.15500       2.0496726     0.027938654
       2548.0000       288.21875       98836.545       14872.953       1.9312500     -0.43975000    -0.053750000       341.20700       1.9916393     0.023455317
       2553.0000       288.19517       98835.192       14893.181       2.7260000     -0.84350000      0.28300000       341.09200       2.0066162     0.025205174
       2558.0000       288.08290       98833.658       14833.539       2.3120000      0.14700000      0.36825000       341.29900       1.9743777     0.019894027
       2563.0000       288.07822       98836.655       14856.358       4.3552500     -0.87575010      0.50800000       341.08500       2.0024113     0.018223517
       2568.0000       288.17561       98838.291       14961.343       4.6510000     -0.62475000     -0.10500000       340.98400       1.9704564     0.023782316
       2573.0000       288.21570       98833.819       15007.616       3.5810000     -0.65150000     -0.24175000       340.91100       2.0965027     0.018211867
       2578.0000       288.29027       98828.188       15069.107       3.6430000     -0.90875010    -0.053000000       341.01600       1.9953068     0.019341164
       2583.0000       288.32335       98830.515       15097.715       2.8395000     -0.60100000    -0.037500000       341.02800       1.9915164     0.019837173
       2588.0000       288.32586       98831.529       15065.520       3.8040000     -0.95975010      0.21825000       340.93300       2.0568592     0.026166716
       2594.0000       288.28993       98828.619       15065.904       4.0427500      -1.0480000    -0.019500000       341.07900       1.9973518     0.027087167
       2599.0000       288.22999       98831.913       15095.099       3.1015000      -1.8507500    -0.033500000       341.06800       2.1138730     0.014874857
       2604.0000       288.17350       98839.563       15069.562       3.1257500      -1.4392500      0.13000000       340.91900       2.0634917     0.015375082
       2609.0000       288.06042       98844.769       15026.588       3.8252500     -0.90025000      0.12375000       340.99200       2.0355338     0.017364459
       2614.0000       288.01289       98845.686       14971.732       2.8832500     -0.91200010      0.20700000       341.07100       2.0471569     0.025721190
       2619.0000       287.98950       98856.143       14847.234       2.3187500      0.84075000      0.72625010       341.02300       2.0687985     0.014144891
       2624.0000       287.99196       98858.701       14802.726       3.5675000      0.49775000      0.54350000       341.12500       2.0697996     0.015226582
       2629.0000       288.04220       98845.954       14789.693       4.0285000     -0.13500000     -0.33900000       340.91100       1.9944643     0.016880976
       2634.0000       288.06200       98842.319       14782.602       3.0902500      0.18825000    -0.058750000       341.06500       2.0386057     0.018850548
       2639.0000       288.12194       98845.964       14831.335       3.2922500     -0.86675010      0.38075000       341.18000       2.0841869     0.023188184
       2644.0000       288.10375       98845.356       14829.861       2.1217500      -1.2630000      0.13225000       341.15800       2.0802494     0.017808034
       2649.0000       288.02911       98839.205       14814.771       2.8925000    -0.063500000      0.18625000       340.96600       2.0563768     0.019748269
       2654.0000       287.97227       98839.474       14789.746       3.7297500     -0.90925000     -0.28675000       340.89200       2.0309162     0.024735391
       2659.0000       287.85005       98847.872       14726.499       2.6380000      0.32325000     0.098000000       341.09800       2.0836493     0.018363583
       2664.0000       287.81885       98845.060       14708.788       3.4345000    -0.020000000     -0.28825000       341.11500       2.0189118     0.026092671
       2669.0000       287.85418       98833.989       14725.774       3.2467500     -0.56200000      0.20225000       341.25100       2.0320349     0.019319217
       2674.0000       287.84424       98834.183       14694.097       2.5302500      -1.1520000     -0.46025000       341.13400       2.0242966     0.018227717
       2679.0000       287.85705       98837.684       14653.997       2.4267500      -1.1320000      0.16450000       341.29600       2.0242514     0.016862810
       2685.0000       287.84790       98832.048       14613.908       2.0950000      -1.0145000      0.39075000       341.37300       2.0888123     0.015369191
       2690.0000       287.81593       98829.510       14560.741       3.5142500     -0.73650000     -0.28300000       341.02500       2.1016590     0.021715797
       2695.0000       287.76686       98832.440       14483.999       2.7680000      -1.2525000     -0.42250000       340.81900       2.1290919     0.018992318
       2700.0000       287.69926       98828.529       14400.879       2.1562500      -1.4937500   -0.0032500000       341.03100       2.0238632     0.016476047
       2705.0000       287.67818       98830.169       14348.492       2.7022500      -1.3302500     -0.13825000       341.05200       2.0535987     0.016836651
       2710.0000       287.64857       98845.934       14266.633       1.9747500      -1.7382500      0.62875000       341.08700       2.0965910     0.016799123
       2715.0000       287.62705       98850.280       14216.041       1.6865000      -1.1922500      0.69600000       341.17800       2.0545239     0.013086209
       2720.0000       287.64840       98848.207       14214.507       4.0232500      -1.5745000     -0.10325000       340.98400       2.0886120     0.013456854
       2725.0000       287.65854       98841.646       14204.054       3.9737500      -1.5965000     -0.29325000       340.85200       2.0627932     0.018038587
       2730.0000       287.65236       98828.666       14184.908       3.8180000      -1.7842500    -0.094500010       340.95500       1.9858451     0.018860898
       2735.0000       287.64259       98829.288       14165.037       3.5500000      -2.2547500     -0.17625000       340.76200       2.0308659     0.017578813
       2740.0000       287.65826       98831.226       14173.057       3.3665000     -0.75975000      0.83400010       340.85200       2.0344343     0.020090152
       2745.0000       287.64933       98827.369       14158.262       4.5305000     -0.36650000     -0.34350000       340.80200       1.8949705     0.016654496
       2750.0000       287.58891       98829.391       14094.530       4.2817500      -2.4627500      0.47375000       340.93200       1.9890777     0.015988304
       2755.0000       287.59643       98833.467       14110.378       4.2782500      -1.8332500     -0.31475000       340.87700       2.0608376     0.024415060
       2760.0000       287.65561       98830.257       14178.278       3.5610000      -2.2827500      0.29475000       340.97900       1.9153938     0.016878076
       2765.0000       287.65705       98828.101       14204.507       3.7257500      -1.9980000      0.34575000       340.89400       2.0827911     0.021905120
       2771.0000       287.66244       98836.222       14272.305       4.7910000      -2.8025000      0.18500000       340.80200       1.9011297     0.015631186
       2776.0000       287.63033       98840.202       14239.657       3.6252500     -0.77275000     -0.28650000       340.78600       1.9229814     0.017961500
       2781.0000       287.53761       98835.029       14136.789       2.8115000     -0.77250000     -0.76025000       340.95700       2.1060930     0.017876408
       2786.0000       287.53028       98832.075       14104.481       3.0345000      -2.4900000     -0.63925000       340.82500       2.0712431     0.016510915
       2791.0000       287.53857       98835.275       14050.348       3.0827500      -3.5585000     -0.14525000       340.96000       2.0843606     0.016282818
       2796.0000       287.63025       98838.294       14097.621       4.6107500      -3.4470000    -0.090750000       340.72500       1.9581319     0.014930843
       2801.0000       287.66312       98835.310       14103.455       4.3922500      -3.5872500    -0.033750000       340.72800       2.0132281     0.017304314
       2806.0000       287.65523       98832.507       14071.172       5.7252500      -1.5147500      0.35200000       340.79900       2.1128735     0.013520289
       2811.0000       287.65640       98835.565       14060.463       4.8705000      -1.3602500     -0.65125000       340.75200       2.0465528     0.016855722
       2816.0000       287.60005       98835.277       14017.648       2.4477500      -1.7125000      0.36200000       340.84700       2.0314326     0.015486976
       2821.0000       287.58748       98834.030       14017.487       4.4630000      -2.9712500     -0.34700000       340.72000       1.9820128     0.017823092
       2826.0000       287.59949       98835.256       14045.901       3.9057500      -1.9832500    -0.093000000       340.86200       1.9375353     0.017664005
       2831.0000       287.64982       98846.531       14118.771       5.3582500      -4.4082500    -0.025000000       340.88900       2.0890146     0.019481971
       2836.0000       287.67038       98849.188       14158.250       4.4732500      -2.1817500     -0.39025000       340.76500       1.8969594     0.022205473
       2841.0000       287.70633       98845.404       14216.016       3.5947500      -1.3270000      0.20025000       340.86800       1.9607670     0.023167711
       2846.0000       287.67010       98845.745       14193.632       3.4077500      -1.6215000     -0.27950000       340.85200       1.9994958     0.021663928
       2851.0000       287.68700       98845.859       14229.643       4.4922500    -0.073750000     0.051250000       340.87400       2.0147262     0.025483764
       2856.0000       287.76052       98841.843       14323.480       3.0750000     0.030000000      0.17100000       340.94100       2.0420555     0.025004543
       2862.0000       287.80833       98839.521       14401.860       4.5305000      0.78175000     -0.13875000       340.71200       2.0491026     0.015859930
       2867.0000       287.89526       98840.436       14529.048       3.5430000     -0.39000000      0.20750000       340.76600       1.9946299     0.016697821
       2872.0000       287.92086       98840.479       14582.417       3.9775000      -1.7455000     -0.51200000       340.83900       2.0493377     0.026738454
       2877.0000       287.86590       98838.779       14553.626       3.9497500     -0.94850000     -0.32325000       340.74900       2.2110908     0.019100211
       2882.0000       287.84588       98839.893       14552.988       3.3060000      -1.3250000      0.79025010       340.90600       2.1036990     0.015467783
       2887.0000       287.79502       98845.001       14510.576       2.7805000      -1.4545000     -0.24825000       340.83900       2.1875825     0.023605749
       2892.0000       287.78717       98845.847       14509.777       1.6712500     -0.26500000      0.19475000       340.93400       2.1559033     0.032514930
       2897.0000       287.84851       98846.001       14585.080       1.9317500     -0.36425000      0.20275000       340.94100       2.1547692     0.018842848
       2902.0000       287.85703       98845.883       14586.610       2.0052500     -0.57325010      0.19925000       340.98400       2.0699290     0.013304929
       2907.0000       287.85650       98839.926       14555.795       3.5882500     -0.66850000     -0.20200000       340.90500       2.0667389     0.012892919
       2912.0000       287.85541       98839.195       14535.646       3.4462500     -0.50550000      0.13325000       340.98300       2.1400006     0.013315149
       2917.0000       287.80981       98843.611       14448.633       2.8342500     0.078750010      0.18350000       340.94200       2.1591403     0.024004787
       2922.0000       287.79105       98845.604       14414.840       1.7632500     -0.41300000     -0.23650000       340.93600       2.1476990     0.023737392
       2927.0000       287.79993       98850.650       14434.312       3.3060000     -0.79150000     -0.15300000       340.90700       2.1262819     0.014629100
       2932.0000       287.79990       98851.389       14439.803       3.0920000     -0.60425000     0.037000000       340.88600       2.0374583     0.011803906
       2937.0000       287.80037       98845.271       14456.887       2.4950000     -0.64025000      0.28900000       340.96000       2.0689984     0.013708834
       2942.0000       287.80060       98844.296       14471.210       3.8570000     -0.95300010     -0.15925000       340.95000       2.1572234     0.022095916
       2947.0000       287.81446       98844.680       14487.812       4.1560000      -1.1135000    -0.088500000       340.84200       2.1447247     0.015997311
       2953.0000       287.79976       98844.981       14498.624       3.7465000      -1.5780000     -0.36100000       340.70100       2.0590537     0.012395896
       2958.0000       287.76247       98851.066       14511.912       3.7385000     -0.98350010    -0.093750010       340.81900       2.0995406     0.014697415
       2963.0000       287.74230       98851.240       14508.382       3.6780000     -0.82050000     -0.29725000       340.83900       2.0397144     0.016870295
       2968.0000       287.70505       98845.224       14491.608       3.3730000     -0.92075000      0.41200000       340.96800       2.0928770     0.011522029
       2973.0000       287.68852       98844.632       14470.101       2.7160000      -1.1850000      0.32100000       340.92700       2.0310345     0.016665497
       2978.0000       287.68735       98845.818       14423.057       2.8087500     -0.54000000      0.32925000       340.92300       2.0397977     0.015433123
       2983.0000       287.70115       98844.811       14404.470       3.8262500     -0.79750000     -0.14400000       340.85700       2.1165545     0.016850052
       2988.0000       287.73803       98842.072       14397.013       3.2135000      -2.7090000     0.057750000       340.97100       2.0315526     0.016705378
       2993.0000       287.75762       98845.783       14387.750       3.0572500     -0.63650000     -0.25200000       340.88000       2.1477505     0.022004423
       2998.0000       287.80791       98858.775       14409.153       2.2980000     -0.63925000      0.44375000       340.90500       2.1093678     0.020741073
       3003.0000       287.81049       98856.391       14397.244       3.8380000      0.68400000     0.040500000       340.93800       2.0170292     0.018774037
       3008.0000       287.76263       98843.370       14350.677       2.6155000      -2.9645000     -0.49525000       340.95500       2.1163580     0.013146327
       3013.0000       287.74247       98845.043       14333.467       3.9695000      -2.2417500     -0.59350000       340.80400       2.0059233     0.013573534
       3018.0000       287.69278       98848.344       14299.020       4.3120000      -1.6497500     -0.85950010       340.91600       2.0805643     0.011117527
       3023.0000       287.69017       98843.247       14306.610       3.6370000     -0.81975000       1.0052500       340.97500       2.0847843     0.019226717
       3028.0000       287.75174       98841.941       14381.829       3.9862500     -0.63875000     -0.23200000       340.75000       2.0893685     0.019642876
       3033.0000       287.75840       98846.886       14398.928       3.0917500     -0.91250000     -0.18275000       340.93200       2.0348404     0.017587929
       3038.0000       287.74410       98848.198       14393.950       2.8117500      0.13175000     -0.86700000       340.95100       2.0749404     0.019033335
       3044.0000       287.75604       98842.174       14413.316       4.9342500      -1.9347500     -0.13025000       340.86900       2.0704830     0.019260500
       3049.0000       287.73011       98843.446       14390.892       3.1597500      -1.2735000      0.19100000       341.01000       2.1244043     0.013842047
       3054.0000       287.75305       98848.356       14417.015       3.3367500      0.35550000      0.39325000       340.98400       2.1024196     0.012482291
       3059.0000       287.84127       98847.315       14506.874       2.6307500      0.46750000      0.30750000       340.89700       2.1010747     0.014599928
       3064.0000       287.87532       98842.218       14540.665       2.9917500     -0.69175000      0.10350000       341.05300       2.1196412     0.015156633
       3069.0000       287.91094       98843.169       14572.541       3.3277500     -0.43775000      0.26275000       340.81500       2.1601737     0.014463642
       3074.0000       287.90877       98848.142       14571.467       2.4505000      -1.1962500    -0.045250000       340.98400       2.1498758     0.020341466
       3079.0000       287.85757       98846.986       14520.608       2.4442500     -0.54850000      0.21675000       341.10100       2.0831652     0.015860301
       3084.0000       287.83761       98841.949       14503.475       3.1720000     -0.56050000      0.18325000       340.97400       2.1007403     0.013220737
       3089.0000       287.80113       98846.580       14478.842       3.2917500      -1.8817500     -0.16500000       341.04900       2.0469681     0.016177745
       3094.0000       287.78746       98846.684       14465.468       2.6372500     -0.68400000     0.061500000       341.04200       2.0129669     0.014658219
       3099.0000       287.81213       98828.886       14493.182       3.3842500      -1.0825000     -0.31400000       340.87300       2.2180676     0.011234942
       3104.0000       287.79577       98826.066       14460.354       3.4402500     -0.98525010     -0.54175000       340.99600       2.0518603     0.010251595
       3109.0000       287.74778       98839.101       14383.812       2.8780000      -1.1380000     0.027250000       341.05800       2.1034959     0.013018370
       3114.0000       287.74440       98843.628       14346.089       2.5580000      -1.0287500      0.23825000       341.10000       2.1009520     0.013882120
       3119.0000       287.73217       98845.821       14265.993       3.1105000      -1.1337500      0.24675000       340.99500       2.0385445     0.012219659
       3124.0000       287.75431       98846.284       14265.551       2.2742500      0.58125000      0.41075000       341.25800       2.1047740     0.014056710
       3129.0000       287.84135       98844.918       14342.694       1.6240000      0.17775000      0.46275000       341.25200       2.1191660     0.014612281
       3135.0000       287.88005       98846.127       14385.630       2.7942500      -1.5317500      0.35950000       341.14100       2.0281097     0.011008690
       3140.0000       287.90349       98844.495       14449.076       2.3585000     0.081000000      0.27275000       341.15700       2.0205987     0.014768510
       3145.0000       287.91476       98845.405       14479.139       4.1212500     -0.61275010      0.17825000       340.83900       2.0432039     0.012310810
       3150.0000       287.88305       98851.462       14461.998       3.7622500     -0.74150000     -0.18800000       341.03300       2.0647316     0.011474500
       3155.0000       287.92104       98850.744       14519.043       3.0020000    -0.043500000      0.13500000       341.19600       2.0350487     0.012955733
       3160.0000       288.00266       98842.781       14616.063       3.3390000    -0.092000010     -0.59925000       340.86500       2.0661218     0.012473465
       3165.0000       288.02392       98846.349       14670.192       3.8555000     -0.46800000      0.33600000       340.96400       2.1187151     0.015274386
       3170.0000       288.06009       98858.410       14755.699       4.1352500     -0.58450000      0.34500000       340.90700       2.0542842     0.010697588
       3175.0000       288.06244       98853.987       14785.555       4.2122500     -0.38200000    -0.075250010       340.85800       2.0703166     0.012946557
       3180.0000       287.99730       98843.630       14760.384       3.3280000      -1.7232500      0.27350000       341.18300       2.0707372     0.013596843
       3185.0000       287.98609       98846.296       14751.313       2.1502500     -0.57800000      0.81675000       341.19500       2.1047270     0.016208738
       3190.0000       288.00015       98846.066       14737.799       3.1870000     -0.69075010      0.32600000       341.02700       2.0696767     0.012876965
       3195.0000       288.00034       98841.129       14714.736       3.3392500     -0.76575010     0.053000000       341.01300       2.0781120     0.013815976
       3200.0000       288.00021       98844.267       14674.981       3.0122500      -1.2437500     -0.26400000       341.09100       1.8332333     0.020913719
       3205.0000       288.00039       98849.409       14640.983       2.8790000      -1.4012500      0.16900000       341.00500       2.0860687     0.012602239
       3210.0000       288.00037       98846.675       14599.928       3.5980000      0.41275000      0.36300000       340.95300       2.0108457     0.011746336
       3215.0000       288.00042       98841.685       14572.081       3.5467500    -0.075000000     -0.17200000       340.83700       2.0004972     0.010757380
       3220.0000       287.99108       98846.217       14529.726       2.9982500      0.33975000     0.052250000       340.97800       2.0875754     0.010076185
       3226.0000       288.01491       98847.495       14547.950       3.2060000      0.30900000      0.28075000       340.93000       2.0712876     0.011467412
       3231.0000       288.04908       98832.482       14596.418       3.4160000     -0.12850000     -0.22050000       340.79500       2.1070462     0.010855090
       3236.0000       288.06926       98832.107       14631.105       3.2587500     -0.89725010     -0.25800000       340.87200       2.0830916     0.012559275
       3241.0000       288.11785       98846.563       14707.331       3.2417500      0.58650000      0.25125000       340.96400       2.1424388     0.016963555
       3246.0000       288.00916       98844.802       14639.579       2.9122500      0.23175000      0.26750000       341.08700       2.0828989     0.011948137
       3251.0000       287.98600       98844.662       14645.825       3.2675000     -0.16300000     -0.10675000       340.99900       2.1003949     0.011685328
       3256.0000       288.00488       98853.419       14703.466       2.7755000     0.069000010     -0.39775000       341.06700       2.0859310     0.013727941
       3261.0000       287.99401       98852.918       14718.469       2.6922500     -0.51000010     -0.10775000       340.94900       2.0950155     0.012988896
       3266.0000       288.06966       98833.811       14814.313       1.8762500      0.31075000     -0.10225000       341.14700       1.9726554     0.017675150
       3271.0000       288.07464       98832.188       14819.231       2.4225000      -1.7892500     -0.61200000       340.95600       2.1088005     0.013186083
       3276.0000       288.03041       98836.704       14760.392       1.7010000     -0.87625000     -0.34850000       341.23600       2.0646104     0.011116357
       3281.0000       287.89517       98846.307       14597.030       2.9157500      -1.3240000      0.18725000       341.08200       2.1241873     0.012528120
       3286.0000       287.84587       98843.086       14521.613       3.4192500     -0.99675010     -0.38600000       340.89900       2.1327396     0.012692718
       3291.0000       287.78852       98848.240       14424.757       3.1407500      0.20100000      0.58250000       341.17800       2.1365058     0.018076711
       3296.0000       287.77024       98820.459       14352.990       4.3262500     -0.58900000     -0.15700000       340.95100       2.0852726     0.015073710
       3301.0000       287.78726       98813.981       14327.650       3.7470000      -1.5492500     -0.17325000       340.88500       2.1044727     0.013254265
       3306.0000       287.86033       98835.487       14328.090       4.5025000      -1.0495000     -0.36275000       340.82000       2.0958962     0.013976255
       3311.0000       287.89989       98845.442       14332.032       4.0820000     0.019750000      0.16625000       340.86700       2.0327462     0.016282972
       3317.0000       287.98123       98870.028       14417.720       2.7765000     -0.58900000      0.28900000       340.99900       2.1369235     0.016995120
       3322.0000       288.01850       98875.923       14458.071       3.6160000      -1.5745000     -0.34575000       340.83600       2.0755697     0.014893141
       3327.0000       287.99981       98858.657       14467.050       3.5552500      -1.1620000     -0.11975000       341.04900       2.1343899     0.019149960
       3332.0000       287.99972       98853.764       14485.180       3.0365000     -0.91225000    -0.032500000       341.10000       2.1122813     0.012067974
       3337.0000       287.98570       98843.607       14468.520       2.9285000     -0.95475010     0.068250000       341.00300       2.2104468     0.019428439
       3342.0000       287.99676       98842.114       14505.316       3.1125000     -0.31000000      0.21225000       341.06600       2.0055241     0.013578974
       3347.0000       288.04866       98863.304       14599.936       3.0170000      -1.1250000      0.38050000       340.99700       2.0831584     0.010171388
       3352.0000       288.05733       98863.483       14654.689       1.9795000      0.17100000      0.48550000       341.16300       2.0837855     0.010637593
       3357.0000       288.05614       98844.339       14750.760       2.4045000     -0.88675000      0.27875000       341.28600       2.1152865     0.012887597
       3362.0000       288.05493       98843.765       14791.201       1.6707500      0.13375000      0.77925000       341.26400       2.0956001     0.012078286
       3367.0000       288.02470       98849.324       14780.915       3.4865000     -0.59675000      0.42600000       340.96100       2.1612405     0.013148795
       3372.0000       287.99477       98844.396       14751.977       2.3867500     -0.82925000     0.033000000       340.92300       2.0574389     0.011583564
       3377.0000       287.96653       98841.380       14676.118       2.1850000     -0.36850000     -0.30925000       340.88500       2.0327739     0.012094162
       3382.0000       287.94669       98846.573       14618.825       2.3690000     -0.32875000     -0.30825000       340.98300       2.0885334     0.012207442
       3387.0000       287.90924       98846.600       14542.931       2.8120000     -0.29000000      0.34700000       341.13900       2.0215940     0.010928532
       3392.0000       287.88996       98843.839       14475.320       2.2687500    -0.047250000      0.15775000       341.12000       2.0937660     0.010541701
       3397.0000       287.90002       98853.785       14413.406       2.2637500     0.019500000     0.045000000       341.02400       1.9851255     0.012512751
       3403.0000       287.90007       98858.529       14356.114       3.2060000     -0.18850000    -0.082250010       341.03800       2.0832965     0.010581320
       3408.0000       287.88694       98845.535       14283.733       2.5002500     -0.41050000     -0.12875000       340.88000       2.1017629     0.013214390
       3413.0000       287.90104       98842.697       14275.179       2.0245000     0.089250010      0.23325000       340.99900       2.0486757    0.0098648982
       3418.0000       287.93810       98853.555       14319.450       1.4127500     -0.38900000      0.17125000       341.09200       2.0499506     0.014531363
       3423.0000       287.95816       98851.026       14355.673       1.8122500    -0.046000000     -0.19050000       341.26700       2.0782470     0.011263421
       3428.0000       288.00796       98832.184       14455.077       1.5842500     -0.48775000     -0.15275000       341.15800       2.0722247     0.014146676
       3433.0000       288.01060       98832.943       14491.054       1.6935000     -0.29575000     0.027250000       341.27100       2.0565034    0.0096519662
       3438.0000       287.94919       98848.656       14471.474       1.8177500     -0.81650010     -0.32175000       341.10700       2.0912219     0.011579280
       3443.0000       287.94326       98845.546       14495.600       1.9080000     -0.36375000      0.22250000       341.20200       2.0941127     0.012363059
       3448.0000       287.94302       98839.869       14520.949       2.0935000     -0.19525000      0.70375000       341.40000       1.9761005     0.013914275
       3453.0000       287.94657       98841.520       14537.176       2.7580000     -0.36900000     -0.15050000       341.03900       2.0260041     0.011556727
       3458.0000       287.99567       98828.337       14589.087       1.1107500     -0.73275010     0.054000000       341.32900       2.0311955     0.011878472
       3463.0000       288.01216       98826.738       14604.811       3.3355000     -0.66825000     -0.50025000       341.06900       1.8981720     0.015802399
       3468.0000       287.98767       98849.493       14565.429       2.4830000     -0.65475000      0.59175000       341.26800       2.0727147     0.014135311
       3473.0000       288.00173       98854.736       14566.770       2.2410000     -0.63625000      0.15650000       341.09700       2.0931673     0.015497531
       3478.0000       288.02604       98842.422       14583.001       3.7577500     -0.11500000      0.14925000       340.91900       2.0550859     0.013682361
       3483.0000       288.05991       98844.432       14595.428       2.7022500     -0.43875000     0.063000000       341.05000       2.0402372     0.010499619
       3488.0000       288.14620       98858.776       14640.707       3.2612500     -0.51625000      0.62400000       341.05000       2.0489503     0.011061932
       3494.0000       288.17000       98855.280       14637.545       2.7632500   -0.0022500000      0.63675000       341.16900       2.0748336     0.011113162
       3499.0000       288.15842       98843.519       14597.722       2.4090000     -0.41675000     -0.31400000       341.08800       2.0647994     0.010242933
       3504.0000       288.15186       98845.695       14580.855       3.9215000      -2.3162500     -0.29700000       341.09200       2.0661580     0.013300360
       3509.0000       288.08984       98843.919       14533.151       2.8092500     -0.21875000     0.086250010       341.26200       2.0771189     0.013478705
       3514.0000       288.09232       98843.707       14533.734       3.3650000      -1.1522500      0.33975000       341.18700       2.0766379     0.012198200
       3519.0000       288.14307       98862.617       14583.442       2.6040000     -0.31250000     -0.37350000       341.13100       2.0637926     0.014081345
       3524.0000       288.16330       98863.905       14598.546       3.3452500      -1.0300000   -0.0030000000       341.04500       2.1049872     0.013482771
       3529.0000       288.19930       98842.893       14612.628       3.4852500      -1.0945000     -0.49300000       340.90800       2.1541991     0.015072172
       3534.0000       288.21272       98843.081       14631.019       2.4960000      -1.2400000     0.079500000       341.07000       2.1648996     0.015202590
       3539.0000       288.18889       98858.691       14619.821       2.1892500      -1.5940000     0.084750000       341.05200       2.0587449     0.010937024
       3544.0000       288.20502       98855.326       14658.851       2.8720000     -0.13000000    -0.087500010       341.33200       2.0846608     0.010096520
       3549.0000       288.25220       98843.544       14760.941       3.7402500     -0.41225000     -0.18825000       340.87200       2.0800850     0.015218049
       3554.0000       288.25566       98845.787       14788.105       2.0087500     -0.87025000     -0.15775000       341.17000       2.0489941     0.010627057
       3559.0000       288.24628       98844.133       14800.924       1.9622500     0.048750000    -0.074750010       341.26400       2.0973034     0.011964108
       3564.0000       288.25669       98843.966       14815.136       2.7972500     -0.45900000     -0.28350000       341.14800       2.1328043     0.010969544
       3569.0000       288.23188       98862.502       14773.917       3.0132500      -1.6530000    -0.019750000       341.06800       2.0852565     0.013381474
       3574.0000       288.25396       98863.834       14776.353       3.9845000     -0.89825000     -0.18625000       341.12800       2.0536472     0.013884737
       3579.0000       288.35264       98842.841       14837.145       3.8960000      -1.6597500     0.076500010       341.06600       2.0647673     0.011264303
       3585.0000       288.37052       98843.729       14828.038       2.7450000      -1.4362500      0.18550000       340.93900       2.0597614     0.012452111
       3590.0000       288.35805       98858.266       14785.717       3.5170000     -0.91050000     0.036500000       341.08100       2.0247931     0.015401904
       3595.0000       288.34896       98853.695       14766.070       2.9780000     -0.59200000    -0.032250000       341.34100       2.0523302     0.011900903
       3600.0000       288.28835       98843.713       14714.203       2.7557500     -0.79000000     -0.42625000       341.18500       2.1004386     0.013252538
       3605.0000       288.29583       98846.552       14715.521       2.7532500     -0.20650000      0.34700000       341.06600       2.0741866     0.011061692
       3610.0000       288.35611       98841.883       14771.814       3.1392500     -0.20175000      0.17550000       341.07400       2.0895196     0.011418871
       3615.0000       288.35751       98846.176       14765.543       2.3475000     -0.52875000      0.22350000       341.40000       2.0392916     0.012265906
       3620.0000       288.34824       98876.267       14746.974       1.6615000      0.11625000      0.22425000       341.33100       2.1061463     0.011158304
       3625.0000       288.35813       98872.435       14734.701       2.4712500     -0.35850000      0.33925000       341.40000       2.0738397    0.0097398003
       3630.0000       288.32508       98842.841       14674.227       2.4240000   -0.0052500000     -0.32100000       341.22300       2.0698857     0.011993383
       3635.0000       288.37068       98842.159       14691.489       2.3957500     -0.64725010     -0.17275000       340.94000       2.0751639     0.011871085
       3640.0000       288.49285       98844.018       14750.789       2.0677500     -0.16925000    -0.038250000       341.18500       1.9289787     0.014158793
       3645.0000       288.54423       98842.790       14810.539       1.9245000     -0.71925000      0.17500000       341.56800       2.2219362     0.018140530
       3650.0000       288.60489       98856.832       14917.959       2.1852500     0.086250010     -0.12450000       341.20500       2.0799388     0.012272089
       3655.0000       288.62763       98858.345       14968.501       2.5995000     -0.39275000     -0.10275000       341.13600       2.0459778     0.011760282
       3660.0000       288.58209       98842.157       14999.562       2.0565000     -0.56125000    -0.040750000       341.21600       2.0342242     0.013118769
       3665.0000       288.61937       98844.457       15042.462       2.4240000     0.061000000    -0.046500000       341.33500       2.0692567     0.012807164
       3670.0000       288.69258       98864.276       15074.439       2.1632500     -0.40000000    -0.063750010       341.38500       2.1250963     0.016225115
       3676.0000       288.74035       98858.309       15093.765       2.3622500      0.44525000     -0.20825000       341.27200       2.0788319     0.015114785
       3681.0000       288.81252       98844.939       15122.774       2.8880000       1.0575000    0.0095000010       341.44900       2.0559374     0.013446526
       3686.0000       288.82957       98842.955       15106.209       2.1650000     -0.18800000     -0.44800000       341.23800       2.0322242     0.015539215
       3691.0000       288.80023       98832.574       15046.972       1.2950000      0.42975000       1.0887500       341.62300       2.0771519     0.012620265
       3696.0000       288.77057       98850.205       14999.701       2.5952500    -0.097500000      0.16800000       341.45300       2.0757839     0.012353287
       3701.0000       288.78786       98854.001       14972.855       3.1535000      0.46975000      0.32600000       341.88000       2.0673341     0.013373500
       3706.0000       288.86040       98833.736       14972.926       3.4197500      0.11550000      0.42075000       341.72800       2.0798114     0.015269372
       3711.0000       288.89998       98832.212       14958.061       2.7362500     -0.56325000    -0.078500000       341.47100       2.0209101     0.015917831
       3716.0000       289.03026       98844.277       14961.501       2.2410000    -0.047500000      0.41850000       341.76000       2.1746450     0.014138499
       3721.0000       289.03808       98845.249       14940.717       3.6052500     -0.20850000     0.041500000       341.56100       2.0840987     0.015105419
       3726.0000       288.97204       98846.207       14903.852       3.0065000     -0.32725000     0.069750000       341.88600       2.1082535     0.011133754
       3731.0000       288.79726       98858.724       14845.438       2.2167500     -0.94075010      0.14275000       342.16400       2.0505550     0.013937781
       3736.0000       288.73771       98856.977       14788.294       3.5717500     -0.92950000   -0.0067500000       341.92300       2.0518445     0.011221329
       3741.0000       288.62652       98836.703       14718.046       2.5790000     -0.70150010     0.024750000       342.08500       2.0819261     0.016304715
       3746.0000       288.66989       98853.884       14627.514       2.3927500     0.080250000     -0.12950000       342.26900       1.9873407     0.013920577
       3751.0000       288.69981       98857.412       14568.606       2.3422500       1.1820000      0.47400000       342.45500       2.1804841     0.016872169
       3756.0000       288.70047       98856.698       14490.126       2.6412500     -0.55250000     -0.19050000       342.40400       1.9571942     0.019254881
       3761.0000       288.73783       98856.997       14473.981       2.7327500      0.36250000      0.96650000       342.38500       2.0329023     0.012863514
       3767.0000       288.87159       98838.776       14560.988       3.9580000     0.071000000      0.21900000       341.52300       2.0718139     0.011330937
       3772.0000       288.91876       98836.620       14599.570       3.9742500    -0.050250000     -0.18675000       341.44000       2.0311640     0.014395466
       3777.0000       288.93179       98857.552       14644.875       4.0912500      -1.1080000      0.37900000       341.61400       2.0405104     0.015313997
       3782.0000       288.96085       98857.927       14707.595       3.2370000      0.57000010      0.56475000       342.07400       2.0418857     0.015340305
       3787.0000       288.91650       98845.856       14722.825       3.6775000      0.62850000      0.24600000       341.76100       1.9943783     0.014578852
       3792.0000       288.94017       98844.794       14800.562       4.5017500      -1.1702500      -1.3507500       341.82100       2.1794546     0.019659512
       3797.0000       289.05925       98832.367       14995.163       4.2585000     -0.66850000      0.26575000       341.81900       1.9836928     0.015371688
       3802.0000       289.11742       98831.337       15101.397       3.8022500    -0.031500000      0.61000000       341.65200       1.9703265     0.015842960
       3807.0000       289.18016       98861.314       15208.368       2.8865000      -1.0592500     -0.14125000       342.57700       1.9923362     0.014501200
       3812.0000       289.21730       98865.326       15268.839       2.0635000      -2.2832500     -0.10825000       341.69400       1.8883492     0.014075579
       3817.0000       289.18514       98844.443       15230.022       3.8337500      -2.8760000      0.39200000       341.61600       2.0287506     0.012301326
       3822.0000       289.19630       98843.832       15230.633       2.9105000      -1.4160000     -0.16125000       342.20900       2.0891416     0.015944830
       3827.0000       289.20573       98842.314       15221.992       3.9987500      -2.0062500      0.28725000       341.96000       2.0240983     0.017184019
       3832.0000       289.24835       98842.870       15230.198       4.0347500      -2.0007500      0.51800000       342.18500       1.9659152     0.017752166
       3837.0000       289.35955       98872.654       15251.587       3.6595000     -0.69775000      0.53025000       342.39900       1.9901868     0.015475831
       3842.0000       289.41897       98876.695       15284.264       2.6650000     -0.83475010     -0.55800000       342.27100       1.8947230     0.014187935
       3847.0000       289.45271       98846.040       15322.791       5.9552500      -3.1360000     -0.67050000       341.62500       2.0542189     0.014330409
       3852.0000       289.51243       98841.686       15380.685       4.9942500      -1.4297500     -0.39125000       341.30600       1.9067386     0.012905284
       3858.0000       289.57398       98841.476       15494.610       5.4497500      -1.5355000      0.14550000       341.28500       1.8528969     0.011642948
       3863.0000       289.61385       98843.514       15561.320       4.6027500      -1.5352500     -0.32375000       341.39800       1.9002281     0.018989866
       3868.0000       289.75302       98873.984       15660.838       4.5095000      -1.6425000    -0.030250000       341.82100       1.9265759     0.013108213
       3873.0000       289.71611       98875.222       15684.500       3.6505000      -2.1915000     -0.37900000       341.77000       2.0103545     0.012829420
       3878.0000       289.50604       98844.378       15660.698       2.2010000      -1.7300000     -0.10550000       342.48500       2.0206888     0.013978762
       3883.0000       289.40545       98841.113       15607.311       5.1885000      -1.8155000     -0.57500000       341.47100       1.8856212     0.014023461
       3888.0000       289.21083       98844.411       15480.358       3.7602500     -0.84150000     -0.16325000       341.84500       1.9686745     0.014108789
       3893.0000       289.14445       98843.586       15384.383       5.0595000      -1.5990000    -0.053000000       341.34400       2.0032424     0.014263660
       3898.0000       289.22510       98863.974       15252.714       4.6012500      -1.5305000     -0.15300000       341.27100       1.9625910     0.013136833
       3903.0000       289.25863       98864.002       15171.254       3.6165000     -0.36625000     -0.67500000       341.91900       2.0021720     0.014628646
       3908.0000       289.33189       98833.489       15118.584       5.2175000      -1.6682500      0.35525000       341.68900       1.9963861     0.015039742
       3913.0000       289.36801       98831.174       15068.862       4.6572500      0.36300000    -0.096500000       342.44100       2.0393513     0.012844954
       3918.0000       289.38202       98840.933       15041.393       3.8145000     -0.48300000     0.055750000       341.82100       2.0564813     0.014088951
       3923.0000       289.41246       98846.083       15025.337       4.1210000    -0.037750000     0.076250000       341.86100       1.9112694     0.014874786
       3928.0000       289.46436       98874.234       15027.559       3.0837500    -0.051250000    -0.052250000       342.41100       1.9859470     0.010190429
       3933.0000       289.45731       98875.687       15017.591       2.7932500      -1.3082500     0.022000000       342.56800       2.0524969     0.010634438
       3938.0000       289.39305       98844.856       14998.712       2.1980000     -0.20400000      0.50075000       342.86800       2.0173779     0.012217741
       3943.0000       289.39686       98841.808       15017.684       1.6747500     -0.56550000    -0.035750000       342.31300       2.0254276     0.011589867
       3949.0000       289.39584       98843.653       15061.968       2.4575000     -0.86250000     -0.43425000       342.40800       1.9965795     0.013159293
       3954.0000       289.39261       98843.642       15085.948       3.3327500      -2.2622500      0.71700000       342.37900       1.8840703     0.019156837
       3959.0000       289.45639       98864.560       15157.501       2.5000000      -1.1655000     -0.47775000       341.58600       1.9538464     0.012514786
       3964.0000       289.46421       98862.539       15165.615       1.6740000     -0.68925010     -0.17650000       342.03600       1.9176680     0.013207202
       3969.0000       289.38881       98831.875       15107.687       2.5855000     -0.14125000      0.40350000       342.33100       1.9579034     0.013890573
       3974.0000       289.39093       98831.120       15092.640       2.6195000      0.13175000      0.15900000       342.26000       2.0288906     0.011432919
       3979.0000       289.40846       98843.780       15053.479       2.0627500     -0.70600000     -0.25075000       342.35100       2.0438245     0.013400197
       3984.0000       289.47672       98846.407       15075.043       3.3300000      -1.0167500     -0.38125000       342.23600       2.0493037     0.011204389
       3989.0000       289.63638       98864.767       15155.516       2.6107500      -1.3812500      0.23300000       342.22900       1.9830122     0.011693536
       3994.0000       289.69381       98862.826       15193.706       2.5600000      -1.1097500    -0.012500000       341.32200       2.0397133     0.013212006
       3999.0000       289.75609       98832.325       15254.530       2.4240000      -1.4340000     -0.17225000       342.23200       2.0218364     0.012365994
       4004.0000       289.77670       98831.763       15288.331       2.9497500     -0.32025000      0.31425000       342.30600       2.1474182     0.013197977
       4009.0000       289.70146       98843.660       15282.028       3.5160000     -0.14125000      0.24775000       342.18200       2.0101453     0.012555957
       4014.0000       289.68766       98846.196       15299.907       3.6385000    -0.058000000     -0.48725000       341.16000       1.9882772     0.011443553
       4019.0000       289.72258       98864.749       15355.830       3.9205000     -0.33900000     0.064000000       341.89600       1.9975256     0.013628357
       4024.0000       289.69050       98862.897       15340.439       4.8552500     -0.32200000      0.28350000       341.77900       2.0148397     0.013881553
       4029.0000       289.60481       98832.316       15282.264       4.9875000      -1.2577500    -0.051000000       341.58400       1.8995019     0.012672644
       4035.0000       289.57813       98832.687       15233.289       4.4582500     -0.54975000    -0.020250000       341.79600       1.8859340     0.016581486
       4040.0000       289.53006       98842.114       15132.417       3.8775000       1.3735000     -0.24300000       341.82400       2.0233996     0.012801376
       4045.0000       289.54724       98848.948       15117.008       4.0132500      0.94375000     -0.23025000       341.26100       2.0409245     0.011691269
       4050.0000       289.67454       98876.073       15150.544       3.1175000     -0.60900000     -0.25975000       341.85400       1.9807834     0.011819652
       4055.0000       289.64904       98872.311       15169.762       3.4175000      -1.0230000     -0.39050000       342.03900       1.9865870     0.012528745
       4060.0000       289.56214       98844.081       15241.144       3.4485000     -0.63025000       1.1737500       342.21100       1.8862295     0.020524703
       4065.0000       289.51332       98839.662       15217.674       4.0515000      -2.8230000     -0.32450000       341.53000       1.9454158     0.014522300
       4070.0000       289.40856       98830.104       15159.179       2.9695000     -0.86100010     -0.36675000       341.93800       1.8629917     0.013386785
       4075.0000       289.33806       98836.187       15087.088       3.4455000     -0.24675000     0.045250000       342.25800       1.9119033     0.011555753
       4080.0000       289.31708       98867.696       14963.684       3.4342500     -0.84150000      0.16550000       342.03300       2.0238254     0.011289677
       4085.0000       289.25878       98871.509       14848.038       3.2527500      -1.0145000     0.022250000       341.89900       2.0409507     0.013979887
       4090.0000       289.14945       98868.595       14707.707       3.1647500     -0.46400000     -0.11975000       341.58300       2.0292168     0.013592229
       4095.0000       289.10705       98864.002       14624.622       2.7437500     -0.95975010     -0.26850000       341.78100       1.9650411     0.013206181
       4100.0000       289.09726       98842.220       14533.224       2.6550000     -0.26025000     0.014750000       342.48500       2.0265307     0.013570655
       4105.0000       289.08574       98842.445       14491.310       2.0760000      -2.0000000     -0.22375000       342.30900       1.9834535     0.011883791
       4110.0000       289.09083       98856.657       14510.752       1.9287500     -0.64500000     0.051250000       342.64300       1.9983148     0.010768637
       4115.0000       289.10932       98855.960       14518.826       1.5822500     -0.64550000      0.18975000       342.57300       1.9181438     0.017186045
       4120.0000       289.16422       98859.461       14542.107       2.2302500    -0.034250000      0.24325000       342.36600       2.0047262     0.011829513
       4126.0000       289.14050       98851.306       14559.185       3.0457500      -1.9777500     -0.13450000       341.78000       1.9467903     0.015219404
       4131.0000       289.10105       98825.287       14586.815       1.9997500      -1.5027500      0.17675000       342.16400       1.9147856     0.013249880
       4136.0000       289.09064       98829.506       14612.955       3.0392500      -1.1375000     -0.44350000       342.10000       2.0364071     0.010055555
       4141.0000       289.04482       98845.425       14637.497       2.7062500      -1.5420000     0.046250000       341.67300       1.9650936     0.010839320
       4146.0000       289.05448       98861.208       14645.476       2.4622500      -2.8470000      0.51000010       341.87100       1.9516448     0.012456316
       4151.0000       289.05574       98865.319       14646.615       2.7060000      -1.3467500    -0.024750000       341.66400       1.9181948     0.012410041
       4156.0000       289.01487       98836.739       14604.935       3.8005000      -2.3932500    -0.033000000       341.91600       1.8585338     0.035725136
       4161.0000       288.99402       98831.068       14582.533       5.3047500      -2.6407500     -0.45025000       341.58600       1.9724987     0.012251768
       4166.0000       289.00012       98839.847       14572.699       4.6107500     -0.72250000      0.59850000       341.73700       1.8791868     0.014425932
       4171.0000       289.00012       98843.417       14564.241       2.8515000      -2.4230000     -0.44725000       341.64200       1.9927586     0.013464891
       4176.0000       289.00012       98850.668       14559.849       1.6017500     -0.35350000       1.3782500       342.47100       1.9440864     0.018232202
       4181.0000       288.99380       98875.529       14553.281       2.9652500      -1.6055000  -0.00025000000       341.68400       1.9736811     0.013510499
       4186.0000       289.01552       98873.425       14582.187       4.5742500      -1.5477500     0.029500000       341.35900       2.0080168     0.021307595
       4191.0000       289.04393       98854.678       14621.746       3.7717500     -0.90250000     -0.62250000       341.64100       1.9203500     0.016473655
       4196.0000       289.11526       98843.401       14713.956       3.8360000      -1.5357500     -0.25625000       341.55000       1.8278337     0.016810068
       4201.0000       289.15699       98841.548       14780.277       4.8340000      -2.2970000      0.31500000       341.64500       1.8959178     0.021432732
       4206.0000       289.18528       98859.437       14843.839       4.9822500      -1.4507500     -0.10450000       341.80700       1.9442286     0.019179007
       4211.0000       289.20632       98866.649       14893.408       2.7382500      -1.8420000       1.1577500       341.95600       1.9644473     0.012291359
       4217.0000       289.18518       98878.418       14904.948       3.2245000      -1.4755000     -0.31375000       341.85400       1.9965231     0.012920549
       4222.0000       289.19644       98878.525       14944.044       4.6175000     -0.59775000     -0.26325000       341.62400       1.9826127     0.011389522
       4227.0000       289.24798       98856.836       15009.829       4.1265000      -2.3337500     -0.81800000       341.69200       1.9631397     0.012299544
       4232.0000       289.25666       98852.342       15050.715       3.6115000      -2.4100000     -0.50250000       341.66100       1.9710906     0.013098704
       4237.0000       289.28388       98853.447       15123.997       3.5047500      -1.8002500      0.46250000       341.93200       1.9634813     0.011998718
       4242.0000       289.26027       98853.808       15145.429       2.6097500      -1.2337500      0.91650000       341.95400       1.9638254     0.015266100
       4247.0000       289.12664       98871.766       15095.752       4.4905000      -2.7887500     -0.74150000       341.18000       1.9235743     0.016155076
       4252.0000       289.07965       98873.921       15078.419       3.2437500      -3.0650000     -0.60350000       341.30400       2.0085064     0.013429130
       4257.0000       289.05389       98858.784       15047.307       3.3670000      -1.9807500      0.31175000       341.67800       2.0149122     0.013058905
       4262.0000       289.03654       98853.985       15027.930       3.0552500      -1.3687500      0.31500000       341.69100       2.0074840     0.013458429
       4267.0000       289.11981       98842.097       15067.056       3.8167500      -3.1475000      -1.0305000       341.55400       1.9759209     0.012258541
       4272.0000       289.11584       98841.875       15037.469       2.0160000      -2.5357500      0.96975000       341.72900       2.0087066     0.013335699
       4277.0000       289.03210       98860.659       14956.378       3.3205000      -1.1997500     -0.24725000       342.01300       1.9192795     0.011483979
       4282.0000       288.99194       98867.400       14892.579       3.4780000     0.030750000     -0.16975000       341.91700       1.9920589     0.015180828
       4287.0000       288.90526       98878.156       14777.383       5.0457500     -0.29550000      0.17125000       341.68900       2.0906825    0.0098802528
       4292.0000       288.87820       98878.519       14703.242       3.3105000     -0.25125000      0.18700000       341.58900       2.0368766     0.011369456
       4297.0000       288.93409       98856.795       14647.769       3.3565000     -0.14100000      0.18350000       341.81100       2.0396734     0.014116750
       4302.0000       288.95388       98852.350       14623.509       3.8210000     -0.47775000     0.068750000       341.53200       1.9985504     0.013041219
       4308.0000       288.99569       98851.726       14624.112       3.1677500    -0.095500010     -0.41675000       341.73000       1.9560096     0.011510867
       4313.0000       289.01188       98854.368       14649.100       4.6710000     -0.77025000     0.067250010       341.48000       2.0120372     0.012134188
       4318.0000       289.01233       98877.587       14718.288       4.0162500     0.067500000    -0.094500010       341.73000       1.9308779     0.012748026
       4323.0000       288.99821       98878.924       14780.203       3.3272500     0.035500000      0.16625000       341.66600       1.9595415     0.012463865
       4328.0000       288.96092       98864.154       14876.586       3.7320000      -1.4517500    -0.023250000       341.52500       1.9846201     0.012023085
       4333.0000       288.94064       98857.701       14928.368       3.9507500     -0.16125000      0.36400000       341.65900       2.0150198     0.012652664
       4338.0000       288.90495       98837.068       14984.251       2.1765000     -0.56075000      0.52350000       342.05800       1.9781505     0.013648158
       4343.0000       288.88898       98836.149       14992.263       4.2150000      0.66375010      0.51225000       341.63800       1.9315723     0.014744221
       4348.0000       288.90012       98856.935       14938.347       3.6717500     -0.78225000     -0.62100010       341.83100       2.0106861     0.011565444
       4353.0000       288.90024       98863.583       14907.666       3.5792500      -1.0892500   -0.0052500000       341.68600       1.8658176     0.015992010
       4358.0000       288.91336       98878.588       14871.059       2.9887500     -0.18900000      0.41200000       341.76000       1.9360148     0.011636769
       4363.0000       288.89931       98878.877       14812.643       3.4422500      -1.0432500     0.061500000       341.76900       1.9937620     0.011732585
       4368.0000       288.84917       98858.177       14729.260       3.9420000     -0.42925000      0.32675000       341.46500       2.0124143     0.012135770
       4373.0000       288.84289       98851.895       14679.850       2.6087500     0.024750000      0.12900000       341.83100       1.9968503     0.011969127
       4378.0000       288.85661       98841.706       14626.586       2.7255000      0.84175000      0.35350000       341.60100       1.9416190     0.013528512
       4383.0000       288.84672       98842.795       14577.433       3.1212500      -1.0742500      0.34575000       341.71400       1.9646928     0.010541359
       4388.0000       288.85723       98862.731       14563.883       3.5775000      0.22375000    -0.077500000       341.92700       2.0336081     0.010364248
       4393.0000       288.85358       98869.013       14533.244       4.0815000      -1.1170000      0.29975000       341.62600       1.9454294     0.012598005
       4399.0000       288.80065       98879.378       14459.840       5.8840000     -0.19175000     -0.77700000       341.38600       2.0287181     0.011478945
       4404.0000       288.78704       98876.428       14436.865       4.8685000     -0.74450000      0.70500000       341.65100       1.9280236     0.013847024
       4409.0000       288.81134       98854.520       14447.291       4.6245000      -2.2830000     -0.15975000       341.53200       1.8217878     0.013848235
       4414.0000       288.79511       98852.097       14434.542       4.9327500      0.59775000      0.46425000       341.50800       1.8110591     0.012366070
       4419.0000       288.75778       98852.345       14423.198       4.9085000      -3.1805000      0.41750000       341.39200       1.8539656     0.010630819
       4424.0000       288.73791       98855.864       14419.972       3.6705000     -0.94350000     -0.61225000       341.31500       1.8705940     0.014047953
       4429.0000       288.71187       98875.305       14405.007       6.1982500      -1.2677500     -0.28475000       341.36700       1.8051561     0.013799553
       4434.0000       288.68224       98879.671       14406.736       3.9305000      -1.2050000      0.75350000       341.54200       1.8498755     0.012067832
       4439.0000       288.65806       98881.615       14447.700       3.0695000      0.23675000       1.0067500       341.54500       1.8600940     0.012623879
       4444.0000       288.63810       98872.949       14436.538       4.9190000      -1.4035000    -0.044750000       341.45900       1.8774670     0.011646701
       4449.0000       288.61271       98846.343       14412.882       5.3835000      -1.2110000     -0.32650000       341.26200       1.7973707     0.011055065
       4454.0000       288.58269       98839.808       14365.963       5.0952500      -1.1682500     -0.10725000       341.17100       1.9100233     0.010048058
       4459.0000       288.55813       98830.304       14266.108       4.7430000      -3.3295000      0.45450000       341.40300       1.8643527     0.011454375
       4464.0000       288.53816       98834.358       14212.352       7.0617500      -2.3887500     -0.10875000       341.28800       1.8806475     0.011276435
       4469.0000       288.51262       98864.154       14193.002       6.0152500      -1.9787500     -0.16400000       341.17300       1.9752620     0.012070725
       4474.0000       288.48287       98872.785       14111.538       4.7787500     -0.91700010      0.33625000       341.41300       1.8389409     0.016726176
       4479.0000       288.46930       98881.373       14012.470       3.6710000      -1.6762500      0.33350000       341.36700       1.9789587     0.012736340
       4484.0000       288.43340       98875.382       13917.453       3.6692500      -1.5502500      0.31600000       341.46200       1.9390654     0.010440727
       4490.0000       288.34232       98845.524       13715.559       2.7262500      -1.5077500      0.17450000       341.51800       2.0644353     0.011972072
       4495.0000       288.33012       98838.135       13672.279       2.7237500      -2.2532500     -0.75650010       341.48300       1.8474839     0.016109840
       4500.0000       288.35201       98828.193       13706.254       2.3782500      -1.2270000      0.60425000       341.61200       1.9423412     0.018140196
       4505.0000       288.34189       98826.582       13710.125       5.2245000     0.040750000      0.24475000       341.50300       1.9050618     0.012624965
       4510.0000       288.36537       98837.342       13766.580       5.0407500  -0.00025000000      0.15225000       341.14200       1.7342604     0.016473014
       4515.0000       288.33805       98847.073       13785.958       3.5082500      -1.2610000     -0.17150000       341.33700       1.8391953     0.012915494
       4520.0000       288.23289       98862.389       13755.785       5.4755000      -1.2577500     0.064000000       341.32100       1.9229936     0.011502621
       4525.0000       288.23920       98862.896       13810.906       3.8252500      -1.3312500     0.096000000       341.34600       1.9745367     0.011281257
       4530.0000       288.29810       98863.073       13930.816       4.6570000      -1.2967500       1.0360000       341.36000       1.9497855     0.014329710
       4535.0000       288.30798       98859.643       13973.998       3.8735000      -1.4577500     -0.26200000       341.18500       1.9087311     0.012396066
       4540.0000       288.36106       98836.272       14041.999       5.5842500      -1.3322500     -0.30975000       341.16200       2.0005240     0.012527089
       4545.0000       288.36327       98837.504       14048.680       3.2860000      -1.3485000     0.028250000       341.27200       2.1040454     0.012469884
       4550.0000       288.28861       98853.232       13960.205       2.9232500      -1.6295000      0.40250000       341.31100       1.9174161     0.011290839
       4555.0000       288.29614       98861.176       13964.166       3.1860000     -0.47500000     -0.57050000       341.29100       2.0368825     0.011230193
       4560.0000       288.34700       98878.518       13993.883       4.9932500     -0.22825000      0.51450000       341.27400       1.9827161     0.013724578
       4565.0000       288.36686       98878.303       14021.558       6.5167500      -1.5795000    -0.033250000       341.08500       2.0193288     0.013141651
       4570.0000       288.41218       98867.736       14092.899       4.1222500      -2.5457500      0.90250000       341.18000       1.8333653     0.013765474
       4575.0000       288.40483       98861.059       14106.568       5.0912500      -1.9630000     -0.30275000       341.10900       1.6860344     0.021037474
       4581.0000       288.34363       98842.679       14084.161       2.9232500      -1.6440000      0.25825000       341.33500       1.7676803     0.010814069
       4586.0000       288.34470       98840.192       14105.135       2.9705000      0.51800000      0.10050000       341.38500       2.0437652     0.010585204
       4591.0000       288.34362       98843.027       14120.381       6.1817500      -2.8245000     -0.30500000       341.12900       1.9565984     0.013267814
       4596.0000       288.39996       98859.426       14179.038       4.7695000      -2.3607500      0.12700000       341.12500       2.0347873     0.013748540
       4601.0000       288.41282       98866.764       14205.923       3.7442500      -1.5770000      0.48275000       341.24500       2.0758213     0.013872556
       4606.0000       288.34003       98877.323       14149.878       5.8820000      -2.1675000      0.15450000       341.10000       1.7325307     0.018462879
       4611.0000       288.33794       98878.953       14168.495       5.9350000      -1.4660000     -0.83975010       341.06800       1.7719017     0.016778286
       4616.0000       288.37472       98862.679       14237.768       4.8400000     -0.79150000     -0.35175000       341.15300       1.8946793     0.013970886
       4621.0000       288.39314       98854.553       14288.026       5.5020000     -0.25625000     0.010250000       341.05100       1.7890917     0.011789657
       4626.0000       288.42385       98847.650       14351.923       5.2507500     -0.32000000     -0.34275000       341.08600       2.0415031     0.013553954
       4631.0000       288.51847       98836.266       14481.020       4.4687500     -0.80800000     -0.12075000       341.16600       1.8455074     0.011364131
       4636.0000       288.51416       98840.059       14513.024       3.8785000      -3.0292500     -0.39750000       341.00300       1.8419408     0.014374826
       4641.0000       288.45032       98854.720       14492.832       5.5070000     -0.45625000     0.040000000       341.13700       2.0183929     0.012497068
       4646.0000       288.41473       98870.262       14474.092       4.2335000     -0.12075000      0.73850010       341.15900       1.9632494     0.015018670
       4651.0000       288.39302       98877.885       14462.868       2.7012500     -0.22225000      0.19850000       341.29800       2.0241221     0.012818256
       4656.0000       288.40009       98880.235       14454.362       4.5397500       1.9207500     0.060000000       341.27000       1.8831155     0.015214550
       4661.0000       288.40011       98877.734       14445.809       2.9895000     -0.19600000     -0.21175000       341.32100       1.9882572     0.013811449
       4667.0000       288.40028       98859.923       14432.698       2.9235000      -1.8377500      0.32250000       341.31700       2.0227965     0.012366227
       4672.0000       288.40043       98853.268       14428.935       2.2290000     -0.97250000      0.58650000       341.48800       2.0850011     0.013142565
       4677.0000       288.39976       98844.010       14423.806       3.1042500     -0.78625010    -0.018500000       341.23500       2.0561696     0.012681653
       4682.0000       288.39953       98842.698       14430.189       4.6600000      -1.8777500     0.020750000       341.32800       2.0439452     0.011571672
       4687.0000       288.42818       98854.806       14471.020       3.1932500      -1.0680000    -0.083500010       341.27600       2.0382945     0.012810726
       4692.0000       288.40583       98861.811       14473.322       4.2347500      -1.3847500    -0.026750000       341.19800       2.0294017     0.013772926
       4697.0000       288.33131       98871.893       14460.259       3.7767500     -0.30225000    -0.069750000       341.21900       2.0046590     0.015535610
       4702.0000       288.29161       98877.600       14443.649       3.8832500     -0.44475000      0.26375000       341.23200       1.9371261     0.013047832
       4707.0000       288.21952       98885.150       14389.938       4.8737500     -0.29050000    -0.079750000       341.26300       2.0074116     0.013553033
       4712.0000       288.18201       98882.641       14355.196       3.8587500     -0.31775000     0.090000000       341.46900       1.9919419     0.017482579
       4717.0000       288.21481       98867.153       14349.375       3.0885000      0.35425000     -0.30475000       341.34900       1.9083375     0.014256012
       4722.0000       288.20351       98859.206       14313.251       5.1347500     -0.56100000     0.048750000       341.24000       1.7750972     0.010790256
       4727.0000       288.16635       98838.833       14259.347       4.2975000    -0.088000010      0.39300000       341.29800       1.8561895     0.020710516
       4732.0000       288.14636       98835.804       14210.377       4.8917500      0.62725000      0.40725000       341.07500       1.7843626     0.014297754
       4737.0000       288.09555       98854.063       14122.948       5.1442500     -0.18250000     -0.28800000       341.04500       1.7872016     0.018025496
       4742.0000       288.08757       98862.103       14078.685       3.8787500       1.2872500     0.096000000       341.16800       2.0154310     0.013237039
       4747.0000       288.13436       98878.090       14063.999       5.7650000       1.3650000     -0.20600000       340.93600       1.8857083     0.014638914
       4752.0000       288.15430       98884.518       14052.841       5.0197500     -0.99025010     -0.12550000       340.96500       1.9855475     0.015974045
       4758.0000       288.19574       98880.817       14067.761       4.6537500      -1.3525000      0.17150000       341.11500       1.7726874     0.017315379
       4763.0000       288.21214       98874.703       14085.779       3.7270000      0.68600000      0.51100000       341.19000       2.0005258     0.015130298
       4768.0000       288.18726       98858.252       14099.814       4.3827500     -0.77000000      0.36275000       341.15400       1.9808601     0.012482076
       4773.0000       288.20118       98852.053       14138.179       3.1850000      -1.0357500       1.0452500       341.19500       2.0451392     0.013537658
       4778.0000       288.25148       98842.804       14210.075       4.8177500      0.36725000      0.24600000       341.14200       1.9733633     0.019476537
       4783.0000       288.25780       98842.572       14260.461       4.5572500      0.55150000      -1.0027500       340.98000       2.0752930     0.014329495
       4788.0000       288.27008       98856.249       14327.443       6.3185010       1.4097500     -0.72250000       340.94800       1.8863010     0.013271354
       4793.0000       288.25248       98863.242       14365.188       4.4192500      0.85700010     0.017250000       341.13100       2.0085581     0.014987780
       4798.0000       288.16706       98874.499       14385.275       3.9685000       1.0060000      0.20875000       341.11100       2.0378469     0.018329004
       4803.0000       288.13091       98878.423       14388.108       5.2377500     -0.61475000     -0.18375000       340.99400       2.0769998     0.013781018
       4808.0000       288.10533       98880.377       14369.230       5.5725000     -0.80875000      0.20800000       341.03200       2.0511369     0.015258142
       4813.0000       288.08922       98875.942       14347.949       5.3120000     -0.64175000     -0.41925000       340.92300       1.7315589     0.019816069
       4818.0000       288.08765       98859.376       14290.950       4.0145000      0.43375000       1.1435000       341.06900       1.7490431     0.013371213
       4823.0000       288.10166       98851.685       14272.023       3.4865000     0.066000000      0.99475000       341.11700       1.9840496     0.015951534
       4828.0000       288.13856       98837.913       14265.246       5.2480000     -0.56750010    -0.020500000       341.06800       2.0287053     0.015021036
       4833.0000       288.15872       98837.071       14266.545       3.0927500      -2.0545000     -0.21725000       341.14200       2.0892498     0.014535839
       4838.0000       288.20815       98850.485       14310.610       4.6972500      -2.3822500     -0.10750000       341.11900       2.0602300     0.015495191
       4843.0000       288.21070       98857.810       14312.810       3.3160000     -0.92350010      0.65850000       341.18100       2.0717218     0.015450337
       4849.0000       288.15891       98874.274       14283.763       4.1805000      -1.1015000      0.72775010       341.10100       2.1078378     0.015352116
       4854.0000       288.13873       98880.352       14281.223       3.1912500     -0.55400000      0.24300000       341.18700       2.0312269     0.014517258
       4859.0000       288.10071       98883.287       14263.270       2.9622500      0.21575000    -0.022000000       341.24200       2.1083179     0.015467875
       4864.0000       288.08667       98879.649       14269.610       3.6482500    -0.062500000      0.49675000       341.24300       2.0939656     0.013779966
       4869.0000       288.09991       98867.438       14312.623       3.1227500      -1.1527500     -0.20350000       341.23000       2.0609126     0.012869132
       4874.0000       288.09991       98861.443       14330.816       3.8090000     -0.84800000     -0.52375000       341.16900       2.0406039     0.015668855
       4879.0000       288.10015       98848.349       14343.381       2.1215000     0.081000000    -0.068750000       341.29400       2.0459376     0.012125404
       4884.0000       288.10010       98847.545       14354.623       4.0360000     -0.48950000     -0.19475000       341.20000       2.0798211     0.014240273
       4889.0000       288.10022       98857.623       14357.749       3.4247500     -0.83375010      0.38150000       341.31200       1.9733623     0.013581506
       4894.0000       288.10040       98863.253       14368.701       3.7467500      -1.6012500     -0.16900000       341.05600       2.0076770     0.013148768
       4899.0000       288.09949       98874.243       14377.167       3.4375000     0.030500000    -0.029750000       341.24400       2.0159494     0.013385118
       4904.0000       288.09920       98879.023       14394.434       3.7345000     -0.21625000     -0.27050000       341.18500       2.0394110     0.013113536
       4909.0000       288.11080       98881.418       14439.703       2.7722500     -0.47250000      0.24750000       341.09900       2.0891545     0.013055610
       4914.0000       288.09439       98881.249       14434.037       3.2760000      -1.1555000      0.49675000       341.20500       2.0584130     0.012418650
       4919.0000       288.04630       98879.402       14399.066       3.6780000     -0.49500000      0.69750010       341.20500       2.0788709     0.014413704
       4924.0000       288.04234       98872.604       14385.315       2.5732500     -0.85025010     -0.20300000       341.24400       2.0583418     0.016398623
       4929.0000       288.04291       98856.750       14351.875       4.3742500     -0.61575000       1.0532500       341.17200       2.0821775     0.014426243
       4934.0000       288.04913       98851.096       14325.533       5.3485000       1.1410000      0.47275000       341.04400       2.0923484     0.014586979
       4940.0000       288.11263       98841.056       14327.970       5.4630000    -0.044500000      0.43950000       341.22600       2.0840057     0.012116883
       4945.0000       288.10458       98845.454       14290.734       6.6720000      -1.9655000     -0.57625000       340.99500       1.9488464     0.017646377
       4950.0000       288.04533       98864.252       14197.352       3.5955000     -0.56750010       1.2217500       341.11100       1.6836798     0.022584606
       4955.0000       288.04433       98871.349       14195.234       5.0775000     -0.99275000     -0.74025010       341.00500       1.9576900     0.018868974
       4960.0000       288.05250       98881.075       14229.856       5.1190000      -1.6995000      0.37675000       341.07600       1.9241530     0.017546884
       4965.0000       288.04259       98884.414       14238.840       2.3992500      -1.0820000      0.63825010       341.19600       2.0700876     0.013234226
       4970.0000       288.05728       98881.226       14297.141       4.0322500     -0.71700000      0.21600000       340.99500       1.9148112     0.018614270
       4975.0000       288.04856       98879.359       14297.489       2.7385000      0.32875000      0.13200000       341.13900       2.0719323     0.014103531
