MIRICO/SHELL project - Processed LDS file generated on
Sun Jul 23 03:49:07 2017
Time stamp for record start
05/12/2017  10:37: 4.0000
Nb of points in the record
         985
Beam position index
       7.0000000
Beam angle (degrees)
       19.274000
Open Path length (m)
       33.730000
****************** Temporal data record ************************
Elapsedtime_sec Temp_K Press_Pa Humidity_ppmv WindX_m/s WindY_m/s WindZ_m/s Speedofsound_m/s CH4vmr_ppmv CH4vmrerror_ppmv  
      0.00000000       287.65497       98806.650       15082.092       1.6632500     -0.11525000       1.3540000       340.67400       1.6978082     0.022474387
       5.0000131       287.65622       98800.711       15103.536       3.3670000      -1.8835000     0.042250000       340.52200       1.7388023     0.029245273
       10.000026       287.66504       98789.267       15136.866       3.6855000      -1.7362500    0.0077500000       340.67900       1.8910270     0.024792821
       14.999999       287.63760       98785.889       15111.294       4.9467500      -2.1290000     -0.10400000       340.59200       1.8308995     0.016403769
       20.000012       287.55082       98790.354       15021.016       4.3227500      -2.4235000      0.38775000       340.68300       1.7713056     0.017475236
       26.000020       287.49984       98787.221       14914.652       2.8267500     -0.57250010      0.35950000       340.88100       1.7499983     0.022027629
       31.000033       287.48713       98788.902       14875.720       4.8165000     -0.49225000     -0.12950000       340.87500       1.7890434     0.024272082
       36.000006       287.49895       98793.041       14868.785       2.9530000      -1.8602500     -0.34025000       340.79700       1.8410460     0.015627704
       41.000019       287.56275       98799.704       14906.841       3.3215000      -1.3357500      0.73850010       340.75800       1.8085484     0.026784982
       46.000032       287.54015       98805.975       14898.217       3.7562500       1.5700000     0.038750000       340.69900       1.9262136     0.014865124
       51.000005       287.50634       98816.464       14912.350       2.0800000     -0.25975000     0.093500000       340.98700       1.9060386     0.015668956
       56.000018       287.43006       98818.768       14868.702       2.6820000      0.44925000      0.53850000       340.87100       1.7782358     0.022983048
       61.000031       287.38699       98820.922       14843.156       1.9042500    -0.048000000      0.86450000       340.87700       1.8565236     0.016226903
       66.000004       287.40002       98820.366       14849.311       2.1645000     -0.10150000      0.58350000       340.94200       1.7913935     0.015297685
       71.000017       287.40002       98820.401       14842.992       3.7357500      -1.4325000     0.060250000       340.82300       1.8602420     0.021430431
       76.000030       287.40002       98820.450       14832.504       5.0017500     -0.94575010     -0.16500000       340.66300       1.8728081     0.018381181
       81.000003       287.39986       98821.007       14818.853       4.5207500      0.98225000     -0.58775000       340.59300       1.8648908     0.019000441
       86.000016       287.39994       98818.883       14796.338       4.3875000      0.61575000      0.57725000       340.73200       1.8049655     0.017480735
       91.000029       287.40094       98816.644       14761.105       4.1787500     -0.58450000   -0.0090000010       340.77300       1.8722762     0.022114443
       96.000002       287.41502       98807.067       14757.925       3.3900000      -1.3615000      0.13200000       340.60000       1.8335891     0.017454163
       101.00002       287.40648       98799.987       14755.215       3.3257500      -1.0025000     -0.19800000       340.80500       1.7203360     0.025211415
       106.00003       287.38465       98788.810       14802.454       3.0037500     -0.25850000     -0.68400000       340.53600       1.8161228     0.020937108
       111.00000       287.35596       98783.586       14801.596       1.1920000     -0.48025000      0.38275000       340.84800       1.9673557     0.026968822
       117.00001       287.27560       98780.478       14750.563       3.1472500     -0.59425000    -0.098750000       340.76800       1.7835763     0.016382333
       122.00002       287.23684       98783.934       14713.835       4.3565000      -1.3287500      0.44950000       340.50900       1.8642894     0.019853248
       127.00000       287.19561       98796.279       14630.529       3.7125000      0.50400000      0.15425000       340.75700       1.7400526     0.023384841
       132.00001       287.18844       98806.413       14591.836       3.8412500     -0.90475000    -0.020250000       340.66700       1.6835029     0.033291037
       137.00002       287.24791       98823.994       14601.371       3.1622500     0.065500010      0.20450000       340.71900       1.8347539     0.016742772
       141.99999       287.25661       98833.737       14582.132       4.5967500     -0.57550000      0.59450000       340.63400       1.8329280     0.017071633
       147.00001       287.25581       98841.085       14556.900       4.6380000      -1.6595000     -0.45575000       340.67100       1.8368254     0.021243567
       152.00002       287.25470       98842.661       14546.536       3.7125000     -0.57475000    -0.088500000       340.75700       1.8384146     0.020545480
       156.99999       287.20967       98833.410       14518.817       3.5665000     -0.33175000      0.29400000       340.69500       1.8325349     0.020927975
       162.00001       287.19106       98829.418       14512.006       3.1415000     -0.32950000     0.019250000       340.67600       1.8226995     0.019622265
       167.00002       287.21439       98823.793       14564.359       3.0987500     -0.88325010      0.50450000       340.75600       1.8713707     0.016484430
       172.00003       287.20284       98818.963       14563.081       2.5257500      -1.1057500      0.17200000       340.83000       1.8752260     0.015593881
       177.00001       287.16620       98819.559       14527.001       3.7457500      -1.0432500     0.096250010       340.78300       1.8566195     0.018145824
       182.00002       287.14629       98815.220       14506.296       3.4437500     -0.50150000     -0.61200000       340.86300       1.7922679     0.018362572
       187.00003       287.08128       98805.678       14433.957       3.2170000      -1.6082500    -0.045250000       340.62000       1.7414457     0.025154555
       192.00000       287.08468       98798.636       14421.215       4.8662500      -1.4130000      0.25700000       340.72200       1.7491167     0.019700134
       197.00002       287.16875       98783.090       14475.962       3.6882500     -0.54525000      0.19800000       340.75600       1.8304234     0.019681461
       202.00003       287.20841       98781.904       14497.623       3.9445000      0.11300000      0.43675000       340.66000       1.7776701     0.015088951
       208.00000       287.28975       98795.998       14543.024       4.0590000     -0.29375000    0.0045000000       340.65500       1.8384330     0.020300298
       213.00001       287.32208       98802.305       14566.672       2.4687500     -0.57200000      0.90875010       340.70400       1.7770591     0.024745402
       218.00002       287.28690       98815.650       14544.016       5.3122500     -0.88400010    -0.064500000       340.48100       1.8513037     0.018898703
       223.00000       287.30090       98824.892       14569.765       4.3520000      -1.1000000      0.55700000       340.62200       1.8710729     0.014519936
       228.00001       287.35072       98827.771       14642.258       4.6540000      -1.9252500     -0.93575010       340.44600       1.7720263     0.022183161
       233.00002       287.35700       98831.741       14670.408       3.0445000      -1.1750000      0.10500000       340.55000       1.8127364     0.018457034
       238.00000       287.35634       98841.802       14698.091       3.9062500     -0.58900000     0.080750000       340.62400       1.8711831     0.014098161
       243.00001       287.35260       98842.351       14717.522       3.3650000      -1.9967500     -0.35175000       340.49000       1.8615707     0.015549210
       248.00002       287.29175       98834.152       14687.164       3.0597500      -2.2630000      0.76675000       340.62500       1.8825223     0.019427045
       253.00000       287.28909       98828.878       14697.880       2.0232500     -0.15000000     0.048250000       340.73200       1.8080552     0.016989672
       258.00001       287.33722       98820.172       14746.528       2.6947500      -1.2877500      0.37300000       340.68300       1.9511553     0.021847247
       263.00002       287.35728       98812.146       14769.242       3.7252500      -1.1597500      0.11950000       340.55000       1.9201111     0.019247905
       267.99999       287.39421       98803.095       14804.993       3.9862500      -1.0962500     -0.13950000       340.56000       1.7780863     0.021038729
       273.00001       287.41026       98797.385       14809.274       4.1742500      -1.9035000     -0.40700000       340.49100       1.8761226     0.019502335
       278.00002       287.38693       98784.766       14758.418       4.0832500      -1.3817500     -0.24950000       340.49900       1.8363370     0.016204200
       282.99999       287.40050       98788.328       14764.353       3.7367500     -0.95200000    -0.040000000       340.61600       1.9470357     0.022033014
       288.00001       287.43833       98815.916       14784.745       3.5327500      -1.6740000     -0.18950000       340.46200       1.8958545     0.015568886
       293.00002       287.45807       98818.950       14809.721       3.4105000      -1.4197500     0.036000000       340.56300       1.9304410     0.016543155
       299.00003       287.49922       98816.642       14878.656       2.7040000      -1.1930000      0.64125000       340.62800       2.1956189     0.028642061
       304.00000       287.51301       98816.804       14939.348       4.2500000      -1.3330000     -0.29450000       340.55800       1.7737362     0.019678194
       309.00001       287.52383       98797.575       15023.806       3.6832500      0.28175000      0.50825000       340.69800       1.8706123     0.016919698
       314.00003       287.49114       98796.347       15050.457       1.7892500      -1.3302500      0.66850000       340.95800       1.7690577     0.019111311
       319.00000       287.41641       98817.394       15083.490       2.3947500      -2.0635000     -0.37125000       340.57200       1.8503666     0.020357473
       324.00001       287.37631       98817.230       15064.555       2.7920000      -1.2565000      0.35500000       340.82300       1.9374335     0.020280195
       329.00003       287.28990       98807.285       14959.197       4.1720000      -1.1420000     -0.56250000       340.68400       1.8684757     0.014911859
       334.00000       287.27804       98802.641       14903.268       3.4110000     -0.38025000     -0.27300000       340.95000       1.8089238     0.019997128
       339.00001       287.34184       98790.500       14847.608       3.0502500     -0.70175000   -0.0062500000       340.74500       1.7881422     0.033610851
       344.00003       287.36146       98786.368       14798.474       3.1710000      -1.3120000     -0.62800000       340.95200       1.8621822     0.015268529
       349.00000       287.37623       98786.807       14727.966       3.0950000    -0.062250000     -0.13775000       340.88800       1.9181778     0.019631883
       354.00001       287.42279       98791.720       14732.796       2.9512500     -0.84175000      0.44425000       340.74500       1.8601755     0.015738490
       359.00002       287.48453       98800.686       14780.561       3.4622500     0.090750000      0.81475000       340.95100       1.9648327     0.019029819
       364.00000       287.52486       98810.029       14824.000       4.1245000     -0.59200000      0.70450000       340.87900       1.8440066     0.015902833
       369.00001       287.61048       98830.979       14942.353       3.0682500      0.19550000      0.78850000       340.89200       2.0364083     0.021726201
       374.00002       287.62199       98835.885       14989.180       3.7697500       1.3072500     0.058750000       340.82800       1.9119742     0.017248692
       379.00000       287.55789       98832.719       14976.653       4.9277500     -0.44625000     -0.36475000       340.63100       1.7037850     0.025084881
       384.00001       287.53804       98829.800       15014.431       3.1330000     -0.26725000    -0.048000000       340.86800       1.8633980     0.018746603
       390.00002       287.49742       98816.976       15066.583       2.8155000     -0.38325000     0.036750000       340.81800       1.7903432     0.028348358
       395.00003       287.48621       98809.035       15104.970       2.6892500     -0.11850000     -0.10425000       340.78000       1.7986558     0.016194436
       400.00000       287.50898       98800.816       15194.985       3.6977500      0.33450000      0.31300000       340.76200       1.7049823     0.021064637
       405.00002       287.48971       98795.583       15177.956       4.1100000     -0.14675000     0.031000000       340.59400       1.8249589     0.014682338
       410.00003       287.44584       98787.232       15095.243       4.0237500     -0.45625000     -0.30000000       340.59700       1.8176018     0.019913198
       415.00000       287.44480       98790.666       15048.086       1.7555000     -0.60975000      0.48425000       341.03800       1.8285121     0.019279829
       420.00002       287.42540       98802.662       14935.945       2.3980000     -0.93425010      0.18325000       341.00200       1.8732826     0.019968964
       425.00003       287.47095       98812.408       14922.594       2.7087500     -0.91350010      0.23775000       341.03500       1.9267638     0.018137735
       430.00000       287.59465       98830.324       14970.390       3.4280000      -1.3480000     -0.40700000       341.04900       2.0355611     0.027522566
       435.00001       287.64528       98837.647       15002.590       3.8892500      -2.0140000     -0.34700000       340.64700       1.8529118     0.020537086
       440.00003       287.71548       98843.658       15082.781       2.6120000      -1.1175000   -0.0077500000       340.91800       1.7571593     0.024293234
       445.00000       287.71848       98840.124       15107.371       1.8347500     0.015750000      0.39650000       341.06300       1.9212425     0.015303249
       450.00001       287.64575       98828.376       15103.606       3.7365000     -0.86400000    -0.097750010       340.91900       1.9470638     0.021299857
       455.00003       287.64487       98818.650       15134.336       2.8925000     -0.47325000      0.46325000       340.97300       1.8544293     0.017383313
       460.00000       287.63432       98799.889       15145.238       2.2037500     -0.34375000     0.087500010       341.18800       1.8854506     0.016627035
       465.00001       287.66159       98792.534       15204.326       3.3715000      0.54725000    -0.017250000       340.74400       1.9910723     0.023574082
       470.00003       287.74936       98787.176       15323.840       4.2865000      0.23500000     -0.21525000       340.68900       1.7155594     0.029744620
       475.00000       287.78028       98790.609       15381.991       3.0550000      0.50550000     -0.38000000       340.91500       1.9427170     0.024139431
       481.00001       287.79311       98803.922       15445.492       3.0910000     -0.19275000     -0.26275000       341.08400       1.8966195     0.014589583
       486.00002       287.84381       98814.047       15480.701       3.3820000      0.44625000     0.046000000       341.02500       2.0661739     0.023894462
       491.00003       287.89816       98831.899       15482.154       2.5805000      -1.2880000      0.87300000       341.03000       1.9127684     0.020179359
       496.00001       287.93859       98838.486       15504.290       4.1605000     -0.27150000     -0.69875000       340.43100       1.7542485     0.017937135
       501.00002       288.01793       98842.635       15540.043       3.1827500    -0.080000010     -0.18650000       340.90300       1.9105395     0.018356690
       506.00003       287.98464       98838.612       15527.438       3.4425000      0.10150000     -0.14775000       340.87100       1.9044831     0.016277100
       511.00000       287.95592       98831.973       15506.920       3.9690000      0.46350000      0.22050000       341.00300       1.8684793     0.020062206
       516.00002       287.86967       98814.114       15440.969       3.1717500    -0.010500000     -0.11650000       341.10700       2.1177029     0.027810936
       521.00003       287.83748       98803.939       15397.850       3.5632500    -0.062500000     -0.16500000       340.74500       1.8214054     0.018396417
       526.00000       287.82982       98796.237       15361.999       2.5525000      0.39075000    -0.025000000       341.11100       1.9799062     0.016839141
       531.00002       287.85650       98786.967       15344.506       2.3562500    -0.071000000     -0.37275000       341.29900       1.9462876     0.016230362
       536.00003       287.82530       98788.697       15277.129       2.6805000      0.29125000     0.042500000       341.29800       1.9403430     0.015865900
       541.00000       287.79400       98798.437       15183.392       2.3932500      0.57075000       1.1225000       341.78500       1.9323421     0.018914526
       546.00002       287.74628       98819.392       15128.992       3.8075000       1.2285000     -0.51025000       341.29800       1.9163003     0.021826146
       551.00003       287.76968       98827.996       15128.906       3.5385000      0.39750000     -0.12475000       340.74700       1.8247143     0.024340386
       556.00000       287.93196       98834.441       15242.658       3.5840000      0.14825000      0.42875000       340.96800       1.8203979     0.020138577
       561.00001       288.05094       98834.139       15340.087       3.8787500      0.17375000     -0.37175000       341.02400       1.8887077     0.020684347
       566.00003       288.24505       98814.206       15456.109       2.3212500     -0.96525010      0.78375010       341.48700       1.8830197     0.013832615
       572.00000       288.34072       98802.269       15595.286       3.7402500    -0.057250000      0.25675000       340.98300       1.8059291     0.018709633
       577.00001       288.29940       98793.172       15728.224       3.6180000     -0.93450000     -0.67850010       340.62400       1.7608618     0.033906206
       582.00002       288.30797       98787.552       15842.777       3.7395000      -1.1022500     -0.52900000       340.93000       1.8094936     0.016383362
       586.99999       288.28282       98786.099       16015.099       2.7622500     -0.20100000    -0.071250010       341.34700       1.8765985     0.026954338
       592.00001       288.24261       98789.544       16063.629       2.4747500      0.48725000    -0.099000010       341.24400       1.8737249     0.016983178
       597.00002       288.23563       98797.744       16030.765       5.3475000       1.8445000     -0.24200000       340.33000       1.9791634     0.024063772
       601.99999       288.20350       98805.968       15983.088       3.9957500       2.0592500     0.050750000       340.99500       2.0841119     0.024140312
       607.00001       288.08502       98827.129       15812.489       4.1527500      0.32300000     -0.22625000       341.08900       2.3360914     0.015835605
       612.00002       288.02791       98834.429       15696.416       5.6630000      0.72825000     0.063000000       340.95300       2.3678366     0.019022900
       617.00003       288.02446       98836.292       15613.119       4.8992500       2.0307500     -0.47725000       340.95500       2.7438229     0.024773875
       622.00001       287.99453       98832.652       15506.623       4.3050000     -0.18825000     -0.37575000       340.75300       3.0964545     0.016570391
       627.00002       287.96637       98812.136       15380.622       3.0990000     -0.45950000     -0.24575000       340.86100       2.8887883     0.015587165
       632.00003       287.94653       98802.371       15278.059       2.4777500      -1.6400000    -0.038250000       341.31100       2.1265799     0.029896118
       637.00000       287.86715       98788.847       15135.355       3.1140000      0.42700000     -0.18325000       341.12500       2.2423418     0.019814025
       642.00002       287.88160       98786.486       15070.575       3.7157500      0.89600000    -0.068750000       341.07900       2.3922750     0.022618156
       647.00003       287.98880       98797.934       15052.669       2.8025000     -0.35200000       1.0485000       341.42700       3.3828296     0.023441012
       652.00000       288.05965       98806.229       15068.582       4.8490000      0.75100000     -0.48450000       341.06600       2.9005220     0.020137839
       658.00001       288.23589       98829.008       15174.266       5.1085000    -0.084250000    -0.073750000       340.27400       2.2633973     0.015291879
       663.00002       288.29091       98835.127       15261.092       3.3595000      0.75600000    -0.024750000       340.95300       2.0689760     0.020223197
       668.00000       288.24465       98833.317       15349.112       6.3772500      0.37350000     -0.19025000       340.62100       2.4845585     0.027089060
       673.00001       288.25471       98831.203       15488.773       4.7482500       1.0557500     -0.62175010       340.74800       3.4075911     0.025615601
       678.00002       288.23063       98820.187       15699.664       4.4635000       1.2780000     -0.23125000       340.62600       3.8814744     0.016888536
       683.00000       288.24813       98812.150       15842.708       3.9977500     -0.62600000      0.14725000       341.24300       4.5754339     0.023304361
       688.00001       288.39845       98800.370       16090.768       3.6965000      0.76050000     -0.11500000       340.99600       3.6331322     0.028993470
       693.00002       288.36727       98797.364       16128.631       2.1450000      0.10250000      0.41475000       341.63600       4.2803843     0.021688684
       698.00000       288.23062       98795.166       16004.885       3.1037500     -0.51875000    -0.053750000       341.33200       2.7113296     0.016358090
       703.00001       288.12009       98800.060       15879.076       4.6552500     -0.14225000     -0.56250000       340.71300       2.7069879     0.017207372
       708.00002       287.83685       98823.262       15584.098       3.9505000     -0.60675000     -0.45825000       341.17600       2.5969796     0.022001704
       713.00000       287.73039       98829.743       15399.196       3.4382500      0.65050010     -0.66425000       340.67200       2.3041945     0.021908393
       718.00001       287.74859       98832.422       15234.614       3.6665000     -0.78275000      0.91625010       341.42800       3.0803220     0.025708219
       723.00002       287.73592       98831.968       15092.552       6.0502500      0.72325000   -0.0072500000       340.78900       3.5802152     0.024280312
       727.99999       287.80794       98819.830       14985.752       4.5727500     -0.98475000     0.097000000       341.10700       4.1041909     0.020000387
       733.00001       287.81054       98811.755       14883.371       4.4130000     0.069250000     -0.24875000       340.85400       3.5543623     0.021345002
       738.00002       287.73592       98800.512       14775.925       2.8452500     -0.12375000      0.70150010       341.72200       3.3403718     0.018179299
       743.00003       287.74352       98797.696       14721.113       4.0615000     -0.86525010     -0.31300000       340.33400       3.0097129     0.027392157
       749.00000       287.76205       98795.629       14688.424       3.1107500      -1.0025000     -0.27325000       341.15600       2.5833664     0.019781459
       754.00001       287.81989       98801.703       14702.920       3.3067500     -0.76750000      0.12000000       341.44600       2.4603456     0.022676755
       759.00003       287.98086       98824.890       14773.901       4.2200000      -1.0852500     -0.19900000       341.11900       3.0006683     0.015165941
       764.00000       288.04852       98830.422       14844.050       3.3620000     -0.84050010     -0.16875000       341.07400       2.4159274     0.014813189
       769.00001       288.09764       98834.839       14933.430       3.7430000      -1.3600000      0.37925000       340.63000       2.0392038     0.018030749
       774.00003       288.12562       98830.092       15047.907       3.7820000    -0.012000000      0.29825000       341.05300       1.8745018     0.015145158
       779.00000       288.08876       98807.536       15203.898       2.5455000      -1.0312500     -0.16925000       341.36200       1.8447933     0.017935439
       784.00001       288.10491       98798.733       15324.064       4.0777500      -1.7052500     -0.26700000       340.54500       1.9693854     0.025540557
       789.00003       288.13091       98787.227       15473.169       1.7452500     -0.84750000       1.5717500       341.82500       2.0429475     0.022634413
       794.00000       288.16687       98787.983       15561.684       5.1070000      -2.0052500      0.74500010       341.27400       1.9967171     0.012896862
       799.00001       288.24105       98800.361       15603.177       2.2535000    -0.054750000      0.26900000       341.61100       2.2413535     0.014342787
       804.00002       288.27484       98809.710       15644.601       3.9312500     -0.58225000      0.23975000       341.02900       2.1178406     0.018489701
       809.00000       288.31006       98830.367       15667.877       3.6312500      -1.5457500      0.00000000       341.19000       3.5381431     0.016014451
       814.00001       288.30752       98835.174       15666.744       3.3415000     -0.96175000    -0.062250000       341.43600       3.6794778     0.022844660
       819.00002       288.26875       98832.606       15659.529       4.5937500     -0.42275000      0.23175000       341.18700       2.9961464     0.019208255
       824.00000       288.23274       98829.705       15607.874       3.6440000      -1.2857500     -0.41225000       341.24200       2.0745075     0.014387467
       829.00001       288.15869       98818.437       15497.038       3.2115000      0.51825000     -0.44725000       341.00200       2.0012223     0.025276360
       834.00002       288.12537       98810.496       15419.720       1.9452500     -0.31575000      0.26600000       341.66400       2.2200717     0.017093988
       840.00003       288.10618       98798.045       15307.423       2.7632500      0.11425000      0.16800000       341.84600       2.0608168     0.022939603
       845.00000       288.07643       98798.466       15225.930       3.9085000     -0.94000010     -0.10575000       341.89700       1.9248064     0.022747901
       850.00002       288.04541       98801.059       15142.605       3.8130000     -0.39700000     -0.75350000       340.62400       2.1479861     0.019645760
       855.00003       288.04426       98808.590       15108.906       3.3160000     -0.44025000     -0.63900010       340.88800       1.9427867     0.016409506
       860.00000       288.04340       98832.083       15084.412       4.4362500      -1.7905000     -0.16600000       340.78800       1.8794842     0.026174369
       865.00002       288.05208       98835.759       15090.776       4.4212500      -1.8125000      0.53200000       340.64900       2.0623839     0.015438931
       870.00003       288.10275       98834.453       15155.870       5.1042500      -2.9822500    -0.051250000       340.92400       1.7938773     0.025748930
       875.00000       288.11393       98827.227       15193.176       4.1982500      -1.7795000      0.33050000       341.54600       2.0051162     0.018404062
       880.00001       288.06453       98804.226       15208.222       3.5657500      -1.6322500     -0.20500000       340.67500       2.0086898     0.016787163
       885.00003       288.13908       98799.815       15293.655       4.0297500      -1.2380000      0.28800000       341.47500       2.0381219     0.019602498
       890.00000       288.27143       98798.453       15405.086       3.0012500     -0.61450000      0.51925000       341.29800       1.8395326     0.030952629
       895.00001       288.37125       98799.181       15545.811       3.7750000     -0.40150000      0.34925000       340.97600       1.8089454     0.028495169
       900.00003       288.56499       98809.892       15761.242       3.3575000     -0.63025000      0.34300000       340.66400       1.7847181     0.019201781
       905.00000       288.61114       98814.059       15906.636       3.3382500     -0.28075000      0.10400000       341.18400       1.9122021     0.019841441
       910.00001       288.56558       98815.772       16071.944       3.3097500      -1.8525000      0.46100000       341.20500       1.9042086     0.020378150
       915.00003       288.53837       98815.865       16132.415       2.5812500     -0.88250010      0.37175000       341.30100       1.8045325     0.028430705
       920.00000       288.45947       98818.816       16140.914       4.8017500     -0.68150000      0.21750000       340.95300       1.9836098     0.021898701
       925.00001       288.40975       98812.390       16093.382       4.1937500      -1.5455000     -0.29950000       340.38500       1.9615594     0.015879413
       931.00002       288.34444       98792.849       15928.519       4.1945000      -1.8315000    -0.070000000       340.63200       1.8275981     0.018662382
       936.00003       288.31597       98792.338       15836.704       3.3482500      -2.0882500      0.16825000       340.87300       1.9586554     0.016592305
       941.00001       288.29370       98791.360       15708.752       2.8055000      -2.1042500      0.15975000       341.19700       1.8924020     0.016617958
       946.00002       288.28501       98801.324       15643.594       3.5005000      -1.3320000     -0.52625000       340.98000       1.9810664     0.015768427
       951.00003       288.30617       98828.332       15617.654       1.8110000     -0.27775000      0.40075000       341.52100       1.8338346     0.028966817
       956.00000       288.31390       98834.089       15579.907       2.6490000      0.53250000      0.98450010       341.52700       2.1862898     0.016095719
       961.00002       288.26809       98833.937       15511.819       3.3602500     -0.61475000      0.22850000       341.29800       2.8190745     0.022011667
       966.00003       288.12425       98814.237       15392.144       3.6332500      0.26625000     -0.50425000       340.89100       2.8428422     0.027341572
       971.00000       288.04358       98804.086       15294.487       3.3465000      0.86525010      0.25150000       340.68700       3.3554041     0.015842197
       976.00002       287.97520       98796.393       15198.416       2.9552500     0.060000000       1.0695000       341.04500       2.8180851     0.019555061
       981.00003       287.87433       98785.241       15081.201       1.9215000     -0.27750000    -0.049000000       341.24600       2.8558365     0.027291374
       986.00000       287.87013       98793.470       15029.545       2.9177500    -0.012250000     -0.10350000       341.32200       2.5960998     0.019008136
       991.00002       287.95602       98816.585       15012.463       3.5400000      0.81175010      0.17700000       341.02200       2.8457510     0.017946519
       996.00003       287.96975       98831.208       14991.749       3.9795000   -0.0017500000     -0.11100000       341.13900       2.9438635     0.016418738
       1001.0000       287.96242       98835.308       14985.843       2.4472500     -0.48075000      0.37925000       341.50200       2.2427109     0.025272890
       1006.0000       287.86932       98814.023       14975.783       3.6460000     0.011250000     -0.31500000       341.13000       2.9935863     0.017406894
       1011.0000       287.83732       98803.868       14982.855       3.6725000    -0.046500000     -0.40900000       341.12200       3.3262610     0.017688337
       1016.0000       287.86023       98790.341       15051.036       3.3537500     -0.74850000     -0.19575000       341.25600       2.7952797     0.025136194
       1022.0000       287.84843       98786.753       15075.355       3.8300000     -0.54475000     -0.11925000       340.72100       2.6247539     0.019305470
       1027.0000       287.85734       98800.121       15073.248       3.5125000     -0.56950000      0.14775000       340.93800       2.4738445     0.015311988
       1032.0000       287.85605       98806.059       15067.330       2.8587500      -1.1597500      0.49800000       341.51100       2.2056786     0.018809370
       1037.0000       287.79647       98818.532       15004.099       3.4685000      -1.5347500     -0.14975000       341.07600       1.8107665     0.031215598
       1042.0000       287.78901       98823.066       14990.417       2.4987500      -1.3540000      0.40200000       341.37400       1.9779590     0.019845240
       1047.0000       287.84897       98820.983       15019.224       2.2910000     -0.69275000      0.12950000       341.61800       1.9388301     0.018754696
       1052.0000       287.85835       98815.637       15026.821       3.1012500      -2.1717500     0.023750000       341.15400       1.9369895     0.016935491
       1057.0000       287.87070       98795.277       15072.613       4.2247500      -1.0775000      0.84150000       341.50000       1.9260471     0.019013641
       1062.0000       287.85834       98791.909       15065.678       2.3717500     0.031250000      0.53525000       341.60500       2.1845698     0.016221936
       1067.0000       287.77629       98793.481       15018.077       2.1467500      0.94075010      0.27775000       341.74300       2.5440293     0.029273914
       1072.0000       287.73766       98798.162       14962.075       3.7375000      0.20950000    -0.065000010       341.18800       2.4635952     0.016747506
       1077.0000       287.71023       98825.877       14860.672       4.8910000      0.42850000     -0.83200000       341.08700       2.5873309     0.023405198
       1082.0000       287.69151       98835.175       14780.918       1.6560000     -0.49100000      0.39875000       341.41000       3.0883666     0.016457474
       1087.0000       287.68603       98835.663       14670.637       3.0237500      0.34125000     0.042250000       341.25200       2.9121529     0.016678037
       1092.0000       287.69717       98832.054       14617.514       2.6072500     -0.31825000      0.41425000       341.22800       2.4161105     0.020490714
       1097.0000       287.72008       98807.717       14577.677       2.3645000      0.58450000      0.71250000       341.47100       2.6460015     0.024728473
       1102.0000       287.75122       98801.533       14591.577       3.6995000      0.20175000      0.38725000       341.33300       2.5010052     0.022406917
       1107.0000       287.83868       98800.561       14689.761       3.4427500     -0.31725000      0.35225000       341.36700       2.5595961     0.017779292
       1113.0000       287.86876       98804.379       14782.792       4.3367500      -1.7955000     -0.22850000       341.18100       2.0693736     0.018252060
       1118.0000       287.87136       98828.736       14930.783       3.9312500      0.66625010      0.28075000       340.93500       2.4341602     0.017136924
       1123.0000       287.85365       98834.787       14989.997       3.5360000     0.034750000     -0.52075000       340.86500       3.0516495     0.021149071
       1128.0000       287.76770       98835.374       15002.788       3.4865000     -0.14075000     -0.27275000       341.10500       3.4341808     0.020178041
       1133.0000       287.73121       98830.503       15004.239       3.7410000     -0.16000000     -0.36450000       341.08700       2.5159881     0.026992312
       1138.0000       287.69209       98807.133       14937.169       3.8795000      0.10000000      0.35375000       340.79600       2.3145150     0.022261188
       1143.0000       287.68909       98800.525       14907.817       3.9370000      0.27225000    -0.077000010       340.90200       2.0434944     0.023705692
       1148.0000       287.73826       98795.451       14899.857       3.9985000    -0.026250000    -0.035750000       340.85500       2.0522834     0.016202122
       1153.0000       287.75817       98798.685       14867.001       3.6950000     -0.50075000     -0.13975000       340.97600       1.6799783     0.041358343
       1158.0000       287.79515       98824.456       14826.593       2.7205000     -0.62200000      0.22975000       341.08500       1.9964609     0.023790412
       1163.0000       287.81128       98829.490       14787.799       4.3952500     0.038750000     -0.18325000       341.07600       2.6617866     0.017498365
       1168.0000       287.78800       98829.983       14698.599       3.2472500     -0.34900000      0.52050000       341.08600       2.5014601     0.017436900
       1173.0000       287.80228       98826.169       14688.824       4.3660000      -2.0775000     -0.23100000       340.96600       3.1473671     0.017407046
       1178.0000       287.85149       98799.960       14744.913       3.4202500      -1.1957500    -0.015500000       341.13300       2.3573148     0.017748184
       1183.0000       287.85797       98795.073       14764.042       3.4390000      -2.6440000     0.083750000       341.19200       2.1592933     0.015080019
       1188.0000       287.84405       98800.258       14793.693       3.4070000     -0.12650000      0.96050010       341.14000       2.0087431     0.014354462
       1193.0000       287.85385       98805.784       14844.143       4.0305000      -1.1042500     -0.44750000       341.03100       1.9220013     0.016485111
       1198.0000       287.84286       98829.057       14890.652       2.2810000     -0.41200000      0.61775000       341.29800       1.8712954     0.027152729
       1204.0000       287.84860       98835.733       14939.893       5.2015000     -0.28475000      0.20350000       340.70500       1.9033735     0.028512336
       1209.0000       287.88734       98835.361       15027.234       4.3790000     -0.29200000     0.081250000       340.87800       1.9249622     0.019867521
       1214.0000       287.91731       98829.119       15069.381       3.9612500     -0.86175010      0.34550000       340.81200       2.0322959     0.017146883
       1219.0000       287.93111       98802.543       15069.975       4.7860000     -0.10900000      0.22850000       340.86600       1.9711249     0.014328920
       1224.0000       287.96771       98801.943       15080.890       3.1980000    -0.058000000      0.29225000       341.05800       1.8940240     0.026244293
       1229.0000       288.01999       98811.718       15063.453       3.3467500     -0.51750000      0.32050000       341.04800       1.8986324     0.016124446
       1234.0000       288.08629       98817.530       15107.829       2.7345000    -0.093500000    -0.091500010       341.19600       1.9060775     0.017031058
       1239.0000       288.18344       98843.583       15178.045       3.6852500     -0.64425000      0.25800000       340.93900       2.0158622     0.016293877
       1244.0000       288.23666       98845.651       15241.006       3.2327500     -0.75875000     -0.77350000       340.79100       2.2851631     0.018224740
       1249.0000       288.27603       98830.418       15349.315       3.6405000      -1.0535000     -0.24275000       340.83800       2.0009771     0.019820129
       1254.0000       288.33642       98821.144       15436.908       3.3570000     -0.23050000      0.22400000       340.95100       1.8741703     0.025373164
       1259.0000       288.39495       98796.911       15501.117       3.1510000     -0.27150000      0.61675000       341.11200       2.1717538     0.018047324
       1264.0000       288.41854       98797.075       15576.199       2.7155000      0.77300010     -0.29250000       341.09300       2.6358921     0.014802545
       1269.0000       288.45657       98813.964       15690.767       2.4975000     -0.16650000      0.62200000       341.19000       3.5404026     0.018861872
       1274.0000       288.46445       98817.960       15742.630       4.5267500     -0.26075000     -0.18750000       340.87800       4.1956007     0.028725719
       1279.0000       288.42267       98835.081       15776.403       4.0147500       1.2095000      0.31675000       341.12500       4.2966165     0.021777386
       1284.0000       288.37666       98833.085       15757.652       3.9717500      0.55650000    -0.018500000       341.20400       3.9304716     0.019749631
       1290.0000       288.30830       98803.996       15657.565       3.1612500      0.13525000     -0.27225000       341.32000       3.6259239     0.021056985
       1295.0000       288.26853       98799.439       15609.016       3.4830000    -0.057750000     -0.13425000       341.45500       2.9636029     0.016586829
       1300.0000       288.19414       98795.699       15533.798       3.4160000     -0.40425000     -0.20800000       341.44500       3.5505931     0.021245091
       1305.0000       288.17193       98802.164       15482.768       3.4522500      0.17425000     -0.17700000       341.14900       3.8399956     0.016805818
       1310.0000       288.20896       98826.312       15485.978       3.9070000     -0.89650010      0.29675000       341.37400       2.9329321     0.021126222
       1315.0000       288.19021       98830.855       15393.709       3.8417500     -0.96350000      0.37425000       341.33600       2.3265884     0.019700562
       1320.0000       288.14412       98834.491       15230.421       4.0802500     0.040000000    -0.081500000       340.96300       2.2094077     0.019621479
       1325.0000       288.14256       98828.302       15148.061       3.7692500      -1.0820000     -0.33650000       340.96100       2.6976335     0.018940871
       1330.0000       288.12530       98804.090       15021.326       2.7187500      0.51950000      0.26500000       341.42400       1.9189028     0.029190991
       1335.0000       288.17126       98799.619       15018.123       2.3327500      -1.1157500      0.15225000       340.90700       1.9517083     0.015822250
       1340.0000       288.28497       98797.628       15110.980       2.3590000      0.83625010     -0.11975000       341.20900       1.9813762     0.019223067
       1345.0000       288.35568       98800.273       15199.440       2.6702500      -1.0752500      0.17075000       341.23700       2.1090727     0.015808897
       1350.0000       288.45983       98816.360       15356.532       1.9782500     -0.63850000    0.0037500000       341.61700       2.7327544     0.017697226
       1355.0000       288.48350       98818.803       15454.010       2.5640000      -1.9125000     -0.54525000       341.31300       2.7372064     0.021296177
       1360.0000       288.44745       98817.638       15559.965       2.5922500      -1.6782500     -0.35550000       341.21700       2.0457234     0.019181294
       1365.0000       288.45743       98812.996       15629.504       3.8985000      -1.0117500    -0.012500000       341.88200       1.8602834     0.021774221
       1370.0000       288.44349       98796.371       15671.175       1.5810000      -2.3105000      0.31250000       341.90900       1.9089862     0.023678991
       1375.0000       288.45245       98800.664       15690.036       3.1970000      -3.1175000    -0.052500000       341.23000       1.7941405     0.017521128
       1381.0000       288.51892       98815.375       15696.649       2.4447500      -1.4220000      0.41225000       341.71800       2.3576884     0.019448757
       1386.0000       288.48592       98819.395       15646.024       3.3732500      -2.1267500    -0.065500010       341.89500       3.2466181     0.017060457
       1391.0000       288.40201       98835.752       15544.252       3.6630000       1.3505000      0.17975000       342.16900       3.9562995     0.024611788
       1396.0000       288.36158       98829.649       15464.942       3.2180000      0.63175000     -0.15625000       341.51000       3.8271069     0.032914192
       1401.0000       288.27088       98802.245       15349.323       3.0537500      0.83575000      0.64650010       342.22000       3.3769815     0.019735581
       1406.0000       288.39156       98800.939       15301.407       2.4335000     -0.23600000     0.082250010       341.35300       3.0167628     0.026135015
       1411.0000       288.45232       98802.228       15257.725       4.0535000     -0.15550000      0.10100000       341.86600       2.5110284     0.019700791
       1416.0000       288.54046       98825.019       15202.594       5.1760000     -0.42650000      -1.0602500       340.88300       2.6875024     0.022375271
       1421.0000       288.61219       98833.609       15201.598       4.8520000      0.26850000      0.12550000       341.13700       2.6761520     0.018193072
       1426.0000       288.65928       98836.047       15233.343       4.1390000       1.3695000      0.36125000       341.80100       2.9818371     0.018367348
       1431.0000       288.64291       98832.185       15283.630       4.4662500    -0.019500000     -0.20625000       341.63400       2.9718502     0.013358802
       1436.0000       288.68482       98827.631       15381.122       5.7000000     -0.34950000    -0.066250000       341.41000       2.8583000     0.016262764
       1441.0000       288.75665       98812.390       15555.717       2.5937500     -0.80575000      0.33025000       341.69500       3.0111698     0.017772528
       1446.0000       288.77038       98820.943       15638.959       4.4047500     -0.85675000     -0.39375000       341.13400       3.6420618     0.029760726
       1451.0000       288.80055       98824.872       15724.795       4.1075000     -0.12625000     -0.31075000       341.96400       2.8361531     0.021091142
       1456.0000       288.81548       98843.404       15780.255       5.7857500     -0.68550000     -0.24575000       340.99500       2.4466750     0.019319342
       1461.0000       288.84417       98845.258       15831.185       3.5242500     -0.23825000     -0.69025000       341.24100       2.4740359     0.015027150
       1466.0000       288.91503       98820.802       15919.649       4.7807500      0.33550000      0.42725000       341.21700       2.6400112     0.020822633
       1472.0000       288.96270       98812.444       15957.148       3.1087500      0.30300000     -0.50450000       341.53200       3.2502364     0.025083836
       1477.0000       288.99067       98805.385       15926.441       4.4605000     -0.98000000    0.0037500000       341.80900       2.9926139     0.021057036
       1482.0000       289.00952       98802.159       15909.098       5.1920000      -1.7907500     -0.15100000       340.77200       2.0928092     0.016232731
       1487.0000       288.99993       98817.289       15859.589       4.9075000     -0.33575000      0.32000000       341.40400       1.9616058     0.019710916
       1492.0000       288.99981       98823.024       15818.972       4.5005000      0.23250000      0.15375000       341.04100       2.3264047     0.015320040
       1497.0000       289.01408       98820.146       15795.091       3.9740000      0.17500000     -0.15225000       341.17100       2.3277004     0.021091160
       1502.0000       289.00301       98820.087       15757.594       4.9625000       1.5540000      0.17325000       341.35100       2.4722153     0.028802140
       1507.0000       288.96593       98817.469       15684.848       4.1795000     -0.18075000      0.89825000       341.94400       2.4487539     0.017665708
       1512.0000       288.94614       98819.721       15651.121       3.6480000     -0.52150010     -0.17550000       341.70300       1.8847397     0.037985993
       1517.0000       288.89515       98829.794       15633.323       3.0625000      0.21300000     0.049500000       341.70100       2.4835695     0.020938744
       1522.0000       288.88804       98831.476       15622.633       3.8630000      -1.6272500      0.31275000       341.80900       3.5086770     0.013033046
       1527.0000       288.93422       98835.529       15658.253       2.9707500     -0.42975000     0.070750010       342.22700       2.2523121     0.017266315
       1532.0000       288.95436       98831.820       15659.066       5.7477500      0.33550000     0.059500000       340.67200       2.1870466     0.018192977
       1537.0000       289.01857       98804.608       15636.770       4.6712500     -0.91350010      0.37875000       341.58100       2.0071997     0.017094099
       1542.0000       289.01518       98800.307       15621.960       4.4480000      -1.2255000     -0.28200000       340.70400       1.7564388     0.027895574
       1547.0000       288.93147       98810.244       15579.482       4.7557500     -0.97000000    -0.042500000       340.68800       1.8651253     0.017249999
       1552.0000       288.89174       98814.609       15568.157       4.1687500   -0.0045000000     -0.21675000       341.32000       2.0206397     0.017521400
       1557.0000       288.81984       98842.596       15601.289       4.3210000      -1.8257500    -0.016500000       341.46000       1.9589632     0.018036161
       1563.0000       288.77823       98845.720       15594.186       3.2422500      -1.0820000   0.00025000000       341.32200       1.9490177     0.017885457
       1568.0000       288.78696       98817.763       15606.806       4.7535000     -0.23400000      0.30075000       341.60100       2.6933679     0.017822918
       1573.0000       288.80091       98811.898       15567.429       3.4967500     -0.68450000    -0.080000010       341.43600       3.1237005     0.019389050
       1578.0000       288.81238       98801.905       15423.802       3.6940000     -0.76925000     -0.81150000       341.47900       2.4981598     0.023429951
       1583.0000       288.86016       98802.513       15391.005       4.4005000      -1.7007500      0.56250000       340.99200       2.0649551     0.017744246
       1588.0000       288.98512       98830.386       15381.340       4.7887500     -0.66400000     0.076250000       341.46000       1.9913442     0.021063594
       1593.0000       289.02836       98835.315       15395.852       2.8985000      -1.8160000      0.57425000       341.13100       1.9960639     0.022747295
       1598.0000       289.07782       98826.664       15533.563       1.8937500      -1.0580000     -0.26400000       341.96500       2.0186479     0.020988798
       1603.0000       289.06272       98825.301       15565.840       1.4100000     -0.80150000      0.26200000       341.80400       1.9031784     0.019302534
       1608.0000       288.97093       98812.887       15578.938       2.8307500      -1.5245000      0.68575000       341.86700       1.7950528     0.028627446
       1613.0000       288.87290       98812.880       15531.252       3.0882500     -0.79975000     -0.49975000       341.75000       1.9679367     0.016642652
       1618.0000       288.68387       98831.081       15387.233       4.9042500      -1.7747500     0.055500000       341.25400       1.8864105     0.020370401
       1623.0000       288.60507       98832.479       15296.240       2.9700000     -0.48225000      0.28300000       342.02700       1.8363238     0.020164080
       1628.0000       288.55290       98827.629       15175.981       2.2255000     -0.68275000     -0.20875000       342.06400       1.9063631     0.017803266
       1633.0000       288.52394       98824.827       15089.371      -65.536000      -65.536000      -65.536000       307.23200       1.9340061     0.019506055
       1638.0000       288.60854       98807.750       15057.213       3.0940000     -0.55950000      0.44150000       341.96300       1.9285705     0.029589957
       1643.0000       288.61079       98807.031       14986.314       3.1552500     -0.19800000      0.69200000       342.00100       1.9745642     0.016850091
       1648.0000       288.56233       98824.472       14882.633       4.1062500     -0.44750000     -0.32400000       341.33000       2.6469252     0.021672044
       1654.0000       288.53878       98828.163       14811.414       4.3555000      -1.5962500     -0.17400000       341.62100       2.3846698     0.037170277
       1659.0000       288.48860       98832.952       14738.095       5.4312500      -1.5685000      0.73875000       341.77000       1.9612564     0.022175373
       1664.0000       288.49115       98831.339       14724.727       6.4002500     -0.69700000     -0.74775000       340.89200       1.9365560     0.020946871
       1669.0000       288.55239       98812.999       14783.213       5.4370000      0.27000000     -0.25075000       340.90600       1.9183828     0.017799780
       1674.0000       288.55594       98813.076       14795.988       4.1720000      -1.0855000      0.37225000       341.59800       2.0317682     0.017102009
       1679.0000       288.54549       98825.371       14815.679       3.9417500      -1.5280000      0.14325000       341.62600       1.8639119     0.025149402
       1684.0000       288.55554       98826.788       14836.877       4.2070000      -2.6317500     -0.11750000       341.60500       2.0121115     0.018970913
       1689.0000       288.53155       98835.069       14830.247       3.3892500     -0.23525000      0.24475000       341.69200       1.9697577     0.028710590
       1694.0000       288.55383       98830.329       14861.786       4.0485000    -0.077750000     -0.40175000       341.18800       2.8123334     0.028884341
       1699.0000       288.64076       98802.207       14936.519       3.3862500    -0.042500000     -0.24075000       341.53300       2.9701036     0.028084800
       1704.0000       288.67438       98801.671       14976.606       4.7840000     -0.46975000    -0.016000000       341.30100       3.4282770     0.018101738
       1709.0000       288.68828       98813.873       14997.195       3.1875000      -1.0402500     -0.28775000       341.23400       2.6817543     0.017994829
       1714.0000       288.71860       98816.494       15057.591       4.3112500      -1.1647500     -0.53850000       340.78300       2.3433451     0.016400256
       1719.0000       288.76534       98832.543       15136.107       2.9350000      0.40400000      0.56300000       341.71300       2.3078513     0.015941502
       1724.0000       288.75311       98833.814       15190.833       3.0590000      -1.1737500   -0.0052500000       341.33600       2.6952274     0.021585592
       1729.0000       288.71493       98812.706       15301.458       4.7900000      0.38050000    -0.027000000       340.88100       3.4095659     0.015486634
       1734.0000       288.68876       98812.835       15306.854       4.1542500     0.017250000      0.30450000       341.07500       3.6787264     0.038656186
       1739.0000       288.57891       98825.107       15213.835       3.6827500     -0.19125000      0.33125000       341.12700       3.2276481     0.022134542
       1745.0000       288.59010       98826.540       15176.273       2.8445000       1.0407500     -0.12775000       341.35100       2.5642824     0.034913540
       1750.0000       288.68035       98834.904       15092.077       5.0277500     -0.97325000     -0.56400000       341.30300       2.3967988     0.016932923
       1755.0000       288.73951       98828.486       15107.410       4.9187500      0.34575000     -0.25425000       340.96300       2.1471133     0.016780465
       1760.0000       288.87732       98801.720       15221.729       4.6970000      0.20175000      0.47375000       341.10900       1.9418305     0.017119413
       1765.0000       288.86367       98802.877       15222.770       3.6095000      -1.1315000   -0.0080000000       341.14300       2.0852435     0.017482726
       1770.0000       288.76304       98814.439       15224.125       3.9015000     -0.14725000      0.43575000       341.37300       2.0005779     0.014840794
       1775.0000       288.71430       98817.282       15188.893       5.0122500      -1.2635000     -0.46975000       341.53200       2.1829246     0.015200109
       1780.0000       288.59093       98833.227       15052.428       5.1132500      -1.3555000     -0.22500000       340.74900       2.0852457     0.030404116
       1785.0000       288.55736       98832.904       15030.691       4.6725000      -2.4257500      -1.1582500       341.26900       2.0278184     0.022063996
       1790.0000       288.60961       98811.481       15069.903       5.2615000      -1.8395000     -0.16350000       341.17200       1.9526692     0.014458167
       1795.0000       288.59072       98814.896       15055.712       3.1532500      -1.1730000     -0.19875000       341.56500       1.8269702     0.019873843
       1800.0000       288.55397       98829.438       15064.059       3.9212500     -0.95950010      0.17375000       340.99300       1.9094332     0.019656077
       1805.0000       288.53401       98834.508       15036.554       3.8837500     -0.62825000     -0.32200000       341.12800       1.9437700     0.018794542
       1810.0000       288.47878       98848.675       14931.045       3.8275000      -1.7037500   -0.0052500000       340.99700       2.0203745     0.024608062
       1815.0000       288.50478       98847.489       14946.751       4.1122500     -0.92600010      0.39800000       341.38800       1.8448294     0.027085437
       1820.0000       288.60117       98828.132       15018.758       3.5147500     -0.64575000     0.052000000       341.17200       1.9819195     0.013362121
       1825.0000       288.62214       98828.678       15069.142       2.6500000     -0.98950000      0.61625000       341.87700       2.0047150     0.017052468
       1831.0000       288.67526       98835.881       15203.529       3.2667500       1.5115000     -0.57175000       341.46800       1.9386511     0.017555211
       1836.0000       288.63126       98833.787       15223.211       2.7015000      -1.1852500    -0.052500000       341.85900       2.0374050     0.028473803
       1841.0000       288.49598       98837.930       15192.042       3.3837500      0.33775000    -0.034750000       341.75300       2.3130438     0.026196354
       1846.0000       288.44699       98832.262       15168.672       3.1002500     -0.81225000     -0.88450000       341.35300       2.2305892     0.017381847
       1851.0000       288.38224       98811.079       15111.232       2.4572500     -0.56575000      0.48675000       341.81100       2.9947960     0.024012805
       1856.0000       288.41603       98829.960       15098.744       3.2460000     -0.70825000      0.22125000       341.37000       2.4670888     0.027899239
       1861.0000       288.44493       98832.505       15072.167       4.9040000     -0.67375000     -0.16625000       341.14900       2.6152765     0.023480267
       1866.0000       288.53041       98832.111       15058.723       4.4890000      -1.0955000     -0.29975000       341.35300       2.7715059     0.019924943
       1871.0000       288.56256       98832.503       15022.580       4.6555000      -1.5990000     -0.13925000       341.32700       2.2913062     0.017663617
       1876.0000       288.57007       98827.978       14969.683       2.1305000      0.35275000      0.26650000       341.69000       1.9246305     0.026133064
       1881.0000       288.55075       98805.652       14877.474       2.4810000      -1.1897500     -0.22750000       341.20600       2.2096911     0.015048533
       1886.0000       288.56063       98808.666       14862.306       2.8992500      -1.3682500    -0.056500000       341.63400       1.8499260     0.030000655
       1891.0000       288.54434       98827.024       14855.679       2.7480000     -0.94850000     -0.15550000       342.05700       2.0609244     0.019464820
       1896.0000       288.57049       98822.169       14918.091       2.7292500     -0.81650010     -0.12725000       341.79600       2.2189365     0.018499529
       1901.0000       288.60068       98825.093       14965.770       4.4150000      -1.5622500     -0.39175000       341.10500       2.6569732     0.019729245
       1906.0000       288.63024       98823.865       14985.968       4.3990000     -0.89850000    -0.099750000       341.38800       2.0532565     0.024152193
       1911.0000       288.65004       98823.595       15040.154       3.8807500     -0.57075000     -0.30450000       341.24500       2.0168741     0.013658783
       1916.0000       288.70011       98843.232       15153.079       1.9457500     -0.18075000      0.49100000       342.06900       1.9754239     0.018309982
       1922.0000       288.71238       98844.464       15224.212       3.2297500     -0.72125010      0.21600000       341.26400       1.9430976     0.017431825
       1927.0000       288.66704       98816.322       15303.032       3.3900000      0.76725010      0.27725000       341.05400       2.0294490     0.031752887
       1932.0000       288.64720       98811.951       15321.637       4.5337500      0.31850000     0.051000000       341.27000       2.0041578     0.021692821
       1937.0000       288.59627       98812.314       15233.878       4.1747500     -0.64950000    -0.057250000       341.26400       2.1212132     0.019290525
       1942.0000       288.58869       98812.870       15202.704       2.8877500     -0.97500000      0.26700000       342.02700       2.3827326     0.015883139
       1947.0000       288.64851       98839.511       15191.918       4.5370000      -2.1410000     0.041500000       340.96600       2.2072198     0.018829743
       1952.0000       288.65751       98845.654       15150.393       4.1885000      -1.7547500      0.78575000       341.38400       2.0651757     0.017828315
       1957.0000       288.64207       98825.773       15095.208       3.5215000     -0.20775000     -0.37450000       341.48900       1.9744074     0.018425830
       1962.0000       288.65206       98823.175       15069.469       4.5105000      -1.1922500      0.13650000       341.25600       1.8890229     0.019622268
       1967.0000       288.61359       98827.729       14982.903       2.8090000     -0.67600010      0.38325000       341.87300       1.9724928     0.015404240
       1972.0000       288.63779       98824.762       14988.891       4.3312500      0.27300000      -1.1912500       340.89600       1.9775430     0.027561968
       1977.0000       288.77175       98829.834       15121.895       3.7987500     -0.81375000      0.13675000       341.22300       1.9308937     0.022538526
       1982.0000       288.81907       98827.170       15183.705       4.5372500      -1.7275000      0.46325000       341.27100       1.9691584     0.021569544
       1987.0000       288.86017       98799.104       15263.420       4.5390000      -1.5562500       1.8690000       341.39100       1.9523315     0.014499127
       1992.0000       288.86662       98794.933       15318.559       4.8342500      -1.2542500     -0.38725000       340.76500       1.8832261     0.021512378
       1997.0000       288.77522       98816.610       15295.852       3.4377500      -3.2185000     -0.44200000       341.15500       1.8408884     0.022429165
       2002.0000       288.73692       98817.281       15322.333       2.2320000      -1.2022500       1.0292500       342.01400       1.8705996     0.021069688
       2007.0000       288.72444       98814.250       15414.795       3.6460000     -0.20750000     -0.61550000       340.99700       1.8796178     0.019663006
       2013.0000       288.68893       98817.321       15438.657       3.6902500      0.42875000     -0.31525000       341.85400       1.8826122     0.018831070
       2018.0000       288.67655       98800.117       15469.764       3.9537500      0.74725000      0.52825000       342.56100       2.2210322     0.020673243
       2023.0000       288.64266       98802.294       15423.283       3.6180000      0.73825000     -0.23625000       341.57700       2.9272804     0.015709131
       2028.0000       288.56809       98834.929       15265.629       4.6942500      0.11650000     0.093500000       341.25600       2.2116762     0.018096176
       2033.0000       288.53180       98840.268       15166.038       4.2530000     0.056250000    -0.085750010       342.11200       1.9308958     0.026000631
       2038.0000       288.50483       98829.445       15050.885       3.7130000     -0.22125000     -0.21175000       341.30300       2.3896393     0.017779918
       2043.0000       288.48833       98830.420       14945.752       2.5015000      0.23650000      0.60250000       341.61800       2.5355366     0.025266023
       2048.0000       288.51332       98823.767       14864.768       3.9135000     -0.51450000      0.38575000       341.68600       2.6809320     0.017871348
       2053.0000       288.49988       98823.309       14777.689       3.9180000    -0.089750010      0.43225000       341.62200       2.7452796     0.019106219
       2058.0000       288.46338       98843.016       14659.936       3.4410000    -0.018750000      0.17275000       341.87200       2.7245471     0.018636708
       2063.0000       288.44361       98843.714       14590.093       3.2685000     -0.32675000      0.20225000       341.86200       2.4306000     0.026139840
       2068.0000       288.40506       98825.219       14539.818       2.3027500     -0.73975000      0.33675000       342.13700       2.4049363     0.023987038
       2073.0000       288.38862       98823.465       14515.972       3.7792500     -0.74975000     -0.28150000       341.53400       2.7890214     0.024394294
       2078.0000       288.39975       98823.323       14537.080       4.3427500      -1.9185000     -0.31025000       341.19200       2.1660439     0.024941360
       2083.0000       288.39963       98824.447       14544.249       5.1820000      -2.8410000     -0.60375010       341.03900       1.9003890     0.016444502
       2088.0000       288.37458       98839.042       14546.644       3.9820000     -0.98325000      0.61600010       341.59800       1.8346651     0.024060650
       2093.0000       288.40226       98843.937       14586.937       3.5005000      -1.7210000      0.33800000       341.55900       2.0101764     0.018361820
       2098.0000       288.47598       98839.106       14646.267       3.5422500      -1.8367500      0.37850000       341.65200       1.8978947     0.017702574
       2104.0000       288.52362       98840.898       14724.963       2.6700000      -1.5050000     -0.18200000       341.97400       1.9732511     0.015503120
       2109.0000       288.59875       98849.262       14832.221       3.2890000      -1.8942500      0.97000000       341.87500       1.8714760     0.026974840
       2114.0000       288.62617       98844.798       14921.479       4.4715000      -3.0030000      0.33625000       341.62700       1.8491055     0.025159411
       2119.0000       288.61130       98828.961       15028.236       2.8310000      -1.9550000      0.24575000       341.80700       1.9503087     0.021521477
       2124.0000       288.59517       98828.837       15072.533       4.2700000      -1.5910000     -0.15500000       341.17500       1.8870737     0.019087954
       2129.0000       288.53443       98828.602       15077.807       1.3447500      -1.3010000     -0.22875000       341.69400       1.8907854     0.025751060
       2134.0000       288.54638       98829.431       15106.833       3.8745000      -2.7967500     -0.25800000       341.89700       1.8378646     0.023541632
       2139.0000       288.59619       98849.212       15113.955       4.9652500      -2.3342500    -0.019750000       341.51000       1.9212576     0.017920643
       2144.0000       288.60614       98847.853       15103.097       2.8877500      -1.5490000      0.18800000       342.02500       1.8695727     0.018185271
       2149.0000       288.65752       98823.438       15113.975       2.9632500      -1.1832500      0.15825000       341.64200       1.8838684     0.017626829
       2154.0000       288.66445       98822.673       15090.738       5.2110000      -1.9385000      0.48000000       341.08900       1.8538684     0.027426998
       2159.0000       288.60095       98831.800       14993.484       4.0587500      -1.8192500   -0.0045000000       341.08500       2.0295932     0.014610405
       2164.0000       288.58709       98829.092       14964.783       3.1010000     -0.36850000      0.44300000       341.42500       1.8205283     0.039800457
       2169.0000       288.63310       98829.530       14996.756       3.4625000      -1.1065000     0.047750000       341.28800       2.0497433     0.018726017
       2174.0000       288.58446       98831.913       14953.888       3.8612500      -1.4012500     -0.20150000       341.26600       1.9977436     0.017111597
       2179.0000       288.47367       98823.266       14885.885       4.1912500     -0.57700000      0.35900000       341.39900       2.0145572     0.020726417
       2184.0000       288.41429       98823.833       14835.623       3.6385000     -0.61125000     0.091750000       341.34500       1.7761805     0.028663466
       2189.0000       288.29119       98843.547       14716.355       3.8777500     -0.62625000     -0.10500000       341.25600       1.9158285     0.017981470
       2195.0000       288.26683       98841.896       14696.470       3.1915000      0.62775000      0.46900000       341.35300       1.8044761     0.022919778
       2200.0000       288.35418       98822.897       14767.049       4.9140000     -0.16850000     -0.54175000       341.26600       2.0666084     0.033370499
       2205.0000       288.35528       98824.407       14770.917       2.9302500      0.43225000     -0.39100000       341.39400       1.7829426     0.035737981
       2210.0000       288.35728       98830.651       14783.921       3.3672500      0.39200000      0.52600000       341.48800       2.0935796     0.021294478
       2215.0000       288.34895       98829.610       14795.275       4.8975000      -1.7025000     -0.50075000       341.49500       1.7788755     0.040036857
       2220.0000       288.28737       98837.709       14768.354       3.2360000       2.3562500      0.22325000       341.47600       2.1402979     0.045667343
       2225.0000       288.29452       98836.333       14785.183       4.9962500      -1.2867500     -0.43900000       341.15100       2.6832512     0.025693668
       2230.0000       288.34626       98816.980       14848.572       3.3222500     -0.94550000     -0.38475000       341.35900       2.1599820     0.030810056
       2235.0000       288.36617       98819.318       14868.446       4.2980000      -2.6665000     -0.47875000       341.10900       1.9992610     0.013365555
       2240.0000       288.39356       98837.690       14865.097       3.9690000      -2.0242500      0.43700000       341.40500       1.8416306     0.018215751
       2245.0000       288.42348       98836.141       14897.268       3.6372500     -0.53075000      0.68725000       341.73800       1.8757226     0.019769201
       2250.0000       288.44591       98829.064       14932.170       5.9877500     -0.81175010     -0.31950000       340.89200       2.1433758     0.021494143
       2255.0000       288.46586       98831.948       14972.181       4.1917500      -1.2715000      0.60125010       341.42500       1.9177705     0.018788154
       2260.0000       288.51165       98828.446       15062.559       6.0107500     -0.80600010     -0.55725000       340.99500       1.8662393     0.020516910
       2265.0000       288.50401       98830.000       15063.294       3.8975000     -0.21075000      0.15225000       341.35400       2.0046283     0.030515190
       2270.0000       288.46291       98849.432       15019.554       2.4740000      -1.0785000    -0.025750000       341.59800       2.0029066     0.014886066
       2275.0000       288.42444       98846.189       14983.041       3.2135000     -0.15350000     -0.13200000       340.93800       2.0512626     0.023224967
       2280.0000       288.35162       98822.900       14896.835       4.0195000      0.29050000     -0.46125000       340.96000       1.9190753     0.027671953
       2286.0000       288.31597       98824.156       14847.068       4.1592500      0.47950000      0.14050000       341.11300       1.9401155     0.015900997
       2291.0000       288.29370       98830.601       14830.113       3.3432500     -0.89525000      0.33225000       341.11800       1.9467219     0.028266654
       2296.0000       288.28501       98827.439       14782.037       3.4810000     -0.42625000    -0.051500000       341.53800       2.0650281     0.018604437
       2301.0000       288.29993       98830.132       14728.667       2.8702500     -0.55150000     -0.50950000       341.23400       2.4073889     0.017858395
       2306.0000       288.28559       98834.416       14629.150       4.4635000       1.1650000      0.17875000       341.03900       2.0112353     0.021880893
       2311.0000       288.29440       98830.509       14592.090       3.3012500     -0.23725000      0.25875000       341.17400       2.3393481     0.023425060
       2316.0000       288.33016       98830.859       14609.613       3.9230000     -0.90100000    -0.037500000       341.11100       2.1937321     0.018221971
       2321.0000       288.34993       98832.202       14621.198       4.6475000     -0.18125000      0.17650000       341.14600       2.0851613     0.018060940
       2326.0000       288.36964       98829.850       14651.018       3.9297500     -0.39075000     -0.24925000       340.91600       1.7717129     0.039214366
       2331.0000       288.41294       98810.776       14733.607       2.9765000      -1.9312500     0.026250000       341.26400       1.8629545     0.022189802
       2336.0000       288.39990       98815.854       14757.743       4.0552500      -1.5985000     -0.62225000       341.30400       1.9384813     0.021113016
       2341.0000       288.34966       98838.215       14756.198       4.3830000      -2.6665000     -0.47925000       341.29900       2.0511480     0.019230194
       2346.0000       288.32982       98827.823       14783.817       4.6695000      -1.2620000     -0.31275000       341.36800       1.8170714     0.025331399
       2351.0000       288.29977       98829.670       14786.510       4.9115000      -2.5222500     -0.75800000       341.42900       1.7526642     0.039907437
       2356.0000       288.29963       98834.235       14810.821       4.1867500     -0.51850000      0.12650000       341.56700       1.9166952     0.015797384
       2361.0000       288.26213       98830.301       14778.350       5.0160000     -0.18375000     -0.37900000       340.87200       1.8139745     0.015729277
       2366.0000       288.15524       98826.193       14663.967       3.8177500      -1.1085000      0.33175000       341.34600       1.9511029     0.015158306
       2372.0000       288.08382       98830.842       14565.592       2.4095000      0.46150000      0.26050000       341.48200       1.7280047     0.032925534
       2377.0000       288.00441       98828.967       14447.034       5.4022500      -1.2435000     -0.23750000       341.13200       1.9996326     0.020475601
       2382.0000       287.97798       98828.375       14362.821       3.5747500     -0.73300000      0.19250000       341.29000       2.0891021     0.015726373
       2387.0000       288.04760       98845.476       14332.563       5.6127500      -2.1577500    -0.055500000       341.10000       2.0454353     0.020088030
       2392.0000       288.05626       98848.734       14273.251       4.6287500      0.39150000     0.018000000       340.94800       1.8412167     0.016883536
       2397.0000       288.05549       98829.927       14182.536       3.2595000     -0.91475000      0.67375000       341.26100       2.8280252     0.015317940
       2402.0000       288.05423       98827.235       14134.472       3.5677500     -0.43325000     -0.41150000       341.31200       3.3857015     0.017966611
       2407.0000       288.00985       98838.111       14098.049       3.5980000     -0.16200000    -0.064750000       341.27300       2.6034920     0.021727898
       2412.0000       287.99136       98835.842       14075.269       5.0270000      -1.5292500     -0.31225000       341.21400       2.3748610     0.019307215
       2417.0000       288.01456       98828.298       14111.707       4.7555000      -1.3862500     -0.22200000       341.04000       2.4355694     0.021307533
       2422.0000       288.00301       98830.448       14111.284       3.8417500     -0.52525000      0.38150000       341.14400       2.0691326     0.015128611
       2427.0000       287.95210       98832.134       14069.142       3.1497500     -0.61900000      0.11700000       341.21100       2.0061764     0.016208478
       2432.0000       287.94357       98829.234       14072.730       4.0635000     -0.97675010      0.21400000       341.39200       1.9162547     0.025539374
       2437.0000       287.93043       98833.268       14076.018       3.2322500    -0.082500000     -0.41875000       341.25700       1.8240097     0.033533480
       2442.0000       287.94292       98837.007       14108.501       3.8682500   -0.0085000000       1.7315000       341.35600       1.9294625     0.015490451
       2447.0000       288.02489       98829.788       14210.838       3.4670000      -1.4637500     0.021250000       341.15700       1.8189167     0.034191056
       2452.0000       288.06312       98828.147       14275.145       4.0130000      -1.2960000     -0.10425000       341.11600       2.0205796     0.025417096
       2457.0000       288.09043       98841.226       14337.016       4.6242500      -1.7850000     -0.83625010       341.10000       1.9114199     0.019635071
       2463.0000       288.11135       98842.438       14398.610       3.1840000     -0.95325010     -0.58225000       341.05900       1.9623767     0.014659068
       2468.0000       288.10004       98828.976       14431.873       3.5280000      -1.3425000     0.051750000       341.12500       1.9430503     0.016545524
       2473.0000       288.10004       98829.185       14459.948       4.0532500      -1.9590000      0.12875000       340.83300       1.8377508     0.016626065
       2478.0000       288.11270       98837.812       14500.411       4.4152500      -3.0017500     -0.61825000       340.76100       1.9638699     0.017847400
       2483.0000       288.09885       98835.008       14497.997       4.0220000      -2.2777500      0.21125000       341.04500       1.8354697     0.027244807
       2488.0000       288.04885       98828.390       14437.254       3.4147500      -1.6410000     -0.55025010       340.94800       1.9644051     0.019634126
       2493.0000       288.04243       98830.754       14426.650       3.1347500     -0.65675000     0.096500000       341.12300       1.9666234     0.022216193
       2498.0000       288.02976       98831.426       14392.904       2.7432500      -1.0062500     -0.67600010       341.18400       1.9532024     0.016794292
       2503.0000       288.04706       98828.836       14411.111       3.1032500      -1.7587500     -0.48375000       341.00800       1.9946981     0.017852309
       2508.0000       288.14574       98834.523       14522.194       2.8380000      -1.9727500      0.35700000       341.04900       1.9143780     0.022507269
       2513.0000       288.16794       98837.752       14558.448       4.0945000      -1.4312500     0.099250000       340.85900       2.0215471     0.021196911
       2518.0000       288.14421       98829.643       14559.067       3.5012500      -2.5055000      0.15700000       341.00400       1.9705874     0.020148680
       2523.0000       288.15451       98828.837       14597.205       4.1135000      -1.8357500     -0.13650000       341.04500       1.9558635     0.023184359
       2528.0000       288.13080       98841.827       14601.917       3.7105000      -1.2562500     -0.23375000       341.04800       1.9199383     0.019278483
       2533.0000       288.14820       98842.357       14654.285       3.6267500      -1.4137500     -0.72100000       341.03600       2.0167837     0.021256815
       2538.0000       288.25955       98828.821       14811.298       2.9547500      -1.1727500     -0.17300000       341.07300       1.9699935     0.020321555
       2543.0000       288.26799       98828.985       14866.313       2.2750000      -1.0127500      0.27150000       341.19300       1.9921881     0.016586093
       2548.0000       288.21875       98836.545       14872.953       1.6170000     -0.86600010      0.43250000       341.29500       1.8486564     0.022127363
       2554.0000       288.18898       98834.773       14895.275       2.7657500    -0.054750000     0.075500000       341.16600       1.9401055     0.015945146
       2559.0000       288.07792       98834.263       14835.231       3.4225000      -1.3360000     -0.58925000       341.11100       1.8743765     0.017233448
       2564.0000       288.08336       98837.245       14865.240       4.3217500     -0.57050000     0.085000000       341.03600       1.8938103     0.020738587
       2569.0000       288.18363       98837.494       14971.282       4.2660000     -0.99625000      0.14925000       340.96600       1.9456119     0.019916687
       2574.0000       288.22372       98832.777       15015.842       3.7112500     -0.65050010    0.0062500000       340.98800       2.0845133     0.017616554
       2579.0000       288.29891       98828.545       15076.833       3.6412500     -0.89550010     -0.73975000       340.99100       1.9217051     0.014746601
       2584.0000       288.32693       98831.142       15100.424       3.8797500     -0.10100000      0.45150000       341.06700       1.9203497     0.035925077
       2589.0000       288.32233       98830.921       15065.158       4.0280000     -0.90725000     0.040500000       341.03100       2.1396189     0.031038189
       2594.0000       288.28993       98828.619       15065.904       3.7955000      -1.1890000     0.016000000       341.14200       2.0709709     0.020813843
       2599.0000       288.22999       98831.913       15095.099       3.0882500      -1.3552500      0.13325000       340.99600       1.9653934     0.024801320
       2604.0000       288.17350       98839.563       15069.562       3.4977500      -1.3192500     -0.28025000       340.93300       2.0046688     0.019834455
       2609.0000       288.06042       98844.769       15026.588       3.6500000     -0.93950000    -0.078500000       341.02700       2.2496358     0.037121873
       2614.0000       288.01289       98845.686       14971.732       2.8217500     -0.45125000      0.20475000       341.15800       1.9578165     0.016134690
       2619.0000       287.98950       98856.143       14847.234       3.3662500     -0.14925000      0.63200000       341.24500       2.0507327     0.018751414
       2624.0000       287.99196       98858.701       14802.726       3.3797500      0.44650000      0.58650000       341.10000       1.9459465     0.030743930
       2629.0000       288.04220       98845.954       14789.693       3.7372500    -0.083750000      0.18625000       340.99900       1.9959580     0.023164438
       2634.0000       288.06200       98842.319       14782.602       4.0665000      0.43575000     -0.40450000       340.90800       2.0541391     0.015690830
       2639.0000       288.12194       98845.964       14831.335       3.0142500      -1.4815000      0.60750000       341.15500       1.9839168     0.015904644
       2645.0000       288.09568       98845.088       14827.903       2.9912500      -1.6997500      0.29525000       340.98400       1.7892031     0.024921265
       2650.0000       288.01881       98839.058       14810.800       4.0412500      0.52425000     -0.22375000       340.95600       1.8925011     0.017156637
       2655.0000       287.95930       98839.829       14783.192       3.9777500     -0.69675000     0.095500010       340.94800       1.8057434     0.024995810
       2660.0000       287.84080       98847.609       14721.748       2.3937500      0.43900000      0.10575000       341.16900       2.0486730     0.023040831
       2665.0000       287.81713       98844.049       14707.060       3.7132500      0.43100000      0.26650000       341.09700       1.9742058     0.019739183
       2670.0000       287.85220       98833.819       14720.516       2.3315000      -1.3070000      0.17250000       341.30200       1.9619271     0.016163916
       2675.0000       287.84224       98834.535       14686.147       2.3455000      -1.2332500     -0.25650000       341.20800       2.0193131     0.023788822
       2680.0000       287.85676       98836.868       14648.050       2.2690000      -1.0665000    -0.085000000       341.32000       2.0123113     0.015394815
       2685.0000       287.84790       98832.048       14613.908       2.3417500      -1.0435000     -0.22950000       341.26700       1.9556486     0.018148661
       2690.0000       287.81593       98829.510       14560.741       3.5105000     -0.72450010     -0.17300000       341.04900       1.8605234     0.021878654
       2695.0000       287.76686       98832.440       14483.999       2.9185000      -1.4032500     -0.19000000       340.91900       1.9350210     0.019870688
       2700.0000       287.69926       98828.529       14400.879       2.5585000      -1.0795000    0.0095000010       341.03500       2.0813301     0.023821991
       2705.0000       287.67818       98830.169       14348.492       3.2405000      -1.4677500     -0.19700000       341.07100       2.0697029     0.029110737
       2710.0000       287.64857       98845.934       14266.633       2.5812500      -2.1812500     -0.61825000       341.00000       1.9745953     0.023379238
       2715.0000       287.62705       98850.280       14216.041       2.6482500     -0.69125000      0.76475010       341.17400       1.8554664     0.019560174
       2720.0000       287.64840       98848.207       14214.507       4.1200000      -1.2482500     0.039250000       340.92800       1.9893875     0.017181589
       2725.0000       287.65854       98841.646       14204.054       3.8890000      -1.1552500      0.15950000       341.03500       2.0146773     0.018366853
       2730.0000       287.65236       98828.666       14184.908       4.6560000      -2.1537500     -0.35875000       341.01000       1.9858093     0.019181441
       2736.0000       287.64064       98829.858       14161.514       3.2860000      -1.4345000    -0.041500000       340.97200       1.8013746     0.029860991
       2741.0000       287.65750       98830.449       14170.881       2.5192500     -0.79325000      0.61200000       340.93200       1.8862271     0.015371853
       2746.0000       287.64601       98826.606       14154.130       4.4792500     -0.53675000     -0.11925000       340.94700       1.9019076     0.022982676
       2751.0000       287.58840       98830.205       14095.153       3.8320000      -1.2755000      0.77325000       340.97300       1.9717201     0.022482961
       2756.0000       287.64521       98832.852       14156.226       3.8322500      -1.3577500      0.14350000       340.88500       1.9335538     0.018753214
       2761.0000       287.65692       98829.729       14183.644       5.3020000      -2.2530000     0.011000000       340.88200       1.9975346     0.017507745
       2766.0000       287.66997       98831.034       14260.991       4.3320000      -2.4215000      0.14675000       340.89300       1.8548689     0.017274481
       2771.0000       287.66244       98836.222       14272.305       4.8762500      -1.6790000     -0.58850000       340.84200       1.8899403     0.018648702
       2776.0000       287.63033       98840.202       14239.657       3.1152500      -1.4380000      0.32750000       340.75600       1.8543609     0.021180701
       2781.0000       287.53761       98835.029       14136.789       3.0140000     -0.50275000      0.17550000       340.87200       1.8816581     0.018529460
       2786.0000       287.53028       98832.075       14104.481       4.7775000      -3.2137500     -0.32825000       340.94500       2.0490303     0.024907065
       2791.0000       287.53857       98835.275       14050.348       4.2015000      -2.5647500     -0.52850000       340.83900       1.9963044     0.015646460
       2796.0000       287.63025       98838.294       14097.621       4.8990000      -3.0475000      0.36550000       340.77200       1.9585441     0.018426368
       2801.0000       287.66312       98835.310       14103.455       4.0885000      -2.6007500    -0.065000010       340.80200       1.8615174     0.018895283
       2806.0000       287.65523       98832.507       14071.172       4.1527500      -1.1902500     -0.77850000       340.83800       1.9098216     0.024993067
       2811.0000       287.65640       98835.565       14060.463       5.5967500      -2.3077500      0.21425000       340.75500       1.9345601     0.017069781
       2816.0000       287.60005       98835.277       14017.648       2.0420000      -1.6447500      0.54025000       340.89500       1.8557631     0.024463519
       2821.0000       287.58748       98834.030       14017.487       3.6975000      -1.6542500      0.26800000       340.81000       1.9338992     0.021941542
       2827.0000       287.63365       98842.575       14087.917       4.3520000      -2.6850000      0.33425000       340.89700       1.9175303     0.020625891
       2832.0000       287.65390       98847.266       14126.586       3.0105000      -1.7617500      0.79775010       340.87400       1.9157515     0.019943481
       2837.0000       287.69004       98846.170       14184.079       4.6037500      -1.8065000     -0.18600000       340.80800       1.9487064     0.035693026
       2842.0000       287.70915       98845.217       14222.630       4.1222500      -1.7765000     -0.21300000       340.87400       2.0762764     0.020282214
       2847.0000       287.67146       98845.868       14198.605       4.5085000      -2.8630000     -0.45150000       340.77500       1.9394147     0.017303113
       2852.0000       287.69340       98845.732       14240.197       3.8737500     -0.58975010      0.27500000       340.90000       1.9356858     0.016120504
       2857.0000       287.76848       98841.331       14336.107       3.2492500      0.56725000      0.18850000       340.91200       1.9171792     0.017600832
       2862.0000       287.80833       98839.521       14401.860       4.6510000       1.1982500     -0.45700000       340.71200       1.8558769     0.020446300
       2867.0000       287.89526       98840.436       14529.048       2.9085000      -1.0155000      0.59850000       340.81100       2.1053936     0.025201158
       2872.0000       287.92086       98840.479       14582.417       4.2867500      -1.7030000    -0.041500000       340.66600       1.9833517     0.018534315
       2877.0000       287.86590       98838.779       14553.626       3.7242500      -1.0365000     -0.21225000       340.74100       1.8883147     0.016426075
       2882.0000       287.84588       98839.893       14552.988       2.6055000      -1.3942500    -0.059500000       341.00100       2.0738802     0.018743796
       2887.0000       287.79502       98845.001       14510.576       1.1130000      -1.5372500      0.31000000       340.92200       2.0137884     0.018935629
       2892.0000       287.78717       98845.847       14509.777       1.8482500      -1.0422500      0.42175000       340.91700       1.9755323     0.017663003
       2897.0000       287.84851       98846.001       14585.080       2.0357500     -0.79300000      0.31300000       341.01600       2.0736280     0.021812634
       2902.0000       287.85703       98845.883       14586.610       2.8985000      -1.3775000    -0.041500000       340.97000       2.0129242     0.017682304
       2907.0000       287.85650       98839.926       14555.795       3.6952500     -0.18525000     -0.41950000       340.93500       2.1025944     0.029236254
       2913.0000       287.85372       98839.344       14529.912       3.8597500     -0.18425000     -0.23075000       340.89200       1.9581319     0.024073063
       2918.0000       287.80506       98844.008       14439.701       2.9915000     0.029750000      0.12250000       340.96800       2.0027673     0.017477316
       2923.0000       287.78879       98846.004       14411.336      0.93650010     -0.47100000      0.88650010       341.14400       2.1656560     0.025929115
       2928.0000       287.79992       98851.000       14435.036       3.5970000     -0.45525000     0.043750000       341.00900       1.9475503     0.018561185
       2933.0000       287.79988       98851.234       14441.461       2.9747500     -0.44550000     -0.18275000       340.93800       2.0597595     0.026450005
       2938.0000       287.80041       98844.974       14459.775       2.1902500      0.10525000      0.21000000       340.96300       2.2907046     0.019499810
       2943.0000       287.80065       98844.255       14474.039       4.1812500      -1.1142500      0.15175000       341.01600       1.9653301     0.023129491
       2948.0000       287.81324       98844.608       14489.946       4.2540000     -0.83300010     -0.14100000       340.86100       1.8007660     0.027370618
       2953.0000       287.79976       98844.981       14498.624       3.5497500      -1.7005000     -0.73200010       340.66100       2.0287520     0.023358018
       2958.0000       287.76247       98851.066       14511.912       3.7382500     -0.86750010      0.53150000       340.83300       2.2255467     0.040869515
       2963.0000       287.74230       98851.240       14508.382       3.2577500      -1.4987500     -0.12425000       340.83400       1.8726036     0.017748984
       2968.0000       287.70505       98845.224       14491.608       2.8447500     -0.11850000     0.042250000       340.98600       2.0000323     0.026236675
       2973.0000       287.68852       98844.632       14470.101       4.6292500     -0.74800000     -0.22050000       340.84800       2.0482148     0.016796483
       2978.0000       287.68735       98845.818       14423.057       2.7610000     -0.79450010   -0.0072500000       340.98600       2.0217420     0.018628907
       2983.0000       287.70115       98844.811       14404.470       3.6865000     -0.88725010     -0.67000000       340.88600       1.9430126     0.017779811
       2988.0000       287.73803       98842.072       14397.013       3.1700000      -2.1857500     -0.38225000       340.87100       1.9486153     0.017589697
       2993.0000       287.75762       98845.783       14387.750       2.6980000      -1.5620000     0.064500000       340.85400       1.9431705     0.018510303
       2998.0000       287.80791       98858.775       14409.153       3.7520000      -1.1940000     0.077250000       340.93100       2.0451215     0.023888888
       3004.0000       287.80805       98855.326       14393.187       2.6955000     -0.20025000      0.10475000       341.00100       2.0385565     0.020050010
       3009.0000       287.75863       98843.511       14346.761       2.4265000      -1.1707500     0.048500000       340.97300       2.0333259     0.017394040
       3014.0000       287.73839       98845.668       14330.735       3.5720000      -1.4975000      0.12150000       340.89500       2.1223956     0.039104018
       3019.0000       287.69026       98847.324       14298.489       3.7527500      -1.6280000   -0.0050000000       340.87500       2.1474568     0.056892091
       3024.0000       287.69265       98842.228       14311.203       4.8105000     -0.31800000      0.38700000       340.85500       2.1048507     0.054126986
       3029.0000       287.75411       98842.921       14386.404       4.3042500     -0.56850000     0.032000000       340.84900       1.8133820     0.018602988
       3034.0000       287.75818       98847.888       14400.613       3.5922500     -0.83300010     -0.27725000       340.96700       1.7353060     0.037328848
       3039.0000       287.74609       98847.196       14397.389       1.7880000      0.41975000       1.1535000       341.05200       1.9991787     0.014104785
       3044.0000       287.75604       98842.174       14413.316       4.2825000     -0.64200000     -0.24750000       340.83800       1.9296808     0.022839101
       3049.0000       287.73011       98843.446       14390.892       2.6735000      -1.0765000      0.46175000       341.03600       2.2695062     0.050013459
       3054.0000       287.75305       98848.356       14417.015       3.4567500      -1.1567500      0.32025000       340.86000       2.0728844     0.024396980
       3059.0000       287.84127       98847.315       14506.874       2.9775000     -0.73025010      0.20925000       340.95000       1.5998870     0.043311774
       3064.0000       287.87532       98842.218       14540.665       2.9850000     -0.89175000     -0.72450010       340.85000       2.0333927     0.019227764
       3069.0000       287.91094       98843.169       14572.541       4.1990000    -0.063500000     -0.21400000       340.87400       1.8425696     0.017538570
       3074.0000       287.90877       98848.142       14571.467       2.7225000     -0.80525000      0.36975000       340.98900       1.9855844     0.018528575
       3079.0000       287.85757       98846.986       14520.608       2.2485000     -0.31750000      0.73075000       341.00500       1.8153482     0.026585896
       3084.0000       287.83761       98841.949       14503.475      0.94975010      -1.5812500      0.91150000       341.13900       2.1620882     0.033287061
       3089.0000       287.80113       98846.580       14478.842       2.9465000     -0.95975010     -0.40750000       341.09600       1.8825118     0.029675548
       3095.0000       287.78620       98846.261       14463.746       3.7507500      -2.1192500     -0.18150000       340.93600       1.7483495     0.046404332
       3100.0000       287.80988       98827.815       14488.546       3.5820000     -0.51850000     -0.53075000       340.85000       1.8762015     0.035482184
       3105.0000       287.79096       98826.262       14450.899       2.8150000     -0.25325000    -0.070750010       340.96100       1.8241284     0.018242154
       3110.0000       287.74610       98840.104       14375.997       2.3197500     -0.97600010      0.19300000       341.08000       1.9479060     0.022880683
       3115.0000       287.74524       98844.387       14338.946       3.4462500    -0.035750000     -0.12550000       341.15100       2.0221675     0.019980505
       3120.0000       287.73461       98846.016       14262.608       2.6930000     -0.71125000     -0.36675000       340.93000       2.0607270     0.021756335
       3125.0000       287.76173       98846.224       14270.411       2.9415000     -0.19275000    -0.047000000       341.00300       1.7969639     0.026946640
       3130.0000       287.84903       98845.119       14349.498       2.1622500      0.75475000      0.50950000       341.23000       2.0262072     0.016201491
       3135.0000       287.88005       98846.127       14385.630       2.4515000      -2.3370000      0.48425000       341.16800       2.0935218     0.026949645
       3140.0000       287.90349       98844.495       14449.076       2.9352500     -0.75600000      0.11075000       341.04500       1.9683465     0.017733939
       3145.0000       287.91476       98845.405       14479.139       3.5707500     -0.61225000     -0.59475000       340.79900       2.0793219     0.026129294
       3150.0000       287.88305       98851.462       14461.998       2.5092500      -2.0107500     -0.16025000       341.21200       1.9756341     0.022235714
       3155.0000       287.92104       98850.744       14519.043       3.2375000     -0.76050000      0.23775000       341.20100       1.9407492     0.015561724
       3160.0000       288.00266       98842.781       14616.063       3.7210000      0.37275000     -0.75050000       340.71700       2.3738847     0.051403150
       3165.0000       288.02392       98846.349       14670.192       4.6237500     -0.98325000      0.67400000       341.00100       1.9843068     0.020237257
       3170.0000       288.06009       98858.410       14755.699       4.3060000      0.87225000      0.50300000       340.88200       2.1297036     0.026356574
       3175.0000       288.06244       98853.987       14785.555       4.5702500      0.49125000      0.34850000       340.79900       1.9008179     0.018642591
       3180.0000       287.99730       98843.630       14760.384       3.2830000      -1.0800000      0.63650000       341.16200       1.9329569     0.018149552
       3186.0000       287.98532       98847.120       14748.543       1.6575000     -0.43575000      0.67075000       341.24100       1.9544711     0.016518792
       3191.0000       288.00019       98845.072       14733.912       2.9662500     -0.35150000   -0.0035000000       340.81100       1.9168347     0.023818237
       3196.0000       288.00038       98840.152       14709.035       3.0845000     0.059500000     -0.18900000       341.03700       2.0541788     0.028568678
       3201.0000       288.00024       98845.294       14668.353       3.1005000      0.20625000      0.56800000       341.13300       2.0402872     0.016438422
       3206.0000       288.00029       98850.585       14625.591       2.8535000     -0.83875010    -0.073750000       340.99400       1.8303907     0.025521346
       3211.0000       288.00038       98845.686       14593.983       4.5867500      0.61975000      0.32050000       340.97700       1.9541223     0.028002472
       3216.0000       287.98502       98843.399       14539.323       3.6880000     0.035750000    -0.039500000       340.87600       2.1107361     0.027429603
       3221.0000       287.99382       98846.676       14530.043       2.6820000      0.20900000     -0.44975000       340.93100       2.0673473     0.033409213
       3226.0000       288.01491       98847.495       14547.950       3.2557500    -0.038000000      0.23325000       341.01900       2.1093225     0.025791856
       3231.0000       288.04908       98832.482       14596.418       3.4807500    -0.011750000     -0.22375000       340.90800       1.9181667     0.022972298
       3236.0000       288.06926       98832.107       14631.105       3.3660000      -1.3595000     -0.22900000       340.90400       1.9761611     0.017498740
       3241.0000       288.11785       98846.563       14707.331       3.7007500      0.47025000     0.021500000       340.87400       2.0413114     0.018014644
       3246.0000       288.00916       98844.802       14639.579       2.6245000    0.0030000000      0.52325000       341.01500       2.0744723     0.017923757
       3251.0000       287.98600       98844.662       14645.825       3.1532500     -0.11900000     -0.34525000       341.08400       1.6748659     0.039893876
       3256.0000       288.00488       98853.419       14703.466       3.3957500      0.34675000      0.45275000       341.11800       2.0764019     0.021710137
       3261.0000       287.99401       98852.918       14718.469       2.2890000      0.10200000      0.31150000       341.03800       2.0754914     0.026159958
       3266.0000       288.06966       98833.811       14814.313       2.2960000     -0.35650000     0.063750010       341.12000       2.0465572     0.018726210
       3271.0000       288.07464       98832.188       14819.231       2.1700000      -1.0167500      0.25100000       341.15200       1.9609289     0.019216905
       3277.0000       287.94318       98847.124       14661.078       2.2347500     -0.55350000   0.00025000000       340.99400       2.0987351     0.025648612
       3282.0000       287.88435       98845.858       14581.537       2.8145000      -2.0100000     -0.30400000       340.77900       2.1217767     0.033781166
       3287.0000       287.82076       98848.172       14488.863       3.9362500     -0.60750000     -0.18600000       341.03800       2.0818410     0.032898664
       3292.0000       287.78297       98847.632       14410.571       3.5800000     -0.24075000     -0.54175000       340.81200       1.8718520     0.019149870
       3297.0000       287.77163       98818.150       14345.968       4.5745000     -0.84225000     -0.34325000       340.92000       2.0435904     0.022520123
       3302.0000       287.79368       98814.205       14325.509       3.3797500      -1.1517500      0.34025000       340.98400       1.9655397     0.029185989
       3307.0000       287.86825       98837.478       14327.001       4.0450000      -1.1417500     -0.55800000       340.78200       1.9606897     0.017749327
       3312.0000       287.90780       98847.434       14335.643       3.9785000    -0.064000000     0.052750000       340.88600       2.0656909     0.033059826
       3317.0000       287.98123       98870.028       14417.720       2.3712500     -0.36275000    -0.088750000       341.08700       1.9782961     0.025330623
       3322.0000       288.01850       98875.923       14458.071       3.1852500      -1.4555000     -0.40725000       340.95700       1.9634272     0.017331543
       3327.0000       287.99981       98858.657       14467.050       3.4917500     -0.61075000     0.044250000       340.92200       1.9989685     0.025450664
       3332.0000       287.99972       98853.764       14485.180       3.5585000      -1.0390000    -0.017750000       340.86300       2.0370945     0.020795242
       3337.0000       287.98570       98843.607       14468.520       2.7922500      -1.5527500     -0.22575000       341.05700       2.0709744     0.019189757
       3342.0000       287.99676       98842.114       14505.316       3.0957500     -0.99000010      0.25475000       340.99000       1.9782851     0.020121210
       3347.0000       288.04866       98863.304       14599.936       2.5070000     -0.97950010    -0.010500000       340.98500       2.1404804     0.044345625
       3352.0000       288.05733       98863.483       14654.689       1.9670000      0.20425000     0.076250000       341.23100       1.9358416     0.026370249
       3357.0000       288.05614       98844.339       14750.760       2.5000000     -0.14450000    -0.018250000       341.11000       1.9658168     0.020106540
       3362.0000       288.05493       98843.765       14791.201       1.2755000     -0.87725000      0.70150010       341.04700       1.8862301     0.035712895
       3368.0000       288.01872       98848.331       14777.104       3.4327500    -0.044750000      0.10125000       340.92100       2.0640639     0.027829996
       3373.0000       287.98877       98843.420       14743.229       3.0540000     -0.69825010     -0.22525000       340.78700       2.0155136     0.026454873
       3378.0000       287.96255       98842.418       14664.992       2.1642500     -0.67750000     0.034750000       341.01400       2.0775247     0.029461852
       3383.0000       287.94273       98847.614       14606.868       2.3605000     0.065250000     -0.26700000       340.97800       2.2511943     0.045816397
       3388.0000       287.90437       98845.853       14528.953       3.2660000    -0.014500000     0.057250000       340.95700       2.1122471     0.026831706
       3393.0000       287.88764       98843.578       14462.476       2.5457500     -0.32600000     -0.73225000       340.96600       1.9981181     0.027962498
       3398.0000       287.90003       98855.068       14403.134       2.1452500     -0.30975000    0.0077500000       341.08000       1.9350553     0.028940270
       3403.0000       287.90007       98858.529       14356.114       3.0110000     -0.60800000      0.18850000       341.07700       2.0838302     0.025030669
       3408.0000       287.88694       98845.535       14283.733       2.2292500     -0.41675000     0.045500000       340.92700       2.0375413     0.034103292
       3413.0000       287.90104       98842.697       14275.179       2.0875000    -0.038250000      0.14100000       340.99400       2.2022997     0.048264084
       3418.0000       287.93810       98853.555       14319.450       1.1645000     -0.45475000      0.19525000       341.17800       2.1911903     0.045734710
       3423.0000       287.95816       98851.026       14355.673       1.9742500     -0.12400000      0.49350000       341.15400       1.9220755     0.022291576
       3428.0000       288.00796       98832.184       14455.077       1.4397500     -0.63100000      0.54375000       341.20300       2.1861715     0.036589682
       3433.0000       288.01060       98832.943       14491.054       1.6242500      0.38750000      0.25250000       341.38600       2.0396300     0.028501456
       3438.0000       287.94919       98848.656       14471.474       1.7905000     -0.95850000     0.033250000       341.12800       2.1053242     0.022527726
       3443.0000       287.94326       98845.546       14495.600       1.9795000     -0.26425000      0.23050000       341.25700       2.0759535     0.039077678
       3448.0000       287.94302       98839.869       14520.949       2.4710000     -0.57475000     -0.54225000       341.11200       2.0327382     0.031346640
       3453.0000       287.94657       98841.520       14537.176       2.9127500     -0.18300000     -0.22450000       341.12900       2.0628801     0.028299460
       3459.0000       287.99997       98827.403       14593.815       1.5135000      0.14300000    -0.033000000       341.30400       2.0953790     0.034306279
       3464.0000       288.01396       98827.340       14605.579       3.6010000      -1.0210000     -0.34025000       341.06200       2.2148734     0.048920978
       3469.0000       287.98948       98851.041       14564.837       2.8692500     -0.50725000      0.14875000       341.16000       2.1056351     0.030207444
       3474.0000       288.00606       98855.036       14568.329       2.3542500     -0.53325000     0.081250000       341.03800       2.1101266     0.021884919
       3479.0000       288.03183       98842.518       14585.117       3.3230000    0.0067500000     -0.13650000       340.90800       1.9499890     0.016866043
       3484.0000       288.06815       98845.292       14598.467       3.4932500      -1.0185000     -0.14925000       341.05300       2.0295076     0.022702449
       3489.0000       288.15263       98858.683       14642.248       2.3255000     -0.77825000    -0.092250000       341.13900       1.9588130     0.020779618
       3494.0000       288.17000       98855.280       14637.545       3.5532500      0.41150000      0.30500000       341.08600       1.9134230     0.024147917
       3499.0000       288.15842       98843.519       14597.722       2.9060000      -1.0890000     0.034750000       341.17000       1.9734415     0.026021470
       3504.0000       288.15186       98845.695       14580.855       4.1782500      -2.7482500     0.070500000       341.09400       2.0325407     0.023326215
       3509.0000       288.08984       98843.919       14533.151       2.5100000      -1.8202500     -0.15200000       341.25100       2.0405388     0.031712207
       3514.0000       288.09232       98843.707       14533.734       3.8302500      -1.3467500     -0.13925000       341.03000       2.2198070     0.038660525
       3519.0000       288.14307       98862.617       14583.442       3.2700000     -0.73250000     -0.28600000       341.10000       1.9207111     0.016435829
       3524.0000       288.16330       98863.905       14598.546       2.8470000     -0.21250000      0.14575000       341.02800       2.1787696     0.036687885
       3529.0000       288.19930       98842.893       14612.628       3.7875000     -0.86950000     -0.32150000       341.01900       2.0556165     0.028104833
       3534.0000       288.21272       98843.081       14631.019       2.4970000      -1.2670000     -0.28250000       341.04000       1.9687253     0.016235905
       3539.0000       288.18889       98858.691       14619.821       2.0817500      -1.7427500     -0.60450010       341.17800       2.0116614     0.024736427
       3545.0000       288.20972       98854.065       14669.489       2.8307500     -0.48525000    -0.082500000       340.97500       2.0089186     0.017779424
       3550.0000       288.25389       98843.797       14768.060       3.4815000     -0.37975000    -0.039500000       340.91800       1.9519804     0.020447056
       3555.0000       288.25486       98846.529       14791.006       1.6712500     -0.96475010      0.18975000       341.13900       1.9238393     0.035472564
       3560.0000       288.24836       98843.799       14804.887       2.7477500      -1.4370000     -0.11225000       340.99700       2.0046383     0.035951472
       3565.0000       288.25878       98844.382       14816.298       2.5842500     -0.76750000      0.26425000       341.26400       1.9320304     0.024750535
       3570.0000       288.23430       98863.372       14773.097       2.8667500      -2.1007500      0.12250000       340.96400       1.9665869     0.027135475
       3575.0000       288.26137       98863.195       14778.800       3.7657500     -0.98325000     -0.39200000       341.03300       1.9700894     0.017231852
       3580.0000       288.35809       98842.372       14837.888       3.2705000      -1.6785000      0.19025000       340.98300       1.9546471     0.023864913
       3585.0000       288.37052       98843.729       14828.038       2.9937500      -1.2470000     -0.11800000       340.96700       1.9366650     0.016711983
       3590.0000       288.35805       98858.266       14785.717       3.3427500      -1.2782500     -0.49775000       341.11600       2.0260151     0.017986278
       3595.0000       288.34896       98853.695       14766.070       2.6000000     -0.69450000     -0.29475000       341.25500       2.0632222     0.030561404
       3600.0000       288.28835       98843.713       14714.203       2.7177500     -0.55175000     -0.15475000       341.10600       2.0687950     0.030383282
       3605.0000       288.29583       98846.552       14715.521       2.7090000     -0.91100010      0.73875000       341.19800       1.8486665     0.032184891
       3610.0000       288.35611       98841.883       14771.814       2.4832500     -0.73750000      0.19925000       341.11600       2.0018745     0.026297994
       3615.0000       288.35751       98846.176       14765.543       2.8585000      -1.2997500      0.13950000       341.36300       2.1699800     0.019345946
       3620.0000       288.34824       98876.267       14746.974       2.3727500     -0.19675000      0.26125000       341.36700       2.0691780     0.029460905
       3625.0000       288.35813       98872.435       14734.701       2.9467500     -0.79350010     -0.37925000       341.31400       1.9428682     0.018271541
       3630.0000       288.32508       98842.841       14674.227       2.9360000     -0.26750000      0.24075000       341.28400       2.0717832     0.025453640
       3636.0000       288.38423       98842.759       14698.807       2.4410000     -0.75600000    -0.078250010       340.96500       2.0951422     0.040921056
       3641.0000       288.50408       98843.562       14761.292       2.2490000     -0.11400000    -0.024750000       341.26900       2.1105282     0.032251296
       3646.0000       288.55307       98842.859       14824.667       1.3887500     -0.93025000      0.21100000       341.62200       1.9646384     0.023140535
       3651.0000       288.61144       98857.538       14929.397       1.7895000     -0.39800000     -0.35050000       341.37800       2.1041124     0.027687018
       3656.0000       288.57040       98844.858       14962.300       2.5615000     -0.56375000     0.014750000       341.23200       2.0778851     0.029635232
       3661.0000       288.58753       98842.112       15008.468       2.0975000     -0.12525000      0.13200000       341.29100       2.1181784     0.029807146
       3666.0000       288.66072       98862.343       15055.212       2.4470000     0.049250000     0.077000010       341.54200       1.9293116     0.017694812
       3671.0000       288.70054       98864.020       15078.455       2.1092500      0.14475000      0.37050000       341.65900       2.1873256     0.040347224
       3676.0000       288.74035       98858.309       15093.765       2.4622500     -0.17075000       1.0607500       341.40000       2.0024552     0.024203694
       3681.0000       288.81252       98844.939       15122.774       2.9202500      0.21075000     -0.44450000       341.22900       2.0963544     0.020943403
       3686.0000       288.82957       98842.955       15106.209       2.8452500      0.96325000     -0.31150000       341.39600       2.0436610     0.020063168
       3691.0000       288.80023       98832.574       15046.972       1.6397500    -0.051750000      0.75675000       341.72200       1.8886048     0.018478166
       3696.0000       288.77057       98850.205       14999.701       2.8052500     -0.72175000      0.13150000       341.49400       2.0533999     0.019610272
       3701.0000       288.78786       98854.001       14972.855       3.7632500     0.066500000     -0.14900000       341.42200       2.1603067     0.027802655
       3706.0000       288.86040       98833.736       14972.926       2.8142500     -0.27625000     -0.29000000       341.95400       1.9674158     0.018825284
       3711.0000       288.89998       98832.212       14958.061       2.6335000    -0.062500000     -0.32850000       342.07900       1.8187419     0.022123932
       3716.0000       289.03026       98844.277       14961.501       2.0867500      0.45500000     -0.32900000       341.46500       2.0217777     0.019034302
       3721.0000       289.03808       98845.249       14940.717       3.5367500     -0.52800000     -0.21200000       341.58300       1.9487940     0.021577588
       3727.0000       288.85308       98855.520       14885.157       3.2625000      0.21900000    0.0045000000       341.87000       2.1186305     0.033649959
       3732.0000       288.78444       98858.886       14834.672       2.4260000      -1.1682500     -0.16450000       342.42400       1.9737578     0.027117811
       3737.0000       288.67511       98839.146       14769.975       3.2855000     -0.89550010      0.13225000       342.00300       1.9573769     0.021584576
       3742.0000       288.61937       98836.841       14704.723       2.3085000    -0.048500000      0.23875000       342.41600       2.0037002     0.022717494
       3747.0000       288.67589       98854.900       14614.550       2.6517500     0.016250000     -0.13275000       342.29800       1.9921807     0.022453248
       3752.0000       288.70578       98857.653       14558.599       2.4720000      0.52925000      0.63325010       342.61000       2.1009829     0.022493121
       3757.0000       288.70598       98857.054       14483.388       2.3520000     -0.88300000     -0.49950000       342.28800       2.0879124     0.020477404
       3762.0000       288.74825       98856.612       14476.019       3.5365000      0.12100000     0.027250000       341.20100       2.2024163     0.023921151
       3767.0000       288.87159       98838.776       14560.988       4.5557500     0.077750000    -0.098000000       341.70900       1.7784959     0.021796109
       3772.0000       288.91876       98836.620       14599.570       3.7725000     -0.90975000     -0.78925000       341.33600       2.1767700     0.035387367
       3777.0000       288.93179       98857.552       14644.875       3.1617500     0.062750000     -0.13550000       341.81500       1.9177220     0.021470776
       3782.0000       288.96085       98857.927       14707.595       2.4015000      0.16575000     -0.17350000       342.32200       1.9806462     0.019855130
       3787.0000       288.91650       98845.856       14722.825       3.5832500      0.70725010    -0.074500000       341.98700       1.9580442     0.017339643
       3792.0000       288.94017       98844.794       14800.562       3.7382500      -1.9105000     -0.78125010       342.32500       1.9361185     0.026221939
       3797.0000       289.05925       98832.367       14995.163       4.4442500     -0.95325010    -0.073750000       341.53400       1.9555359     0.025105156
       3802.0000       289.11742       98831.337       15101.397       3.5322500     -0.74075000     0.085000000       342.31100       1.8698045     0.021652538
       3807.0000       289.18016       98861.314       15208.368       2.3320000     -0.43550000     -0.57375000       341.77900       1.9473109     0.013703840
       3812.0000       289.21730       98865.326       15268.839       1.7160000      -1.2527500    -0.097500000       341.78600       1.8656777     0.016698916
       3818.0000       289.18636       98844.027       15229.974       3.5092500      -2.4760000     -0.23925000       341.68600       1.9853864     0.021022473
       3823.0000       289.20004       98844.151       15231.010       2.5952500     -0.80900000      0.43675000       342.44800       1.8940511     0.014182307
       3828.0000       289.21225       98841.923       15222.697       3.7840000      -2.0265000      0.47700000       342.02700       1.8123413     0.026119181
       3833.0000       289.25987       98843.735       15233.241       4.6490000      -2.5427500      0.57025000       341.85800       1.9050291     0.011556185
       3838.0000       289.37251       98874.475       15257.241       2.4692500      -1.7805000      0.55900000       342.72300       2.1142874     0.042143958
       3843.0000       289.42925       98875.985       15292.130       1.8932500     -0.35775000      0.81875000       342.69600       1.7941948     0.015253513
       3848.0000       289.46465       98844.679       15333.098       4.9595000      -3.0385000     -0.41400000       341.23800       2.1187689     0.023247064
       3853.0000       289.52437       98841.550       15394.178       4.6027500      -1.3775000     0.019250000       341.40800       1.7736828     0.020901097
       3858.0000       289.57398       98841.476       15494.610       4.7682500      -1.4792500     -0.36950000       340.94500       2.0264855     0.022194256
       3863.0000       289.61385       98843.514       15561.320       5.4867500      -3.2057500     -0.14425000       341.54900       1.9570611     0.012574151
       3868.0000       289.75302       98873.984       15660.838       3.9295000      -1.1395000      0.28200000       341.92800       1.9829304     0.014496128
       3873.0000       289.71611       98875.222       15684.500       3.9797500      -2.0037500     -0.30400000       341.69000       1.9385274     0.011268509
       3878.0000       289.50604       98844.378       15660.698       2.5152500      -1.1742500      0.14225000       342.54100       1.9059509     0.017406940
       3883.0000       289.40545       98841.113       15607.311       5.0437500      -2.1960000     -0.40100000       341.57900       1.7440442     0.014979471
       3888.0000       289.21083       98844.411       15480.358       4.3942500      -1.4752500    -0.064000000       342.07700       1.8991896     0.012354468
       3893.0000       289.14445       98843.586       15384.383       5.1275000      -1.4820000      0.15625000       341.28300       1.9124216     0.012976103
       3898.0000       289.22510       98863.974       15252.714       4.2347500      -1.5305000     0.027750000       341.07500       1.8478153     0.013501951
       3903.0000       289.25863       98864.002       15171.254       3.9490000     -0.17350000     -0.25150000       342.09500       1.9221457    0.0094770458
       3909.0000       289.34010       98832.325       15107.466       4.4180000     -0.80700000     -0.40225000       341.77300       1.9839260     0.018342704
       3914.0000       289.37376       98831.763       15060.692       4.0615000     -0.40375000      0.27025000       341.74400       1.8559275     0.029355223
       3919.0000       289.38810       98841.661       15037.274       3.2605000     -0.43775000      0.56300000       341.83300       1.9451968     0.018025224
       3924.0000       289.41854       98847.566       15023.491       3.6030000   -0.0020000000      0.33825000       342.11900       1.9506452     0.020992926
       3929.0000       289.46499       98875.534       15025.424       2.4387500     -0.57325010    -0.054000000       342.27600       1.9147148     0.024749382
       3934.0000       289.45285       98874.464       15015.809       2.0380000      -1.0887500      0.31500000       342.74200       1.9926659     0.021329164
       3939.0000       289.39283       98843.754       15001.243       2.2860000     -0.90775010      0.17950000       342.28600       2.0725460     0.019983850
       3944.0000       289.39910       98841.937       15023.375       2.7057500     -0.19550000     0.011750000       342.25500       1.9191385     0.018311190
       3949.0000       289.39584       98843.653       15061.968       2.9512500      -1.1672500     -0.31675000       342.62200       1.8001279     0.019216421
       3954.0000       289.39261       98843.642       15085.948       3.3362500     -0.87275000     0.037500000       342.53600       1.9084823     0.035082682
       3959.0000       289.45639       98864.560       15157.501       2.6297500      -1.0485000      0.10875000       341.45000       2.0722681     0.026059993
       3964.0000       289.46421       98862.539       15165.615       1.5587500     -0.51375000      0.38325000       342.33300       1.8176545     0.022112193
       3969.0000       289.38881       98831.875       15107.687       2.3550000      0.79850010      0.11350000       342.42800       1.9519893     0.019201446
       3974.0000       289.39093       98831.120       15092.640       1.5580000     -0.31925000     -0.50875000       342.32000       2.0392186     0.021644489
       3979.0000       289.40846       98843.780       15053.479       1.9770000     -0.77900000     0.088250000       342.45400       1.8981602     0.025571889
       3984.0000       289.47672       98846.407       15075.043       2.8630000     -0.74750010    -0.050750000       342.22300       1.8916958     0.021827974
       3989.0000       289.63638       98864.767       15155.516       2.7482500     -0.87800000      0.37775000       342.49800       2.0165736     0.020456560
       3994.0000       289.69381       98862.826       15193.706       2.3450000      -1.1032500      0.12275000       341.14400       1.9945216     0.019390803
       4000.0000       289.76326       98831.511       15262.580       2.8267500     -0.30650000      0.47625000       342.32900       1.8562526     0.012273405
       4005.0000       289.77626       98832.703       15293.149       3.1035000     -0.95225010     -0.21375000       342.03500       2.0299880     0.030073399
       4010.0000       289.69769       98844.067       15285.221       2.6380000     -0.31450000      0.46750000       342.32300       1.8569896     0.014071342
       4015.0000       289.68641       98846.855       15304.060       3.5285000     -0.23125000     -0.13300000       341.18700       1.9674305     0.020349856
       4020.0000       289.71817       98865.181       15355.229       5.2222500     -0.53000000     -0.37375000       342.18800       1.7983390     0.027033531
       4025.0000       289.68107       98861.323       15333.649       4.8325000      -1.9185000      0.17075000       341.87300       1.8328634     0.026500510
       4030.0000       289.59913       98831.515       15275.170       4.3960000     -0.99650010     -0.39825000       341.72000       1.9802724     0.018899638
       4035.0000       289.57813       98832.687       15233.289       3.6625000     -0.31875000      0.62425010       342.04300       1.9834078     0.022029926
       4040.0000       289.53006       98842.114       15132.417       3.4955000     0.033250000      0.31950000       341.69100       1.9521090     0.023437048
       4045.0000       289.54724       98848.948       15117.008       4.2490000      0.49850000      0.20075000       341.39200       1.9345183     0.018400348
       4050.0000       289.67454       98876.073       15150.544       2.9927500     -0.41125000      0.46525000       342.30100       2.1737435     0.024972391
       4055.0000       289.64904       98872.311       15169.762       3.3330000     -0.74400000      0.20950000       341.96300       1.7593761     0.027725345
       4060.0000       289.56214       98844.081       15241.144       3.5022500      0.47900000      0.61750000       342.41000       1.9344834     0.020787344
       4065.0000       289.51332       98839.662       15217.674       3.4467500      -1.6897500      0.60300000       341.70300       1.9215429     0.010822984
       4070.0000       289.40856       98830.104       15159.179       2.8435000     -0.36150000      0.26400000       342.24000       1.9746779     0.019700689
       4075.0000       289.33806       98836.187       15087.088       3.1507500     -0.25300000      0.61175000       342.26600       1.8667739     0.013403646
       4080.0000       289.31708       98867.696       14963.684       3.7402500      -1.0242500     -0.29350000       341.78000       1.8776918     0.015943706
       4085.0000       289.25878       98871.509       14848.038       3.7052500     -0.88075010      0.20225000       342.26300       1.9133573     0.019081371
       4091.0000       289.13898       98868.087       14689.543       3.3080000     -0.10850000    -0.095000010       341.75200       2.0728055     0.024053202
       4096.0000       289.10155       98862.468       14610.311       2.8805000      -1.3132500     -0.18850000       341.82100       2.0232621     0.028241159
       4101.0000       289.09395       98841.660       14522.089       3.2292500     -0.92475000     0.044250000       341.88800       1.8362403     0.022718200
       4106.0000       289.08508       98855.364       14513.142       3.1767500      -1.4665000     -0.25425000       342.29500       1.9565722     0.025084288
       4111.0000       289.09352       98856.723       14511.383       2.2070000     -0.44075000      0.26825000       342.31400       1.9695121     0.032581904
       4116.0000       289.16033       98859.987       14533.365       2.3680000     -0.34875000     -0.11025000       342.57200       1.9411938     0.024481713
       4121.0000       289.16273       98858.716       14544.627       3.5225000     -0.76875000     0.017000000       342.56500       1.8134211     0.019772677
       4126.0000       289.14050       98851.306       14559.185       2.7977500      -1.4652500     -0.18175000       341.77900       1.8290505     0.014451981
       4131.0000       289.10105       98825.287       14586.815       1.9952500      -1.2882500      0.48300000       342.55700       1.9965492     0.038189488
       4136.0000       289.09064       98829.506       14612.955       3.5490000     -0.30500000     -0.80525000       341.90900       1.9493016     0.024272490
       4141.0000       289.04482       98845.425       14637.497       3.3587500      -2.2350000     -0.45200000       341.70000       1.9467583     0.018497975
       4146.0000       289.05448       98861.208       14645.476       2.6532500      -1.7292500     0.043500000       342.53500       2.1018872     0.033215568
       4151.0000       289.05574       98865.319       14646.615       3.7527500      -1.8650000      0.10050000       341.77100       1.8775369     0.018222931
       4156.0000       289.01487       98836.739       14604.935       4.1557500      -2.3897500     -0.31000000       341.64000       2.0185710     0.020599545
       4161.0000       288.99402       98831.068       14582.533       5.4867500      -3.2497500     -0.41625000       341.91000       1.8455157     0.018091246
       4166.0000       289.00012       98839.847       14572.699       4.6232500     -0.92675010     -0.38025000       341.88200       1.8154961     0.012665887
       4171.0000       289.00012       98843.417       14564.241       3.6357500      -1.3650000     -0.82225010       341.53800       1.8681741     0.020556414
       4177.0000       288.98564       98869.940       14543.390       2.2895000      -1.1457500      0.13750000       342.28700       2.0037941     0.022847409
       4182.0000       288.99712       98875.916       14557.590       3.1100000      -1.7367500    -0.051500000       341.91600       2.0543964     0.021617386
       4187.0000       289.01978       98858.702       14587.679       3.8020000      -1.2935000     -0.72700010       341.44200       2.1698870     0.030044687
       4192.0000       289.05123       98853.798       14632.160       3.6980000     -0.84200010     -0.34125000       341.78600       1.9499156     0.013009185
       4197.0000       289.12465       98842.426       14727.928       3.8245000      -1.2657500      0.12450000       342.13100       1.9899716     0.017751570
       4202.0000       289.16376       98842.085       14792.475       3.9155000      -1.1327500     -0.19175000       342.07600       1.9126253     0.019278061
       4207.0000       289.19048       98861.077       14854.852       3.8677500     -0.97700010     -0.27075000       341.65500       1.9250530     0.019634075
       4212.0000       289.20905       98867.795       14901.668       3.3187500      -2.0555000      0.21800000       341.94100       1.9538583     0.020048414
       4217.0000       289.18518       98878.418       14904.948       2.3870000      -1.3190000      0.70425000       342.14100       1.9060929     0.012459617
       4222.0000       289.19644       98878.525       14944.044       4.2517500      -1.1017500     -0.12750000       341.53100       1.8450469     0.016684493
       4227.0000       289.24798       98856.836       15009.829       2.6702500      -1.5202500     -0.11625000       341.80800       1.9206433     0.035688689
       4232.0000       289.25666       98852.342       15050.715       3.6120000      -2.5265000     -0.51850000       341.56200       1.9815107     0.017118697
       4237.0000       289.28388       98853.447       15123.997       3.6122500      -2.2505000     -0.20725000       341.35000       1.8773485     0.015982738
       4242.0000       289.26027       98853.808       15145.429       2.5807500      -2.6662500      0.41025000       341.95200       1.8852414     0.017041811
       4247.0000       289.12664       98871.766       15095.752       4.0582500      -1.7725000     -0.10450000       341.21600       2.1638362     0.023003176
       4252.0000       289.07965       98873.921       15078.419       3.1360000      -3.1245000     -0.15775000       341.37000       2.1181076     0.038722924
       4257.0000       289.05389       98858.784       15047.307       3.4775000      -1.9245000     -0.90375010       341.39200       1.9550200     0.026282189
       4262.0000       289.03654       98853.985       15027.930       2.2362500      -2.1652500      0.77950000       341.83300       2.0652877     0.027803899
       4268.0000       289.12206       98841.445       15063.647       1.4675000      -4.1075000     -0.78450010       341.78700       1.8929611     0.021596868
       4273.0000       289.11047       98842.742       15027.799       2.9462500      -1.8572500       1.0692500       341.91600       1.9236757     0.015038299
       4278.0000       289.02407       98862.207       14944.511       3.6642500      -1.2672500     0.099250000       342.17200       2.3251061     0.046024799
       4283.0000       288.98390       98868.448       14878.483       4.2630000     -0.32425000      0.54575000       341.98600       2.0277840     0.024068125
       4288.0000       288.89681       98878.834       14760.812       4.2657500    -0.096500000     -0.39575000       341.58400       2.1131958     0.035837461
       4293.0000       288.87735       98877.683       14691.010       3.8555000    -0.064750000      0.30375000       341.54500       2.0411372     0.019114679
       4298.0000       288.93805       98855.512       14640.961       3.0432500      -1.5565000     -0.24400000       341.91200       2.0324612     0.032439856
       4303.0000       288.95784       98852.051       14621.595       3.8815000      0.17525000     -0.41175000       341.60100       1.8729429     0.021249920
       4308.0000       288.99569       98851.726       14624.112       4.4542500     -0.21550000     -0.40800000       341.39800       1.8701775     0.017226164
       4313.0000       289.01188       98854.368       14649.100       4.4130000     -0.53525000     -0.18250000       341.43000       1.9941391     0.026880470
       4318.0000       289.01233       98877.587       14718.288       3.8585000    -0.011500000      0.18000000       341.77500       1.9465926     0.017589602
       4323.0000       288.99821       98878.924       14780.203       3.5162500     -0.44975000     0.090500000       341.77300       1.7922423     0.018488901
       4328.0000       288.96092       98864.154       14876.586       2.7832500    -0.093250010     -0.47875000       341.65200       2.1422383     0.030850723
       4333.0000       288.94064       98857.701       14928.368       2.9735000      0.30275000     -0.71275000       341.64100       1.9786318     0.018598428
       4338.0000       288.90495       98837.068       14984.251       2.5115000     -0.20500000     -0.18200000       341.91900       1.7089095     0.016671912
       4343.0000       288.88898       98836.149       14992.263       2.8962500     -0.32625000      0.39900000       341.92100       1.9333851     0.025108207
       4348.0000       288.90012       98856.935       14938.347       3.3805000      -1.2655000   -0.0010000000       341.83100       2.0032907     0.021377549
       4353.0000       288.90024       98863.583       14907.666       3.6075000     -0.85050000      0.11775000       341.59500       1.7816083     0.017647013
       4359.0000       288.91157       98879.357       14860.274       1.8610000      0.37425000      0.58800000       341.89600       1.9523468     0.025172384
       4364.0000       288.89497       98877.868       14799.619       3.4512500     -0.42150000     -0.16225000       341.83000       2.0156781     0.020002336
       4369.0000       288.84692       98856.721       14718.821       4.4965000     -0.53075000     -0.43750000       341.51400       2.0488871     0.024869592
       4374.0000       288.84314       98850.937       14670.800       2.3667500     -0.13525000      0.47225000       341.94100       1.8873209     0.017375625
       4379.0000       288.85465       98841.321       14615.887       3.3227500    -0.099750000      0.15600000       341.79500       1.9739619     0.018024759
       4384.0000       288.84472       98843.916       14568.905       3.2312500     -0.48650000      0.24425000       341.75500       1.8161803     0.022365612
       4389.0000       288.85748       98864.185       14558.288       3.1125000     -0.28125000      0.64750000       341.90900       1.8761121     0.013525828
       4394.0000       288.85138       98869.973       14526.319       3.6780000      -1.5467500     -0.38350000       341.59600       1.9714454     0.017016482
       4399.0000       288.80065       98879.378       14459.840       4.5752500     -0.24375000     -0.24825000       341.35500       1.8274581     0.016292547
       4404.0000       288.78704       98876.428       14436.865       4.5825000     -0.22325000       1.4127500       341.52900       1.7131537     0.031324166
       4409.0000       288.81134       98854.520       14447.291       4.6317500     -0.89500000      0.21975000       341.31400       1.7855719     0.020134691
       4414.0000       288.79511       98852.097       14434.542       5.7270000       1.4400000     -0.34975000       341.44800       1.8273323     0.014395771
       4419.0000       288.75778       98852.345       14423.198       5.4735000      -1.6805000    -0.047500000       341.33700       1.9084892    0.0099406571
       4424.0000       288.73791       98855.864       14419.972       5.2792500       1.5560000     0.093750010       341.40000       1.8427357     0.017777786
       4429.0000       288.71187       98875.305       14405.007       4.7885000      -1.7312500     -0.74425010       341.44600       1.9341719     0.012969428
       4434.0000       288.68224       98879.671       14406.736       4.0022500      0.83200000     -0.59025000       341.62500       1.8632551     0.011604093
       4439.0000       288.65806       98881.615       14447.700       4.1887500   -0.0065000000       1.2527500       341.41500       1.9075248     0.015563672
       4444.0000       288.63810       98872.949       14436.538       5.5072500      -1.7505000     -0.48825000       341.28200       1.9269378     0.011844438
       4450.0000       288.60672       98844.645       14405.252       4.7912500    -0.097000000      0.48850000       341.31000       1.9471159     0.012169033
       4455.0000       288.57666       98839.087       14353.954       4.7402500      0.14875000      0.11950000       341.27800       1.8073611     0.019030484
       4460.0000       288.55413       98830.310       14254.547       3.3552500      -2.0905000     0.074000000       341.33300       1.8636059     0.011638429
       4465.0000       288.53417       98836.376       14202.813       4.7445000      -2.3265000     -0.53800000       341.48600       2.0690384     0.029826679
       4470.0000       288.50666       98866.295       14178.429       5.8795000      -1.9692500     -0.16950000       341.12500       1.7080143     0.036870722
       4475.0000       288.47693       98873.890       14092.669       5.6032510      -1.5690000     -0.32875000       341.14400       2.0460735     0.020502085
       4480.0000       288.46311       98880.962       13994.581       3.6647500      -1.2062500     0.046500000       341.38300       1.9212708     0.014816149
       4485.0000       288.42474       98873.002       13896.788       3.7875000     -0.87525000    -0.010750000       341.46400       1.9593598     0.012671353
       4490.0000       288.34232       98845.524       13715.559       4.1410000      -1.0980000      0.59525000       341.41000       2.0896485     0.032496999
       4495.0000       288.33012       98838.135       13672.279       2.9122500     -0.79150000     -0.13000000       341.55200       1.9420154     0.021645990
       4500.0000       288.35201       98828.193       13706.254       5.1462500      -1.6710000      0.11800000       341.17200       1.9456537     0.016253633
       4505.0000       288.34189       98826.582       13710.125       3.9837500     -0.16150000      0.34400000       341.45200       1.8001962     0.020443719
       4510.0000       288.36537       98837.342       13766.580       5.0550000      -2.1617500     -0.65300010       341.06600       1.9544049     0.011906524
       4515.0000       288.33805       98847.073       13785.958       3.5142500      -1.5772500    0.0010000000       341.33000       1.9335657    0.0095665877
       4520.0000       288.23289       98862.389       13755.785       4.7930000      -3.6442500     -0.21225000       341.33000       1.8080230     0.012005849
       4525.0000       288.23920       98862.896       13810.906       3.9005000      -1.5202500    -0.090000000       341.25700       1.8484409     0.012064890
       4530.0000       288.29810       98863.073       13930.816       5.7615000     0.077750000      0.23525000       341.15200       1.8817015     0.012054741
       4535.0000       288.30798       98859.643       13973.998       3.8880000     -0.41525000    -0.040500000       341.27900       1.8297375     0.026176755
       4541.0000       288.36353       98835.810       14046.387       5.2980000      -1.5022500      0.14250000       341.13300       1.9529766     0.018824734
       4546.0000       288.36065       98838.813       14045.438       2.5265000      -1.4402500      0.33475000       341.28200       1.8979390     0.014464735
       4551.0000       288.28811       98854.720       13959.181       3.4377500      -1.4782500      0.36700000       341.28400       1.9345137     0.016079496
       4556.0000       288.33080       98873.198       13980.385       3.4320000     -0.12650000     0.033750000       341.30400       2.0153405     0.021361262
       4561.0000       288.35101       98879.085       13998.456      0.83700000      -1.5862500       1.2042500       341.46000       2.0222701     0.030295286
       4566.0000       288.40033       98871.298       14067.540       6.8737500      -1.0960000     -0.59375000       341.17300       1.9449198     0.019604736
       4571.0000       288.41268       98866.599       14097.239       4.2455000      -1.2915000      0.95150010       341.25400       1.9345756     0.013712670
       4576.0000       288.40040       98859.427       14106.891       4.3255000      -1.6557500    0.0010000000       341.21500       1.7848147     0.028870141
       4581.0000       288.34363       98842.679       14084.161       2.8537500      -2.2907500      0.53225000       341.24000       1.7266404     0.017269773
       4586.0000       288.34470       98840.192       14105.135       2.6002500     -0.79125010     0.040500000       341.30600       1.9536523     0.015893493
       4591.0000       288.34362       98843.027       14120.381       6.5872500      -3.8610000     -0.26675000       341.10800       1.9517762     0.010086633
       4596.0000       288.39996       98859.426       14179.038       5.1362500      -2.3962500     0.056750000       341.15700       1.8550427     0.014991272
       4601.0000       288.41282       98866.764       14205.923       5.6472500      -2.7030000      0.34050000       341.15300       1.8248726     0.010827248
       4606.0000       288.34003       98877.323       14149.878       5.4787500      -1.5380000     -0.57025000       341.14000       1.7704919     0.025398554
       4611.0000       288.33794       98878.953       14168.495       5.6782500      -1.3930000     -0.24950000       341.14500       1.8173208     0.016382767
       4616.0000       288.37472       98862.679       14237.768       5.8420000     -0.27150000      0.10900000       341.11200       1.8712973     0.018254142
       4621.0000       288.39314       98854.553       14288.026       4.6252500     0.038000000    0.0057500000       341.16900       1.9059343     0.010078254
       4626.0000       288.42385       98847.650       14351.923       5.7252500     -0.79300000    -0.088000010       341.01400       1.8225364     0.014261675
       4632.0000       288.52063       98836.418       14490.340       4.5145000     -0.23250000     0.042750000       341.22000       1.9844841     0.010979917
       4637.0000       288.46634       98849.072       14486.926       4.0460000      -1.2220000    -0.045750000       341.03400       1.9289625     0.012238915
       4642.0000       288.44632       98856.258       14493.152       4.8857500      -1.1287500     -0.33000000       341.06900       1.8510698     0.013553339
       4647.0000       288.40937       98872.195       14471.737       4.2317500     -0.80225000      0.50075000       341.17400       1.9452718     0.013181593
       4652.0000       288.39021       98878.798       14460.790       1.4090000      0.46775000      0.12750000       341.34200       1.9094183     0.013042698
       4657.0000       288.40009       98880.125       14452.589       3.3017500     -0.96425000      0.37525000       341.34800       1.9015466     0.014243641
       4662.0000       288.40012       98876.647       14444.192       3.4280000      0.55825000      0.14475000       341.35900       1.8346789     0.014534304
       4667.0000       288.40028       98859.923       14432.698       3.6362500      -1.3037500      0.52875000       341.46500       2.0977975     0.034661075
       4672.0000       288.40043       98853.268       14428.935       2.3410000     -0.65575000       1.0380000       341.52200       1.8740499     0.021214822
       4677.0000       288.39976       98844.010       14423.806       2.6040000     -0.81875000     0.084000010       341.25900       1.9058701     0.023764041
       4682.0000       288.39953       98842.698       14430.189       3.8897500      -1.8195000     0.032750000       341.31500       2.0974120     0.025453444
       4687.0000       288.42818       98854.806       14471.020       3.5362500     -0.20925000     -0.39050000       341.29800       2.1304051     0.038403178
       4692.0000       288.40583       98861.811       14473.322       3.8035000     -0.36475000   -0.0010000000       341.24200       1.9442712     0.015466066
       4697.0000       288.33131       98871.893       14460.259       4.6355000     -0.26925000      0.42400000       341.26400       1.9305042     0.019839648
       4702.0000       288.29161       98877.600       14443.649       4.0900000     -0.63575010     -0.48250000       341.25400       1.9145371     0.018903483
       4707.0000       288.21952       98885.150       14389.938       4.8047500     -0.25200000     0.071500000       341.32600       1.9331883     0.013879137
       4712.0000       288.18201       98882.641       14355.196       3.4115000     -0.23525000    -0.044250000       341.43000       2.0584998     0.022774643
       4718.0000       288.21356       98865.573       14343.114       3.5295000      0.18550000     -0.11825000       341.46500       1.8927053     0.021773178
       4723.0000       288.19972       98857.602       14304.583       5.6277500     -0.54300000    -0.024750000       340.99600       1.9773014     0.013004692
       4728.0000       288.16235       98837.424       14250.014       5.4687500      0.89275000     -0.32025000       341.02700       1.7648955     0.017917199
       4733.0000       288.14237       98836.404       14199.892       7.6737500      0.63150000     -0.48775000       340.92200       1.8977221     0.022652936
       4738.0000       288.09193       98855.682       14112.373       4.5920000      -1.1210000     -0.32650000       341.15000       1.8062215     0.037305365
       4743.0000       288.08901       98863.694       14072.407       4.4530000      0.19900000      0.15850000       341.03700       1.8478070     0.020330019
       4748.0000       288.13835       98879.866       14060.650       5.4830000       2.1047500    -0.014500000       341.05800       1.9234008     0.015075172
       4753.0000       288.15830       98885.069       14052.287       5.8055010      0.24575000     -0.23575000       341.05600       1.8952431     0.016577968
       4758.0000       288.19574       98880.817       14067.761       4.1125000     -0.67725000      0.84525000       341.03400       1.8667778     0.020767267
       4763.0000       288.21214       98874.703       14085.779       4.0692500     -0.13975000      0.35875000       341.20400       1.9870446     0.021137948
       4768.0000       288.18726       98858.252       14099.814       3.8997500     -0.33950000    -0.086750000       341.19500       2.0358285     0.020366099
       4773.0000       288.20118       98852.053       14138.179       5.4147500     -0.50325000     0.032500000       340.98800       1.8000411     0.027551716
       4778.0000       288.25148       98842.804       14210.075       4.3822500      0.30875000     0.033500000       341.04300       1.8629099     0.019178837
       4783.0000       288.25780       98842.572       14260.461       4.5087500      0.10400000      0.45825000       341.07900       1.9175476     0.017676280
       4788.0000       288.27008       98856.249       14327.443       5.6140000     -0.52375000     -0.41500000       341.09700       1.9452469     0.016555935
       4793.0000       288.25248       98863.242       14365.188       3.4820000      0.46650000     -0.69275000       341.05600       1.8996494     0.014854594
       4798.0000       288.16706       98874.499       14385.275       5.2945000      0.42075000      0.26325000       340.97900       1.9367525     0.018572365
       4803.0000       288.13091       98878.423       14388.108       5.3845000   -0.0075000000     -0.20725000       340.98100       2.0592321     0.019941083
       4809.0000       288.10110       98879.896       14365.772       6.3997500       1.5672500     -0.71000000       340.92700       2.0053339     0.019183473
       4814.0000       288.08751       98874.444       14342.495       4.9315000     -0.28550000     -0.14450000       341.02600       1.8446484     0.017070967
       4819.0000       288.08945       98857.735       14286.068       5.8027500    -0.044250000     -0.44275000       341.02400       1.8445323     0.017363729
       4824.0000       288.10598       98850.300       14269.882       4.7175000    -0.020750000      0.21050000       341.07000       2.1282695     0.013473824
       4829.0000       288.14261       98837.137       14264.525       4.6192500     -0.74700000      0.58725010       341.11400       1.8671610     0.018949469
       4834.0000       288.16272       98837.814       14268.277       4.1652500      -1.1692500     -0.17525000       341.15300       2.0239872     0.014110335
       4839.0000       288.21063       98851.854       14312.200       3.3430000      -2.0370000      0.72625010       341.09100       1.9536486     0.014884798
       4844.0000       288.20826       98859.420       14311.524       5.2692500      -1.3655000      0.21700000       341.15300       1.7257721     0.031040616
       4849.0000       288.15891       98874.274       14283.763       4.1142500     -0.46650000     -0.40450000       341.15300       1.9601376     0.019251704
       4854.0000       288.13873       98880.352       14281.223       4.1152500     0.023250000     -0.44825000       341.11300       2.0377244     0.017433096
       4859.0000       288.10071       98883.287       14263.270       2.2257500     -0.18325000     0.038750000       341.31600       1.9951307     0.020825222
       4864.0000       288.08667       98879.649       14269.610       2.9397500    -0.019000000      0.20800000       341.23300       2.0569418     0.024996640
       4869.0000       288.09991       98867.438       14312.623       2.4180000     -0.12200000      0.71525000       341.21300       2.3163151     0.035233483
       4874.0000       288.09991       98861.443       14330.816       2.9277500     -0.88700000      0.24025000       341.18200       1.9060347     0.021388717
       4879.0000       288.10015       98848.349       14343.381       2.4102500      0.11925000      0.25900000       341.31200       2.0465954     0.019715775
       4884.0000       288.10010       98847.545       14354.623       3.7990000     -0.24100000     -0.22925000       341.14100       1.9753721     0.022257888
       4889.0000       288.10022       98857.623       14357.749       3.5890000     -0.70850000     -0.56500000       341.22800       1.9593530     0.021595651
       4894.0000       288.10040       98863.253       14368.701       2.8722500      -2.3302500    -0.066750000       341.21900       2.2518366     0.033680056
       4900.0000       288.09944       98875.397       14380.225       2.3570000     -0.77850000      0.65900000       341.34100       2.0264193     0.029966644
       4905.0000       288.09914       98879.683       14398.481       3.3052500      0.14100000     -0.21450000       341.18500       1.9151904     0.021945966
       4910.0000       288.10853       98881.585       14440.199       2.9467500     -0.73850010     -0.15725000       341.14200       1.9757650     0.020077623
       4915.0000       288.08960       98880.913       14430.462       3.4517500     -0.64250000      0.21225000       341.23200       1.9273436     0.021739805
       4920.0000       288.04448       98878.340       14396.538       3.7130000     -0.54650000      0.35500000       341.19600       1.9941725     0.019834421
       4925.0000       288.04310       98870.798       14382.230       2.5617500     -0.54475000      0.71575000       341.32200       2.0122826     0.023097634
       4930.0000       288.04317       98855.423       14346.236       4.7842500    -0.041750000      0.67175000       341.09400       2.1494988     0.028335897
       4935.0000       288.05185       98850.260       14320.818       5.2047500      0.15375000      0.23450000       340.97300       1.9023833     0.019786988
       4940.0000       288.11263       98841.056       14327.970       6.3877500     -0.76150010      0.11900000       341.05900       1.8466124     0.020616503
       4945.0000       288.10458       98845.454       14290.734       4.8402500      -1.1322500       1.4850000       341.26300       2.0608115     0.018690069
       4950.0000       288.04533       98864.252       14197.352       4.0437500     -0.68450000    -0.036500000       341.24000       1.8873955     0.020894298
       4955.0000       288.04433       98871.349       14195.234       4.0972500      0.79800000      0.86525010       341.06500       1.8396858     0.017808741
       4960.0000       288.05250       98881.075       14229.856       4.8585000      -1.0105000      0.49550000       341.15100       1.8962667     0.024880119
       4965.0000       288.04259       98884.414       14238.840       4.1102500      -1.0210000    -0.089750010       341.28200       1.8573668     0.023801079
       4970.0000       288.05728       98881.226       14297.141       3.0145000      0.58800000     0.051500000       341.11800       1.8323177     0.018466347
       4975.0000       288.04856       98879.359       14297.489       3.7380000     -0.36125000      0.24950000       341.13600       1.9950164     0.017585422
