MIRICO/SHELL project - Processed LDS file generated on
Thu Jul 06 05:30:08 2017
Time stamp for record start
05/10/2017  13:24: 9.0001
Nb of points in the record
        1073
Beam position index
       1.0000000
Beam angle (degrees)
      -18.440000
Open Path length (m)
       34.890000
****************** Temporal data record ************************
Elapsedtime_sec Temp_K Press_Pa Humidity_ppmv WindX_m/s WindY_m/s WindZ_m/s Speedofsound_m/s CH4vmr_ppmv CH4vmrerror_ppmv  
      0.00000000       289.12810       99789.983       7624.6143       3.2502500       1.5900000      0.36850000       342.05300       2.0735667     0.010479183
       5.0000131       289.19569       99800.276       7656.4991       1.4182500       3.2397500     -0.25650000       341.56000       2.0805046     0.010535295
       9.9999860       289.11094       99805.536       7596.2629       1.6665000       2.3157500     -0.23300000       340.92300       2.0788185     0.010533932
       14.999999       288.90528       99804.972       7469.0245       1.1995000       1.8172500      -1.0522500       341.05500       2.1007588     0.012754459
       20.000012       288.83260       99807.033       7406.8049      0.73075000      0.68175010     -0.15125000       341.42900       2.0739234     0.017140656
       24.999985       288.72485       99811.570       7327.7472    -0.025000000       1.7375000      0.23425000       341.39600       2.0573276    0.0094590964
       30.999993       288.81537       99810.222       7328.2817      0.90725000       1.0630000      0.40525000       341.60500       2.0422268    0.0094471384
       36.000006       288.85622       99806.447       7318.6761       1.1792500       2.1852500    -0.010250000       341.65500       2.0314910     0.012310793
       40.999979       288.88478       99800.214       7307.8226      0.80325000       2.3637500     -0.43000000       341.19100       2.0963858     0.012981938
       45.999992       288.90668       99790.492       7297.3400      0.65625010       1.6987500     -0.93925010       341.29800       2.0938074     0.014051434
       51.000005       288.91526       99783.430       7289.8649      0.52475010       1.4407500     0.086750000       341.96700       2.0814468     0.010629055
       55.999978       288.90625       99773.974       7278.9880      0.55975000       1.5990000     -0.27025000       341.61100       2.0754634     0.013225164
       60.999991       288.86942       99770.131       7274.7490      0.13125000       2.1737500     -0.31725000       341.56500       2.0185947     0.010310270
       66.000004       288.84917       99768.806       7274.2677      0.50975000       2.2175000    -0.055500000       342.08600       2.0876725     0.014454356
       70.999977       288.79966       99770.386       7267.3275       1.0465000       4.1810000     -0.97575000       340.84500       2.0142437    0.0091540931
       75.999990       288.78762       99774.157       7274.1542       1.2702500       3.3497500     -0.12425000       340.86100       2.0042675     0.010415610
       81.000003       288.82994       99783.314       7268.5799      0.76350000       2.6510000     -0.20425000       340.62600       2.0666035     0.012374211
       85.999976       288.84973       99790.271       7305.1380      0.11300000       1.9632500      0.15125000       341.79200       2.0667584    0.0096160576
       90.999989       288.86952       99797.215       7368.5860      0.30700000       1.4997500      0.13350000       341.45500       2.0393002     0.010343330
       96.000002       288.88660       99807.324       7450.5184     -0.50275000       1.8660000     -0.12125000       340.48200       2.0598379     0.013423497
       100.99998       288.95977       99809.002       7570.6404      0.19475000       2.4415000     -0.44650000       341.60200       2.0243617    0.0084410362
       105.99999       289.04997       99805.864       7764.2667     0.055250000       3.2895000     -0.39725000       340.76700       2.0642355     0.013466202
       111.00000       289.16924       99806.203       7833.3814      0.46750000       2.1932500     -0.67625000       341.53200       2.0404688    0.0098525826
       115.99997       289.22527       99801.454       7872.4018      0.64425000       2.0767500     -0.15000000       341.84800       2.0418839    0.0096600102
       121.99998       289.18009       99792.771       7793.3927      0.28375000       2.8372500     -0.36225000       341.18900       2.0348055    0.0092909923
       127.00000       289.14904       99784.552       7740.1593    -0.023000000       1.6647500    -0.043000000       341.23600       2.0192576     0.010758018
       132.00001       289.07697       99766.766       7674.1635    -0.099250000       2.0892500     -0.31575000       340.86400       1.9920508    0.0090169504
       136.99998       289.03861       99757.290       7626.5462      0.17250000       2.0602500     -0.28150000       340.82900       2.0712549     0.011126490
       141.99999       289.01015       99747.963       7569.3002      0.93575010       1.6527500    0.0082500000       340.93500       2.0037908    0.0089275789
       147.00001       288.99131       99747.562       7535.5380      0.60850000       1.8985000    -0.075500000       341.13000       2.0714985     0.011387168
       151.99998       288.95767       99757.965       7502.8230      0.72675000       1.6152500     -0.36050000       341.55800       2.0356724     0.011142210
       156.99999       288.99095       99766.305       7519.5329      0.28425000       1.7525000      0.53850000       342.00100       2.0276752     0.010284644
       162.00001       289.07473       99782.974       7576.8175      0.66350000       1.6990000     -0.45650000       341.68200       2.1177382     0.017081357
       166.99998       289.15697       99793.642       7641.3716      0.25375000      0.13950000      0.76575010       342.32100       2.0647697     0.010007872
       171.99999       289.31017       99803.142       7764.4132     -0.37300000       1.4440000    -0.038500000       341.57200       2.0555026     0.010852833
       177.00001       289.42806       99807.763       7866.3175     -0.63650000       2.5717500     -0.16200000       341.18500       2.0684906     0.011954424
       181.99998       289.56160       99809.131       7976.6960     -0.34375000       2.0737500      0.71150000       342.04600       2.0069883     0.010682511
       186.99999       289.62771       99806.815       8062.8417     -0.75500010       4.0042500     0.042250000       341.15200       2.0404902     0.010200961
       192.00000       289.65971       99796.099       8159.3605      0.36700000       2.1302500      0.23300000       341.92400       2.0273102     0.010882197
       196.99998       289.66627       99789.123       8206.2027      0.39925000       1.8792500     0.077750000       342.08800       2.0834290     0.011510087
       201.99999       289.57524       99781.457       8205.6012      0.99550000      0.97800000      0.77900000       342.68500       2.1139348     0.011400589
       207.00000       289.53597       99773.386       8196.5939      0.21325000       2.9575000     -0.61925010       341.08700       2.0820732     0.012095026
       213.00001       289.51786       99760.551       8133.9452       2.1862500       1.7100000      0.15075000       342.68800       2.0500591     0.010129769
       217.99998       289.48812       99757.682       8091.6616      0.53600000       2.0550000      0.48725000       342.04500       2.0070788     0.010293605
       223.00000       289.47653       99757.441       8046.3890       2.2702500       2.6237500     -0.33625000       340.94300       2.0463193     0.014383505
       228.00001       289.44261       99759.645       7998.0494       1.0732500       2.7127500      0.14600000       341.35300       2.0581729     0.010988880
       232.99998       289.35423       99769.151       7924.9819      0.43300000       2.5707500     -0.82225010       341.26200       2.0211661     0.010439205
       238.00000       289.33152       99778.574       7897.8887      0.13400000       2.9857500     -0.33575000       341.53300       2.0485421     0.010518356
       243.00001       289.34311       99792.787       7904.9362       1.6560000       1.8675000     0.095750000       341.72900       2.0507169     0.012809690
       247.99998       289.34671       99799.139       7888.0142      0.92525010       1.7872500     -0.13375000       341.87400       2.0429192     0.010168545
       253.00000       289.38196       99804.918       7878.8532      0.46750000       1.6050000      0.22350000       342.35800       2.0865613     0.012865091
       258.00001       289.41142       99807.656       7883.0930       1.1202500       2.2167500      0.16475000       341.92400       2.0242382     0.010278421
       262.99998       289.47705       99804.897       7878.9452      0.95925000       3.1495000    -0.026500000       340.49800       2.0518007    0.0094750029
       267.99999       289.45633       99799.311       7876.4598       1.6072500       3.4925000     -0.23425000       341.49000       2.0809493     0.011837285
       273.00001       289.38388       99791.702       7908.6202      0.78275000       2.7597500     -0.38225000       341.44100       2.0534685     0.010740743
       277.99998       289.33999       99782.859       7913.0632      0.76300000       3.0922500      0.73600010       342.10700       2.0692767     0.013602216
       282.99999       289.21671       99761.798       7880.4037      0.60975000       3.2225000     -0.47750000       341.27100       2.0530315     0.010088248
       288.00001       289.16743       99755.606       7873.0614     -0.49850000       3.2050000     -0.22075000       341.70400       2.0883665     0.013340642
       292.99998       289.22543       99755.236       7883.1935     -0.57150000       2.8367500     -0.28950000       340.84700       2.0383912     0.010437500
       297.99999       289.19815       99760.107       7877.2039      0.60225000       2.6645000     -0.32200000       340.70700       2.1333340     0.014855800
       304.00000       289.14950       99781.702       7883.5072      0.14850000       2.6190000     -0.24500000       341.55900       2.0499901     0.010429316
       309.00001       289.06145       99792.047       7851.5642     0.035750000       2.7905000     -0.25600000       340.48000       2.0652232     0.010371489
       313.99999       288.87828       99805.350       7782.7441      0.25500000       1.8420000      0.31975000       341.19100       2.0647954     0.011583183
       319.00000       288.79099       99809.750       7737.0701     0.023500000       1.9182500     -0.41150000       340.58600       2.0253618     0.010891508
       324.00001       288.70349       99808.068       7670.5058     -0.72425000       1.3495000     0.085250010       340.77400       2.0655905    0.0096469081
       328.99999       288.66219       99804.132       7633.6807     -0.60950010       1.1897500      0.12700000       340.83100       2.0220929     0.010061132
       334.00000       288.69984       99792.824       7619.5045     0.073000010       1.2972500      0.18425000       341.17200       2.0002128     0.010497547
       339.00001       288.69989       99785.810       7605.3828      0.18675000       1.3735000    -0.047750000       341.38100       2.0432203    0.0089813672
       343.99998       288.68855       99778.564       7596.4937    -0.025500000      0.71825000    -0.094750000       340.87100       2.0511595    0.0095683732
       349.00000       288.70459       99770.683       7597.1826       1.3087500      0.83425000     -0.11275000       341.10300       2.0666191     0.012001080
       354.00001       288.71921       99759.714       7589.0485       1.1682500       1.1922500      0.28975000       341.32600       2.0063602     0.010094099
       358.99998       288.77104       99757.552       7631.3278     -0.22950000      0.86500010      0.37325000       342.01200       2.1050792     0.014242730
       364.00000       288.86996       99755.064       7721.9725      0.27550000       1.0070000      0.13950000       341.66400       2.0923951     0.010673818
       369.00001       288.94035       99761.219       7776.8731     0.078750010      0.92925010     -0.24025000       340.59300       2.0639521     0.010298653
       373.99998       289.03908       99782.542       7860.6399      0.26500000      0.93775000     -0.19425000       340.58200       2.0155817    0.0098708489
       379.00000       289.08687       99791.321       7910.5042      0.30600000      0.84400000     0.020250000       341.18800       2.0389363    0.0095186638
       384.00001       289.12185       99802.117       7935.9006     -0.20350000       1.1197500      0.42100000       341.33600       2.0948966     0.012634160
       389.99998       289.09542       99802.424       7929.6338     0.083250000      0.78300010     -0.15250000       341.15600       2.0555229    0.0095294563
       394.99999       289.00768       99792.274       7906.5969      0.52775000       1.2695000    -0.031000000       341.15500       2.0445397     0.010227446
       400.00000       288.96787       99786.518       7877.5092      0.65825000       1.2950000     -0.27550000       340.79700       2.0908222     0.012779845
       404.99998       288.87498       99776.980       7793.0030      0.63075000       1.1682500    -0.067750010       340.87000       2.0455336     0.010169318
       409.99999       288.89088       99768.879       7776.1864      0.90650000       1.8082500      0.20100000       341.07200       2.1214855     0.013238034
       415.00000       289.00150       99760.894       7803.5021      0.34100000       3.2275000     -0.29525000       341.33000       2.0612269     0.010210196
       419.99997       289.02300       99755.811       7783.5299      0.27225000       2.1790000     -0.17225000       341.62400       2.0772242     0.012621346
       424.99999       289.06034       99745.308       7769.8862       1.1942500       2.6132500     -0.43250000       340.55100       2.0580833     0.010864756
       430.00000       289.06309       99752.412       7735.9614       1.1067500       1.8165000     -0.27225000       340.72400       2.0651158    0.0092521532
       434.99997       288.99643       99773.303       7655.9897    -0.057500000       1.2092500      0.30725000       342.46500       1.9842103     0.010052873
       439.99999       288.98518       99783.199       7627.0226     -0.25000000       1.8277500    -0.075250010       340.80700       2.0572553     0.010874437
       445.00000       288.99946       99803.608       7602.6014   -0.0037500000       1.5147500     0.080000010       341.48600       2.1032693    0.0096441575
       450.00001       288.99916       99805.574       7621.1029      0.70150010       2.4367500     0.073250000       341.74800       2.0970199     0.010715742
       454.99999       288.97204       99792.035       7661.0338      0.48475000       1.7280000      0.20950000       341.48500       2.0120840     0.011062748
       460.00000       289.02902       99786.031       7740.2147      0.53725000       1.4080000      0.38525000       342.36100       2.0646639     0.011029590
       465.00001       289.11102       99772.203       7864.8405      0.88050000      0.68400000      0.38275000       342.01000       2.0819022     0.011109615
       469.99999       289.22762       99773.425       7991.4492      0.89375010       1.6552500     -0.15050000       340.79900       2.0639582    0.0099398717
       475.00000       289.43156       99785.757       8160.4388      0.78425000       1.8020000     -0.15275000       340.95400       2.1377396     0.022421135
       481.00001       289.63069       99786.878       8384.2832      0.59000000       1.6325000     -0.30000000       341.10100       2.1658272     0.015023349
       485.99998       289.72450       99790.988       8486.8766      0.10350000       1.4185000     -0.42375000       341.45800       2.0822735     0.010000863
       490.99999       289.76903       99793.861       8534.9215     0.031500000      0.53050010      0.66150000       341.90000       2.0127389     0.010398625
       496.00001       289.76281       99788.826       8541.5738       1.1987500       1.3640000     -0.23100000       341.85200       2.1566101     0.015151280
       500.99998       289.75930       99791.147       8502.0730       1.3347500      0.70150010      0.42525000       342.47500       2.0869279     0.010433528
       505.99999       289.69431       99802.752       8373.0343      0.28700000      0.36150000      0.15675000       341.96600       2.0310930    0.0094465919
       511.00000       289.71495       99795.617       8290.6443     -0.14475000      0.95650010     -0.24700000       342.35300       2.0552002     0.011920043
       515.99998       289.70637       99790.670       8215.7883      0.19750000      0.86800000    -0.080000010       341.34600       2.0906068     0.010736915
       520.99999       289.63955       99783.050       8133.6867      0.17125000      0.94500010      0.72200010       341.85700       2.1235639     0.014088815
       526.00000       289.63720       99775.085       8072.4675     0.091000010       1.4162500    -0.016000000       341.34700       2.0395665     0.010418354
       530.99998       289.66019       99761.401       8019.0223     0.013000000       2.6237500      0.12675000       342.58100       2.1050060     0.012502576
       535.99999       289.68729       99757.948       7983.3247     -0.98325000       2.4962500     -0.23975000       341.98900       2.0808650    0.0097089652
       541.00000       289.73892       99759.412       7964.3170    -0.078000000       2.0872500     -0.12225000       342.18900       2.0565278    0.0097325930
       545.99998       289.88840       99762.573       7983.5589      0.82275000       1.9142500      0.18225000       342.73000       2.0347056     0.010255658
       550.99999       289.84001       99771.253       7932.7955       1.3407500       1.3325000      0.72025000       342.45700       2.1240584     0.013681899
       556.00000       289.71845       99793.219       7872.6418       1.4187500       2.4947500    -0.098000000       341.24800       2.0194485     0.010548500
       560.99997       289.49961       99791.214       7751.6925       1.6052500       1.8617500     -0.24400000       341.71900       2.1223576     0.013299660
       565.99999       289.37291       99791.478       7680.9814      0.35200000       1.1980000      0.18825000       342.65600       2.0355602     0.010437139
       572.00000       289.31936       99786.386       7656.7546     -0.20100000       1.9937500     0.048250000       341.99100       2.0235798     0.010630438
       577.00001       289.28212       99779.285       7629.2609    -0.072000000       1.5722500      0.28625000       342.32400       2.1022316     0.015040193
       581.99998       289.31463       99770.317       7627.2274     -0.30850000       1.6242500      0.10300000       342.80700       2.0919114     0.011460494
       586.99999       289.30322       99764.341       7610.8851     -0.27675000       2.4422500    -0.025000000       342.22200       2.0504408     0.010629563
       592.00001       289.27988       99749.298       7569.6728      0.29275000       2.7450000     -0.43475000       342.22800       2.1175215     0.016958387
       596.99998       289.24847       99747.204       7552.5405       1.9715000       2.5267500     -0.33550000       340.74400       2.1250153     0.014893747
       601.99999       289.20269       99757.965       7562.0763       1.5865000       1.4717500     -0.12525000       341.34000       2.1397540     0.015830257
       607.00001       289.14122       99766.305       7546.5149       2.2177500       1.7960000      0.15925000       341.53900       2.0782952     0.015575578
       611.99998       289.02674       99787.218       7505.2807       1.2735000       1.6452500      0.63900010       341.64900       2.0472308     0.013072329
       616.99999       288.97993       99794.508       7503.8989      0.50050000       1.6055000      0.50150000       343.39500       2.1066112     0.016142520
       622.00001       288.91090       99795.626       7475.1405      0.57450000       1.2787500     0.057750000       342.21100       2.0610820     0.010656940
       626.99998       288.92665       99791.975       7509.6178      0.13575000       1.5145000      0.44500000       343.37300       2.0331315    0.0097673134
       631.99999       289.05976       99772.275       7661.5999      0.50700000       2.6337500     -0.33225000       340.78700       2.0917454     0.010448648
       637.00000       289.16098       99762.539       7733.8679      0.28175000       1.8542500    -0.059000000       341.40600       2.0806163     0.011042776
       641.99998       289.28094       99749.345       7767.3931      0.60375010       1.0662500      0.58600000       342.96400       2.1663368     0.020249302
       646.99999       289.42334       99747.190       7844.6407      0.91675000       1.4615000    -0.036000000       342.40800       2.0808659     0.014145386
       652.00000       289.63284       99760.602       7907.9866      0.44975000       1.5830000     -0.10425000       342.38700       2.0948062     0.012817234
       656.99998       289.74055       99766.621       7970.9709      0.21925000       2.4325000       1.0852500       342.40500       2.0601361     0.010542767
       662.99998       289.85555       99778.887       8151.5871       2.0307500       1.9820000     -0.63725000       340.91700       2.1334191     0.015918791
       668.00000       289.88663       99783.770       8194.1283       1.3662500       2.3835000     -0.41200000       340.92900       2.0811607     0.010735882
       673.00001       289.76793       99784.436       8134.2564     0.071000000       3.9650000      0.84675000       341.24000       2.0137229    0.0095169004
       677.99998       289.73191       99780.300       8108.9577       2.6352500       2.4137500     -0.60125010       341.63300       2.1790725     0.010567022
       683.00000       289.73072       99768.930       8044.0065       2.2395000       1.5607500      0.20700000       342.26600       2.0810106    0.0090890204
       688.00001       289.68644       99762.967       7987.2050       1.6035000       2.9600000     -0.62025000       341.33000       2.0424423     0.010388200
       692.99998       289.60986       99749.130       7930.9747      0.36450000       2.1760000     -0.30200000       341.16300       2.0523545     0.010368426
       698.00000       289.58347       99746.964       7894.7854       1.0332500       1.8182500     -0.59000000       340.52700       2.0793290     0.011596045
       703.00001       289.50885       99754.073       7816.3170      0.80175010       2.0475000     -0.11425000       341.38700       2.0528951    0.0089225486
       707.99998       289.53781       99762.178       7824.0185       1.0877500      0.85350010      0.22750000       341.79200       2.1198601    0.0086106436
       713.00000       289.70901       99783.181       7934.5698       1.2827500       2.1512500      0.14150000       341.26900       2.0681007     0.010747919
       718.00001       289.78481       99789.645       7976.5319       1.4482500       2.4677500     -0.17300000       340.79400       2.0749386     0.012491872
       722.99998       289.91196       99795.443       8055.0596      0.76425000       1.7560000    0.0087500000       341.30200       2.1069039     0.011608947
       727.99999       289.93291       99792.168       8076.3109       1.6495000       1.0585000      0.24925000       342.03700       2.6598351     0.014775396
       733.00001       289.84939       99771.275       8036.2695       2.1802500       2.3372500    -0.030500000       341.00300       2.0595769     0.013109798
       737.99998       289.78151       99760.580       7992.9933      0.82450000       1.9415000     -0.15550000       341.16600       2.3866715     0.010806776
       742.99999       289.68413       99743.834       7921.8324     0.012500000      0.93625000      0.25650000       343.06000       2.0785950     0.012609807
       748.00001       289.55674       99740.879       7861.4336      0.93200000      0.79650000     -0.57425000       341.25400       2.0634248     0.010415397
       754.00001       289.33330       99749.701       7763.2847      0.77825000      0.60350000      0.25925000       342.73700       2.1875799     0.011213281
       758.99999       289.22670       99759.177       7702.8135       1.0075000       1.2207500     0.076500010       341.01200       2.8959905     0.011813491
       764.00000       289.12667       99784.912       7655.5346       1.4800000       1.2320000     0.026000000       342.46900       2.4300086     0.025462112
       769.00001       289.03974       99791.749       7615.3247       1.3630000       1.4180000    -0.035250000       341.81000       2.0410724    0.0097806118
       773.99999       289.01566       99794.959       7581.4187       1.1335000       1.9105000    -0.049250000       341.24100       2.0470919     0.010812771
       779.00000       288.97544       99790.239       7554.4946       1.2442500      0.93275000     0.014250000       342.21700       2.0221794     0.010905998
       784.00001       288.87885       99767.337       7513.6306       1.2250000      0.48950000      0.13625000       342.31900       2.0632858     0.014460301
       788.99999       288.88366       99758.495       7537.4925       1.3657500       1.2955000      0.15400000       342.24700       2.0675291     0.014243033
       794.00000       288.94018       99747.148       7586.5823      0.76475010       1.7962500     -0.10075000       341.63000       2.0177282    0.0091146466
       799.00001       289.04480       99747.992       7667.3476       1.0120000      0.58125000      0.45800000       342.59700       2.0676034     0.016396781
       803.99998       289.27703       99762.997       7842.9582      0.62550000       1.5717500    -0.021000000       340.91200       2.0592179     0.013362451
       809.00000       289.36776       99768.982       7935.6567      0.72600000       2.1035000     -0.42700000       342.06700       2.0256306     0.010804012
       814.00001       289.44458       99783.634       7996.9744       1.2715000      0.63125000      0.99825010       343.60800       2.0688020     0.013618814
       818.99998       289.49573       99782.860       8085.0289      0.52600000      0.65000000      0.17025000       343.09100       2.0684043     0.012953370
       824.00000       289.45398       99768.991       8157.5829     -0.18100000      0.49225000     -0.20925000       341.96900       2.0916578     0.014798800
       829.00001       289.44373       99761.429       8224.9712     -0.77225010      0.39775000      0.17000000       341.18000       2.1233437     0.014550648
       833.99998       289.44552       99744.936       8338.7403     -0.19150000       1.4910000     -0.16525000       341.77900       2.0711924     0.011940965
       839.00000       289.45545       99740.270       8375.3727      0.28275000       1.3172500     -0.48500000       340.63600       2.1205941     0.010539112
       845.00000       289.43412       99742.014       8364.5411    -0.045500000      0.53525000    -0.016500000       340.60800       2.0818947     0.018158542
       849.99998       289.46132       99748.472       8312.6378      0.25925000      0.92350010     -0.16250000       340.60100       2.1049026     0.015037699
       854.99999       289.58557       99764.193       8210.5361      0.62025000       1.5052500     -0.29525000       341.11200       2.0906735     0.012722397
       860.00000       289.54067       99771.359       8112.3683       1.2675000       1.0525000     -0.26825000       343.06800       2.0024796    0.0094203608
       864.99998       289.41828       99782.077       7959.6690       1.1585000      0.96925000     -0.31950000       341.35100       2.0609183     0.011300285
       869.99999       289.34918       99783.597       7872.5526       2.1507500     -0.41025000     -0.38350000       340.91400       2.2159430     0.011898734
       875.00000       289.18617       99778.101       7798.5501       1.8682500     0.088000010      0.60750000       340.87600       2.3999052     0.017509005
       879.99997       289.14082       99770.470       7757.9149       1.9502500      0.27600000      0.10550000       341.02300       2.8323109     0.010096959
       884.99999       289.20876       99753.558       7761.2052       1.2747500      0.49300000      0.22200000       341.91800       2.4006917     0.014970335
       890.00000       289.18996       99752.114       7738.1813       1.0390000      0.31325000      0.29050000       341.57200       2.0461623     0.010895419
       895.00001       289.15423       99750.515       7733.7481       1.0365000       2.8127500     -0.49075000       341.33700       2.1132657     0.013426401
       899.99999       289.13444       99758.659       7705.9253       2.0305000       3.4527500     -0.23325000       341.17600       2.1083617     0.023658788
       905.00000       289.10719       99787.856       7646.5084      0.20225000       2.2250000    -0.047500000       343.14600       2.0939616     0.016319937
       910.00001       289.07738       99791.700       7635.5497      0.56650000       2.3237500      0.25200000       342.32900       2.0476191     0.014697589
       914.99999       289.02796       99789.907       7621.8792     -0.32725000       1.9512500      0.60125010       342.19800       2.0392063     0.012273395
       920.00000       289.06460       99781.689       7664.6628      0.22375000       2.3177500     -0.58325000       341.79700       2.0970033     0.016730983
       925.00001       289.13663       99754.219       7776.1804     -0.56850000       1.4977500      0.30800000       342.53400       2.0805273     0.012625141
       930.99998       289.25580       99743.331       7822.3813     -0.66525000       2.7115000     -0.26375000       340.79700       2.0531603     0.012919726
       935.99999       289.31898       99741.677       7877.1841      -1.0665000       1.4575000      0.43750000       340.87500       2.0970468     0.014169657
       941.00001       289.34530       99747.399       7926.7611     -0.64650010       1.5170000      0.44100000       340.88600       2.1313829     0.022223114
       945.99998       289.29358       99766.231       7937.9749     -0.76300000       2.6315000     -0.20475000       341.43200       2.1019403     0.023311629
       950.99999       289.31513       99770.942       7993.2440     -0.90825000       2.9305000     -0.25900000       341.34300       2.1208733     0.019232632
       956.00000       289.34970       99778.042       8089.0423     -0.67850010       3.3065000      0.46825000       343.28400       2.0962146     0.012997382
       960.99998       289.32594       99765.647       8143.7386      0.38225000       2.4837500     -0.15950000       341.27900       2.0677216     0.011380468
       965.99999       289.38196       99759.469       8191.8220       1.0040000       1.8060000      0.44150000       341.71500       2.0963662     0.015413889
       971.00000       289.49136       99748.681       8258.1386       1.3252500       2.3982500      0.25600000       341.48600       2.0582559     0.012944679
       975.99998       289.58830       99747.097       8279.3539       1.3702500       3.2557500     -0.42900000       340.72500       2.1095784     0.014641224
       980.99999       289.83003       99759.494       8295.6204      0.99575010       2.0227500     -0.31675000       341.26600       2.0406191     0.011548646
       986.00000       289.93692       99765.538       8254.2976       1.8130000       1.9752500      0.14100000       341.56800       2.0649819     0.013773365
       990.99998       289.96996       99771.583       8166.0701       2.5137500       1.9555000     -0.19300000       342.33600       2.2751768     0.016012428
       995.99999       289.90826       99784.253       7997.1991      0.70800000       3.4467500      0.41275000       342.77200       2.8340812     0.013875857
       1001.0000       289.90669       99780.412       7933.2859      0.91475000       3.3540000    -0.091500010       340.86600       2.0731582     0.012681578
       1006.0000       289.84381       99765.946       7855.7275      0.63575010       3.5102500     -0.14775000       341.14600       2.0682408     0.011311877
       1011.0000       289.83928       99747.385       7908.6319       1.3975000       3.9497500     -0.62550000       341.25100       2.1198583     0.021179808
       1016.0000       289.84895       99741.498       7914.2044       2.2405000       4.4122500     -0.20125000       341.08000       2.0337598     0.010608773
       1022.0000       289.84377       99750.089       7892.9259       1.4895000       2.9547500    -0.046000000       341.88200       2.1221568     0.016089914
       1027.0000       289.84493       99755.265       7866.1673      0.39900000       3.5720000     -0.43275000       340.59100       2.0695818     0.013249654
       1032.0000       289.87582       99772.213       7801.9255      0.22375000       2.7340000     -0.41500000       341.09500       2.0756865     0.011317365
       1037.0000       289.90590       99778.642       7762.8862      0.43125000       1.4502500      0.84500000       342.05400       2.1105002     0.024417875
       1042.0000       289.97584       99780.018       7717.7620      0.60025000       3.8537500     -0.10775000       342.06700       2.0385813     0.013538885
       1047.0000       289.96159       99776.437       7699.2731      0.62275000       1.9255000     -0.28725000       341.16500       2.0703497     0.013979882
       1052.0000       289.90037       99756.568       7737.0212       1.0025000       2.9492500     -0.14725000       341.49000       2.0244455     0.010523865
       1057.0000       289.84771       99751.955       7724.9629       1.1657500       3.3335000     -0.11750000       340.91700       2.0944151     0.013979067
       1062.0000       289.69411       99757.792       7691.5277     -0.33575000       2.0042500      0.57525000       341.71000       2.0362811     0.013092282
       1067.0000       289.61892       99754.850       7668.9105      0.17925000       3.1567500     -0.14725000       340.90600       2.0773662     0.012937795
       1072.0000       289.59571       99753.040       7596.2676      0.29325000       2.0877500      0.49075000       341.77800       2.0761061     0.012842742
       1077.0000       289.58817       99756.083       7572.9345     -0.35750000       2.6357500      0.11675000       341.59400       2.1419022     0.021642384
       1082.0000       289.63314       99756.137       7580.7887       1.0392500       2.5532500     -0.15750000       341.77600       2.0321011    0.0097399525
       1087.0000       289.65313       99754.288       7608.2053     0.046000000       2.1862500      0.17450000       342.17200       2.1244844     0.011666088
       1092.0000       289.71728       99757.525       7697.1788    -0.089000000       2.3002500     -0.34625000       341.25200       2.0467203    0.0090076036
       1097.0000       289.71339       99761.420       7735.8869     -0.76175000       1.4737500      0.55175000       341.57700       2.0578317     0.012771714
       1102.0000       289.64500       99757.740       7783.0402     0.079000000       3.1142500     0.057000000       341.42700       2.0749159     0.010986355
       1107.0000       289.59352       99759.094       7793.6166      0.76050000       2.4590000      0.12100000       341.95200       2.0457566     0.013570355
       1113.0000       289.47181       99776.945       7736.9691       1.5982500       2.3230000      0.70800000       341.12000       2.0873524     0.014099748
       1118.0000       289.41969       99777.996       7699.8004      0.62700000       1.0710000      0.34250000       341.25400       2.1212354     0.017267107
       1123.0000       289.37762       99770.062       7609.9193      0.92150000       1.9802500     0.019000000       341.04000       2.0705768     0.011635791
       1128.0000       289.38911       99764.279       7606.8263       1.4117500       1.1670000     -0.70025000       341.59700       2.0904141     0.022174226
       1133.0000       289.46332       99744.345       7622.5714       1.6817500       1.9275000     -0.30825000       340.58600       2.9052711     0.012617498
       1138.0000       289.51736       99741.686       7693.5637       2.3295000       1.3592500      0.33125000       341.88200       2.1230566     0.013303342
       1143.0000       289.60437       99750.975       7891.6880       1.5702500       1.4902500     -0.46800000       340.91600       2.1738093     0.017174387
       1148.0000       289.68477       99756.639       8002.2763       1.5240000       1.8100000     -0.15625000       340.74800       2.6489152     0.012498460
       1153.0000       289.73263       99776.484       8092.4351      0.29100000      0.74200000    0.0042500000       340.83500       2.3387095     0.013301176
       1158.0000       289.82935       99779.117       8192.7018      0.99550000      0.12400000      0.33950000       342.36200       2.4036183     0.014187343
       1163.0000       290.02942       99769.847       8315.5026      0.35000000      0.81725000     0.054250000       341.64000       2.4195684     0.021460632
       1168.0000       290.09395       99764.178       8336.1422      0.97150000       1.7927500      0.24325000       341.87300       2.1170106     0.011652816
       1173.0000       290.08393       99742.848       8308.0273       1.3757500       1.6945000     -0.15225000       341.37100       2.1513988     0.017128615
       1178.0000       290.12010       99741.563       8284.1813       1.0085000       1.5375000     -0.36000000       340.67300       2.2158900     0.025541562
       1183.0000       290.07406       99755.930       8147.3606      0.58225000      0.87900010     0.089250010       341.26000       2.1491560     0.016077888
       1188.0000       290.09523       99762.302       8085.5540      0.75375000      0.28725000      0.44350000       342.47800       2.1032501     0.016809416
       1193.0000       290.25529       99783.674       8091.7742      0.69725000     0.016750000     -0.28275000       341.30000       2.1151252    0.0096818928
       1198.0000       290.28148       99784.869       8069.5741       1.1532500      0.16050000    0.0072500000       340.93000       2.1460927     0.011287683
       1204.0000       290.22621       99763.361       8039.7956      0.65825000      0.85950010      0.19950000       343.03000       2.1719968     0.017973808
       1209.0000       290.18396       99755.376       8004.7850      0.31350000       1.9532500      0.21975000       342.82500       2.0926056     0.014285047
       1214.0000       290.07168       99735.918       7955.9059     -0.13600000      0.68400000     -0.37550000       341.07700       2.1056404     0.015425260
       1219.0000       290.00787       99737.157       7932.4534      -1.1815000      0.93375000     0.060750000       341.41200       2.1121443     0.015217567
       1224.0000       289.99242       99758.366       7916.0021     -0.73950000       1.7310000      0.21175000       342.37300       2.1282144     0.014484165
       1229.0000       289.90945       99764.812       7890.6735     -0.71700000       1.6025000      0.37850000       341.99500       2.1324081     0.014874316
       1234.0000       289.77168       99779.100       7888.7730     -0.36950000       1.8985000    -0.057500000       343.12100       2.1237389     0.014817253
       1239.0000       289.69768       99777.743       7858.2008      -1.1605000       1.8870000     -0.37225000       341.35900       2.1269015     0.015424396
       1244.0000       289.61276       99756.497       7794.5121      -1.1482500       2.4582500     -0.28800000       341.52100       2.0745677     0.011382297
       1249.0000       289.55589       99750.788       7752.3650      -1.6077500       1.3172500     -0.39925000       341.33300       2.1163764     0.011733118
       1254.0000       289.50140       99741.199       7680.8276     -0.66400000       1.4935000      0.45475000       341.92600       2.1330443     0.015184436
       1259.0000       289.56158       99743.837       7687.4319     -0.89450000       2.2252500     0.045750000       340.57700       2.0886510     0.010939185
       1264.0000       289.71742       99763.717       7749.8640     -0.80400000       1.8727500      0.72125010       342.19500       2.0760376     0.011858839
       1269.0000       289.78765       99769.501       7780.2980      -1.1440000       2.0652500      0.22725000       342.32400       2.1477416     0.015342107
       1274.0000       289.95233       99779.142       7851.5045      -1.3245000       1.2212500     -0.21500000       342.22800       2.1443041     0.017464806
       1279.0000       290.00212       99776.496       7898.3273      -1.1470000       1.0602500     -0.37975000       340.80100       2.1537404     0.020755109
       1284.0000       289.90089       99754.253       7903.4174      -1.0655000      0.77000000      0.32225000       342.75800       2.1970106     0.020474154
       1289.0000       289.88700       99751.672       7937.8633      -1.3705000      0.60300000     -0.10600000       341.75400       2.1433387     0.015002837
       1295.0000       289.91777       99753.199       8025.4336      -1.3912500       1.0505000     -0.15475000       341.56300       2.1977974     0.026705024
       1300.0000       289.88062       99755.819       8038.1824      -1.3775000      0.97425000      0.24625000       340.83300       2.1176177     0.012411248
       1305.0000       289.81879       99773.899       8025.9192      -1.5495000      0.70800000     -0.20050000       340.64200       2.1370592     0.014465249
       1310.0000       289.75947       99771.491       8004.3858     -0.32375000      0.68625000      0.21625000       340.71400       2.1463884     0.015281255
       1315.0000       289.64023       99755.761       7942.3210     -0.77925000      0.42150000     -0.57900010       340.57000       2.1365076     0.010141962
       1320.0000       289.61669       99751.732       7910.9274     -0.25750000      0.68075000     -0.17050000       340.64300       2.2021729     0.018515049
       1325.0000       289.65254       99741.139       7893.6882    -0.027250000      0.99200000     0.060250000       340.85100       2.1501755     0.017985912
       1330.0000       289.64263       99745.320       7849.2070      0.10075000       1.1210000     -0.32625000       340.92900       2.1577194     0.013416104
       1335.0000       289.67501       99767.076       7797.0759      0.23275000      0.66450010      0.12200000       341.38900       2.1074598     0.010781940
       1340.0000       289.62900       99768.532       7744.4771      0.17550000      0.79100000     -0.58100000       340.67900       2.1616911     0.018821330
       1345.0000       289.51467       99770.057       7668.0374     -0.15950000      0.37575000     -0.19800000       341.91600       2.1746034     0.014806449
       1350.0000       289.44534       99761.924       7620.4741      0.42050000      0.18125000    -0.066250000       341.44800       2.2262357     0.024079258
       1355.0000       289.34928       99732.981       7587.7002     0.030500000      0.22800000      0.18650000       342.59700       2.1620589     0.011015496
       1360.0000       289.30688       99729.243       7552.9317    -0.016000000      0.33200000     -0.12375000       341.06000       2.1449861    0.0096729693
       1365.0000       289.28010       99731.742       7509.1410      0.49775000      0.54600000   -0.0050000000       341.85500       2.1851731     0.019720765
       1370.0000       289.30642       99738.199       7515.0360      0.73325000      0.43675000     -0.13225000       341.88200       2.1975752     0.019430908
       1375.0000       289.38419       99763.075       7539.4149      0.96975000      0.71350000      0.60650000       342.25500       2.1428800     0.014957063
       1380.0000       289.44273       99764.828       7582.7881      0.62375000      0.83925000      0.12175000       341.14000       2.1279522     0.010903040
       1386.0000       289.56257       99755.882       7692.5879      0.28925000      0.42500000     -0.32850000       341.20900       2.1059730     0.012094699
       1391.0000       289.59990       99753.768       7741.6704      0.56325000       1.4530000     -0.11425000       340.75100       2.1120857    0.0083935922
       1396.0000       289.61377       99742.073       7791.2912      0.36875000      0.99750010     -0.28425000       341.39000       2.4425286     0.024347326
       1401.0000       289.60096       99745.857       7802.6826      0.26825000      0.95375010      0.58075000       342.23100       2.1315855     0.010423236
       1406.0000       289.55595       99762.052       7790.6328      0.30850000       1.7927500      0.28475000       341.30300       2.1823968     0.021900462
       1411.0000       289.45445       99765.518       7730.9696       2.1217500       1.0005000    -0.077250000       341.61000       2.1723905     0.014390867
       1416.0000       289.42991       99763.113       7706.4677       1.6227500      0.77500000      0.21650000       341.98200       2.1960479     0.017030052
       1421.0000       289.49043       99736.652       7693.4589       1.7137500       1.2397500     -0.20850000       341.52600       2.1565967     0.013238707
       1426.0000       289.50050       99730.934       7686.3720       1.1552500       1.3317500     -0.35900000       341.85300       3.4779279     0.012330922
       1431.0000       289.53997       99739.755       7732.2719       1.5415000       1.4105000     -0.21700000       341.75000       3.0684227     0.011655143
       1436.0000       289.56224       99743.326       7736.2494       1.7362500       1.0065000     -0.14775000       341.40600       2.1179362     0.010015200
       1441.0000       289.55988       99750.577       7720.6922       2.7170000       1.5275000     -0.48875000       341.29100       3.3479846     0.015754145
       1446.0000       289.48809       99776.989       7680.0591       2.5665000       1.3442500     -0.50750010       340.87000       2.9602932     0.010302390
       1451.0000       289.50135       99770.658       7670.6292       1.7165000      0.11350000      0.61900000       342.45500       4.4985316    0.0098925859
       1456.0000       289.55576       99743.380       7651.2716      0.58000000      0.92200010      0.61250000       343.07700       3.3698579     0.014497514
       1461.0000       289.53963       99734.044       7625.8517       2.0442500       2.0685000     0.032750000       342.00900       2.5795798    0.0084564918
       1466.0000       289.54954       99731.070       7613.9296    -0.091500010       1.2767500      0.84275000       342.58200       2.1691876     0.013838756
       1471.0000       289.52987       99756.368       7560.8216      0.32450000       2.1230000     -0.33525000       341.49000       2.0787240    0.0077503980
       1477.0000       289.54171       99764.649       7550.1952       1.2697500       2.8102500      0.25825000       341.07600       2.3744432     0.011043835
       1482.0000       289.60954       99758.478       7590.2612      0.35150000       1.7030000     -0.42325000       341.59700       2.2521147     0.021862412
       1487.0000       289.65968       99756.241       7633.7210       1.1575000       1.1065000     -0.11850000       341.79700       2.1612608     0.011950867
       1492.0000       289.69632       99739.067       7676.6507      0.46125000      0.25950000      0.55575000       343.28400       2.1533686     0.014145183
       1497.0000       289.75815       99736.816       7766.0683     -0.91925010       1.6515000      0.47875000       340.95100       2.1629383     0.010056611
       1502.0000       289.88786       99754.906       7970.2127    -0.080250000       1.1137500     -0.49900000       340.95400       2.0789915    0.0078057927
       1507.0000       289.92474       99757.607       8045.3239     -0.55025010       1.3460000      0.12850000       341.27900       2.1814221     0.012215121
       1512.0000       289.91300       99760.060       8084.9291      0.25375000       1.9025000     -0.27950000       341.90000       2.1496330     0.010071999
       1517.0000       289.91042       99757.376       8100.7792     -0.12525000       1.6217500      0.32175000       342.08200       2.1661667     0.011903567
       1522.0000       289.81963       99729.396       7978.2981     0.095250000       2.2235000      0.24100000       342.81600       2.1073778    0.0091032895
       1527.0000       289.78223       99725.423       7920.0177      0.86900000       3.2265000     -0.33200000       342.31800       2.1954170     0.013905971
       1532.0000       289.75620       99743.251       7870.8488      0.40025000       2.4417500      0.38875000       342.26000       2.1941327     0.013311223
       1537.0000       289.79018       99746.143       7867.5744     -0.13350000       1.6965000     -0.10475000       342.28200       2.1340991    0.0099350536
       1542.0000       289.88733       99757.748       7915.0365      0.40625000       2.0897500      0.34550000       340.78800       2.1352491     0.011904943
       1547.0000       289.95867       99758.950       7937.3807     0.028000000      0.91600010      0.17875000       341.20600       2.2086388     0.013940214
       1552.0000       290.16205       99729.117       8036.7049      0.24050000       1.0200000      0.33125000       342.25000       2.1456613     0.012698300
       1557.0000       290.19527       99724.842       8043.7143     -0.19525000      0.92725000     -0.12450000       341.27600       2.1391124     0.010554772
       1562.0000       290.05394       99742.336       7942.6598      0.27300000       1.1175000     0.015750000       341.36300       2.1823359     0.013186685
       1568.0000       289.97946       99747.219       7884.7792     -0.44875000      0.49475000      0.25325000       342.55100       2.1671767     0.012590388
       1573.0000       289.80587       99764.302       7778.1798     -0.51575010       1.7680000     -0.20375000       341.30000       2.2317358     0.015205704
       1578.0000       289.75548       99764.062       7756.9126      0.49425000       1.2907500      0.24800000       343.24700       2.1800071     0.015000704
       1583.0000       289.83772       99736.142       7819.1303      0.47300000       1.8635000      0.22375000       342.49000       2.1540148    0.0093442289
       1588.0000       289.85758       99731.049       7847.2584     -0.11250000       1.2317500     -0.11850000       341.86000       2.1674968     0.011491424
       1593.0000       289.94673       99733.326       7912.7407      0.35125000       1.3517500     -0.15650000       342.10100       2.2174141     0.022524405
       1598.0000       289.90851       99734.472       7940.4433      0.58475010       1.9092500     -0.37025000       340.97300       2.1611832     0.013058639
       1603.0000       289.75966       99754.184       7948.0417      0.46600000       1.5210000    -0.099250000       340.97400       2.2291460     0.025586695
       1608.0000       289.66640       99753.531       7936.9129      0.40950000       1.7445000     -0.13800000       340.96300       2.2085364     0.022097131
       1613.0000       289.45661       99729.894       7884.2749      0.69775000       1.1540000     -0.70300000       341.00400       2.1632689     0.021229028
       1618.0000       289.39917       99727.382       7867.0754     -0.34000000       1.2420000      0.15750000       342.87100       2.2288833     0.019740220
       1623.0000       289.46573       99727.005       7843.0756      0.48225000       1.0987500     -0.20250000       341.98500       2.1501354    0.0093794571
       1628.0000       289.50357       99728.543       7836.1948     -0.30675000       1.0737500     0.071250010       342.34700       2.1462545    0.0093195250
       1633.0000       289.63965       99752.015       7871.2749     -0.31050000      0.72225000      0.19450000       343.04000       2.1239745    0.0098634095
       1638.0000       289.67882       99754.448       7876.4077     -0.84750000      0.77625010    -0.044750000       341.52500       2.1415915     0.011880735
       1643.0000       289.65626       99736.017       7848.4203     -0.48650000      0.50825000      0.22250000       342.55300       2.1054395    0.0085073138
       1648.0000       289.65253       99732.687       7862.4930      0.19350000       2.0762500    -0.055500000       341.97300       2.2274848     0.015272075
       1654.0000       289.60078       99727.864       7891.4235      0.45375000       1.7855000    -0.048000000       341.09900       2.1821571     0.014820120
       1659.0000       289.58709       99729.400       7931.8400      0.11925000       1.6097500     -0.20050000       341.17700       2.2236239     0.016918371
       1664.0000       289.58838       99744.475       7995.8828      0.80650000      0.74825000      0.40600000       342.39500       2.1365083    0.0081694259
       1669.0000       289.60486       99749.267       8079.6971       1.3315000       2.8475000     -0.12175000       341.00600       2.1397179     0.011508112
       1674.0000       289.67485       99750.213       8222.3336       1.0110000       1.1200000      0.66800000       343.52100       2.1206243    0.0096279551
       1679.0000       289.64555       99751.594       8261.6924       1.2565000       1.4620000   -0.0092500000       340.98700       2.2722480     0.012553985
       1684.0000       289.57061       99750.367       8298.0322      0.99575010       1.0392500    -0.058250000       340.70400       2.4810842     0.013885839
       1689.0000       289.52419       99750.426       8270.8202       1.0717500      0.60500000     0.021250000       340.80600       4.1353226     0.022070474
       1694.0000       289.37879       99754.862       8093.7985      0.74925010       1.5732500     -0.15125000       340.98400       3.8304473     0.015478757
       1699.0000       289.37022       99748.412       8056.8177       1.4985000       1.7750000     0.023500000       341.29300       3.6173600     0.015536684
       1704.0000       289.50673       99728.997       8075.5916      0.77450000       2.3695000      0.40075000       341.45900       2.8019473     0.014337207
       1709.0000       289.51451       99727.471       8060.0508      0.97850010       3.0757500     -0.28400000       341.33900       3.2981784     0.012699499
       1714.0000       289.51657       99727.096       8099.1729      0.97900000       3.7697500      0.56625000       341.56600       2.1309790    0.0074315912
       1719.0000       289.50375       99729.656       8082.4634     -0.13125000      0.85450010      0.56725000       342.41500       2.1779588     0.015931476
       1724.0000       289.36939       99753.052       7966.2155     -0.43000000       1.1062500     0.081000000       342.05800       2.1342259    0.0094842464
       1729.0000       289.39047       99753.667       7983.3948      -1.3372500       2.5055000     -0.30225000       341.00200       2.1608228     0.010591574
       1734.0000       289.52822       99734.143       8068.6128      0.26950000       2.1342500     0.017500000       341.77300       2.1517007     0.012368033
       1739.0000       289.58850       99733.001       8128.3730     -0.42800000      0.89850000      0.13200000       342.93800       2.1130358     0.011933663
       1745.0000       289.71822       99733.069       8302.7809     -0.42125000       2.0400000    0.0027500000       342.05000       2.1567220     0.013807349
       1750.0000       289.73314       99735.584       8319.4153      0.10325000       2.0097500     -0.32200000       340.93200       2.2498172     0.027432752
       1755.0000       289.66394       99754.992       8253.0188     -0.19900000       2.0597500     -0.12775000       341.42900       2.1499456     0.013226726
       1760.0000       289.62449       99750.679       8210.5364     0.088000010       1.5545000      0.13175000       341.26300       2.1150752    0.0092991024
       1765.0000       289.56012       99728.550       8114.6620      0.26350000       1.7542500      0.41300000       341.85200       2.1671688     0.010984489
       1770.0000       289.50982       99728.202       8060.8627    -0.025000000       1.1680000      0.26200000       342.31800       2.1719920     0.015494443
       1775.0000       289.45016       99727.710       8023.0949     -0.18575000      0.61700000      0.60175000       343.92000       2.1542787    0.0099354716
       1780.0000       289.41892       99731.167       7984.3531     -0.52425000       1.0042500      0.42075000       343.52900       2.1622220     0.015097086
       1785.0000       289.39677       99754.253       7952.4878     -0.39350000      0.48075000     0.071000000       341.49500       2.0959129    0.0085743641
       1790.0000       289.38557       99753.119       7910.4325     -0.42925000       1.0665000     -0.15350000       341.26600       2.1172996    0.0097602940
       1795.0000       289.38149       99733.689       7853.8086     -0.49125000       1.3467500    -0.056250000       341.89700       2.1742496     0.010666185
       1800.0000       289.41821       99733.211       7843.5965      0.17625000       1.4272500      0.41325000       342.10900       2.1687490     0.026076605
       1805.0000       289.49045       99733.852       7856.5620      0.70625000       2.0310000     -0.38000000       341.70000       2.1514724     0.014888330
       1810.0000       289.53087       99734.665       7842.6621     -0.54500000      0.32175000      0.16150000       343.23300       2.0854172     0.014521757
       1815.0000       289.62272       99748.084       7860.7100    -0.035500000       1.0712500     -0.19350000       341.51400       2.1119708     0.013749157
       1820.0000       289.60797       99745.703       7834.1165     -0.53000000      0.41375000     0.080500010       342.08000       2.1256225     0.010616527
       1825.0000       289.49750       99726.149       7744.8745     -0.44775000      0.97975000     0.041000000       343.05500       2.1700267     0.010903756
       1830.0000       289.47613       99730.334       7724.7581     -0.18125000       1.0050000      0.23875000       343.29900       2.0824450    0.0084043930
       1836.0000       289.44338       99747.077       7728.9216      0.17400000       1.6247500    -0.014750000       341.87400       2.1711264     0.012547913
       1841.0000       289.42454       99744.676       7729.3254      0.57775000       1.3140000      0.69400000       343.55000       2.1529822     0.012092920
       1846.0000       289.46387       99747.568       7757.5925      0.49950000       1.5435000     -0.16100000       341.50000       2.1346570    0.0089223264
       1851.0000       289.43057       99745.988       7752.8413      0.97025010       1.1780000      0.19500000       342.51400       2.1397478    0.0095457585
       1856.0000       289.34365       99726.781       7729.2143       1.0657500       1.5480000    -0.093750010       341.69800       2.1592124     0.011710860
       1861.0000       289.31505       99746.244       7739.7973       1.0387500      0.98325000      0.12150000       341.35100       2.2108349     0.022386732
       1866.0000       289.29365       99749.058       7735.6810       1.5025000      0.47600000      0.64975010       343.75600       2.1762530    0.0081614055
       1871.0000       289.25495       99730.773       7709.0778      0.30850000      0.69150000     -0.23000000       340.79900       2.1961593     0.010439432
       1876.0000       289.28132       99728.477       7719.0487      0.79800000      0.29875000    -0.095500010       340.89400       2.1377838     0.011920017
       1881.0000       289.39014       99728.286       7751.2210      0.40625000      0.61250000    -0.013250000       340.88100       2.1227049    0.0090995291
       1886.0000       289.44960       99727.737       7768.9718      0.42675000      0.79550000   -0.0075000000       341.77400       2.1346550     0.013255167
       1891.0000       289.50902       99732.104       7793.3068      0.67225000       1.2230000     -0.25350000       341.18800       2.1364193     0.011658796
       1896.0000       289.61853       99755.370       7840.9803      0.52450000       1.4670000     -0.30325000       341.26200       2.1773521     0.012153736
       1901.0000       289.64439       99750.195       7899.5587    -0.047500000      0.91575000      0.18325000       342.17900       2.1962573     0.014751139
       1906.0000       289.57630       99728.092       7938.1563      0.46150000       1.1425000      0.27300000       342.39000       2.1644897     0.012938789
       1911.0000       289.70771       99732.970       8073.0727      0.14775000      0.90225010     -0.16825000       341.95700       2.1514771     0.011471689
       1916.0000       289.79751       99729.897       8185.1461      0.67350010      0.73425000      0.15650000       341.28200       2.1019282    0.0083974423
       1921.0000       289.91065       99735.252       8334.0314     -0.46650000       1.4377500    -0.047500000       341.87800       2.2028443     0.016202834
       1927.0000       290.07700       99737.576       8432.2594      0.91000000       1.4240000     -0.72275000       341.60800       2.0814226    0.0099666390
       1932.0000       290.20883       99718.684       8454.4359      0.29550000       1.4997500    -0.046250000       341.69500       2.0774096     0.010560355
       1937.0000       290.31879       99716.529       8481.9951      0.13875000       1.2717500      0.21000000       341.38700       2.1621175     0.017224294
       1942.0000       290.52150       99736.026       8480.8149      0.59625010       1.4612500     -0.29750000       340.98400       2.1262755    0.0093804087
       1947.0000       290.59402       99737.460       8450.6962     -0.63700000      0.62550000    -0.059250000       341.93900       2.1142469    0.0098975414
       1952.0000       290.53502       99727.865       8410.8350     -0.98725000      0.66400000     -0.15800000       341.06800       2.1562804     0.014571916
       1957.0000       290.50246       99729.895       8359.9884     -0.54525000       1.6350000      0.43775000       342.66000       2.0840276    0.0086150479
       1962.0000       290.38447       99729.171       8239.3568      -1.0265000      0.36575000     0.077500000       342.49500       2.0995054    0.0090273043
       1967.0000       290.32770       99728.597       8170.8020      -2.6487500       1.5657500     -0.34500000       341.57700       2.0844152    0.0079788811
       1972.0000       290.29522       99747.168       8137.8137      -1.8817500       1.5977500      0.25775000       341.17800       2.1554995     0.013542186
       1977.0000       290.28759       99749.284       8095.4363      -1.4637500      0.95450000      0.21725000       342.09900       2.1664845     0.016100391
       1982.0000       290.34771       99725.382       8073.2583     -0.27175000       2.8242500     -0.73050000       341.40300       2.1489749     0.011331414
       1987.0000       290.35639       99722.014       8040.2618     -0.77875010       1.3407500     -0.37400000       342.70800       2.1443569     0.012190607
       1992.0000       290.37008       99731.199       7996.9711      -1.1510000       2.4520000     -0.30200000       341.51100       2.1865523     0.010998581
       1997.0000       290.35779       99730.170       7955.7263      -2.5905000       1.3990000      0.12775000       342.07200       2.1506258    0.0096001306
       2002.0000       290.28884       99735.991       7893.3988      -3.1197500       1.5012500     -0.22750000       340.99500       2.1542956    0.0097522883
       2007.0000       290.23842       99737.539       7869.2648      -2.3080000       1.6270000     -0.48825000       340.95000       2.1218710    0.0094248927
       2012.0000       290.20396       99718.926       7888.2164      -1.0037500       1.5517500     -0.24025000       341.55400       2.1585113     0.012118964
       2018.0000       290.12953       99717.155       7867.9581      -1.6027500       1.3430000      0.77650000       342.69800       2.1029895    0.0082457585
       2023.0000       290.01725       99737.017       7848.4061      -2.1000000       2.3562500     -0.64100000       341.73400       2.0977310    0.0095560102
       2028.0000       289.97516       99737.531       7844.9012      -1.3722500       2.4325000     -0.94900010       341.27600       2.0990794    0.0099272198
       2033.0000       289.93606       99728.505       7812.9149      -1.0152500      0.90800010    -0.081500000       342.51100       2.1170023    0.0077702810
       2038.0000       289.93735       99731.016       7814.0855      -1.0275000       1.5140000     -0.20350000       342.27400       2.0663886    0.0090152592
       2043.0000       290.03394       99731.363       7869.4335    -0.065000010       2.0402500      0.33950000       342.97500       2.0694989    0.0099981377
       2048.0000       290.07034       99728.693       7893.8941     -0.53450000       2.5417500      0.15950000       341.38400       2.1190784     0.013141791
       2053.0000       290.10848       99737.015       7889.6131      0.36300000       1.4542500      0.42725000       342.85800       2.0940361    0.0076815042
       2058.0000       290.11083       99737.516       7924.4379      0.27625000       1.7535000      0.20925000       342.47700       2.1270520     0.011007745
       2063.0000       290.08841       99717.936       8004.7055     -0.74325000       1.0997500      0.15000000       342.66400       2.0371125    0.0097428175
       2068.0000       290.04157       99717.159       8024.1484     -0.61950000       1.7652500    0.0022500000       343.76500       2.0606944    0.0088760541
       2073.0000       289.91762       99736.685       8042.5292     -0.43150000      0.44350000    -0.010250000       342.23900       2.0838899    0.0089782399
       2078.0000       289.87517       99737.139       8037.8426      0.27650000       1.9240000    -0.061500000       341.67900       2.1475470     0.012513130
       2083.0000       289.77265       99729.703       7918.9211    -0.061500000       1.9292500     -0.25725000       342.08100       2.0710216    0.0089831660
       2088.0000       289.84301       99730.811       7932.0259     -0.27750000       1.5657500      0.27650000       342.67500       2.0778627    0.0084861598
       2093.0000       290.10131       99726.261       8019.9617     -0.18100000       2.2630000     -0.30550000       341.67600       2.1305068     0.014792354
       2098.0000       290.26583       99722.921       8099.3596     -0.18725000       1.5642500      0.48100000       343.10100       2.0550999    0.0079893845
       2104.0000       290.54650       99729.554       8290.4739     -0.88850000       3.3335000     0.090250010       342.05900       2.1661617    0.0096223754
       2109.0000       290.71649       99732.922       8396.6876      -1.0117500       2.6117500      0.46550000       342.08700       2.1320987    0.0097475009
       2114.0000       290.85754       99727.623       8498.9755      0.72300000       2.0717500    -0.094250000       342.22800       2.0777872    0.0095451387
       2119.0000       290.89558       99730.637       8537.3728      0.15525000       1.9622500     -0.11000000       342.82500       2.1331226    0.0071865915
       2124.0000       290.89248       99748.626       8536.5692     -0.29200000       1.0877500      0.86650000       342.62300       2.0684768    0.0086098138
       2129.0000       290.84097       99746.854       8520.4788      0.28500000       1.1915000      0.37200000       343.14200       2.0798940    0.0079444934
       2134.0000       290.62678       99728.534       8445.4078     -0.38400000       1.8772500     -0.29875000       341.47800       2.1552177     0.011461614
       2139.0000       290.52893       99728.311       8379.6849      -1.2542500       1.8527500     -0.92075000       342.05800       2.1237667     0.013056517
       2144.0000       290.48139       99730.713       8323.8034     -0.39600000       2.2327500      0.26000000       342.86700       2.0756082    0.0080120649
       2149.0000       290.40211       99728.362       8227.5826      0.78850000      0.52250000      0.96025000       342.69800       2.0806059    0.0076376731
       2154.0000       290.30578       99738.478       8062.5922      -1.0600000       4.0060000    -0.034250000       341.75800       2.0724962    0.0085035888
       2159.0000       290.26825       99736.389       7979.2525     -0.11350000       2.6492500     0.043250000       342.43200       2.1616814     0.015082711
       2164.0000       290.25494       99712.001       7910.7298      0.21650000       2.8420000     -0.26775000       342.04900       2.1462956     0.011539845
       2169.0000       290.23149       99712.546       7852.7165     -0.42350000       2.7517500     -0.50350000       342.11200       2.1644518     0.012644855
       2174.0000       290.24581       99731.609       7828.0451      -1.2542500       3.7202500     -0.24000000       341.49000       2.1528330     0.010615333
       2179.0000       290.25611       99731.717       7825.9118     -0.99350010       3.4820000    -0.057500000       341.39800       2.0445008     0.010361822
       2184.0000       290.24316       99728.408       7841.2809       1.1470000       2.6060000      0.16375000       342.49600       2.0684586    0.0077366094
       2189.0000       290.24926       99732.357       7842.0684     -0.67525010       1.6252500    0.0067500000       342.24600       2.0787226    0.0087672399
       2195.0000       290.29441       99730.165       7889.3329      -1.4590000       3.5155000     -0.12050000       342.23500       2.1372975     0.012565864
       2200.0000       290.32427       99728.052       7883.0764     -0.35800000       5.6867500     -0.17250000       341.37200       2.1057464     0.010533234
       2205.0000       290.34482       99737.925       7821.4946      -1.3417500       3.8032500      0.34775000       342.91000       2.1069065    0.0090234612
       2210.0000       290.36489       99736.301       7808.6289     -0.73325000       4.5432500     -0.96000000       341.20600       2.0612252     0.012245635
       2215.0000       290.38597       99717.641       7792.1129     -0.95550010       4.8532500     -0.59400000       340.85800       2.1565762     0.012539919
       2220.0000       290.43538       99717.998       7824.5512      -1.0732500       3.8602500     -0.33275000       341.11400       2.1917232     0.013215074
       2225.0000       290.50234       99732.262       7891.9086     -0.80825000       4.2680000    -0.057500000       342.26200       2.1218433     0.011573271
       2230.0000       290.52349       99730.649       7955.1263    -0.057250000       4.0815000     0.029750000       341.24600       2.1788516     0.024949202
       2235.0000       290.55145       99723.579       8059.0692     -0.50575000       3.5560000     -0.33450000       341.88100       2.1329700     0.010192539
       2240.0000       290.57253       99727.325       8122.3874      0.69550000       4.0595000      0.26450000       342.03500       2.1619263     0.012134126
       2245.0000       290.55278       99731.331       8185.7763     -0.49525000       2.5680000      0.14350000       341.08900       2.1110314    0.0094436565
       2250.0000       290.54312       99728.464       8202.1026     -0.17775000       2.2772500     -0.27400000       340.99000       2.1353841    0.0085911991
       2255.0000       290.59612       99730.870       8196.6890    -0.081250000       2.2970000      0.45725000       341.73000       2.1397732     0.010820111
       2260.0000       290.51154       99733.044       8164.1143      0.82725010       1.6030000     0.044000000       342.28400       2.1595226     0.010048424
       2265.0000       290.32260       99724.763       8082.5215      0.24250000       2.2292500     -0.36650000       341.96000       2.1066839    0.0083707686
       2270.0000       290.21213       99722.459       8022.3360      0.34300000       1.7852500     -0.85900000       341.24100       2.0873725    0.0080458477
       2275.0000       290.04041       99732.807       7943.4503     -0.21650000       1.9425000     -0.26175000       342.64100       2.1931236     0.012113653
       2280.0000       289.97478       99730.377       7896.4008    -0.037750000       1.3392500     -0.13625000       341.92400       2.1212594    0.0099258671
       2286.0000       290.00617       99712.300       7861.6428      0.22575000       2.3420000     -0.12625000       342.75000       2.1429472     0.011155517
       2291.0000       289.95526       99714.950       7800.8219      0.52125000       3.1780000     -0.28025000       341.75500       2.1332530     0.015847500
       2296.0000       289.91469       99727.660       7744.8403      0.41900000       1.8832500     -0.60925000       342.83100       2.1329895     0.012714336
       2301.0000       289.83102       99722.039       7676.8356       1.2747500       1.9600000      0.35825000       342.73200       2.0798823    0.0085855215
       2306.0000       289.67612       99714.052       7567.9187       1.3152500       1.9657500    -0.070750010       342.04600       2.0723598    0.0072707942
       2311.0000       289.69062       99720.311       7559.4686      0.58250000       1.2685000      0.42075000       342.02800       2.0481383    0.0083733542
       2316.0000       289.68800       99715.327       7546.7025       1.1395000       1.6575000      0.25375000       342.50900       2.0562738    0.0079917846
       2321.0000       289.80064       99710.334       7578.1857      0.80500010       2.2195000     -0.11050000       341.05000       2.1321416     0.010320095
       2326.0000       289.82474       99715.252       7588.2523      0.64850000       2.0295000     -0.36875000       340.76400       2.0984317    0.0096082670
       2331.0000       289.75503       99717.459       7575.8628      0.17725000       1.6150000     -0.42475000       340.79000       2.0896523    0.0099309280
       2336.0000       289.70674       99714.281       7572.8862     -0.35475000       1.3782500    -0.039500000       341.84100       2.1015321    0.0087084294
       2341.0000       289.64617       99713.561       7570.7470      0.32175000       1.6345000     -0.27150000       341.42700       2.1247976    0.0079361813
       2346.0000       289.53851       99726.588       7563.7174     -0.13400000       1.1510000      0.22500000       342.38600       2.1241945    0.0085047521
       2351.0000       289.50089       99731.231       7567.2222    -0.095750000       2.0815000     0.012000000       343.26000       2.0893144    0.0071530112
       2356.0000       289.49440       99724.490       7572.8370      0.26625000       1.6267500     -0.14900000       341.08500       2.1114440    0.0095253417
       2361.0000       289.47046       99731.097       7603.8481     0.019000000       1.5147500      0.25950000       341.88700       2.1553702     0.010693152
       2366.0000       289.48771       99732.647       7647.9034      0.28850000       1.1782500     -0.59675000       340.75200       2.1319995    0.0072607645
       2371.0000       289.52997       99715.760       7755.1486      0.22550000      0.95475010      0.19525000       341.41600       2.0386433    0.0088466863
       2377.0000       289.60126       99712.191       7820.3734     0.018500000      0.53575000     -0.45025000       340.82000       2.1773389     0.017547036
       2382.0000       289.74741       99728.546       7838.6543     -0.25250000      0.37825000     -0.27025000       341.61500       2.0926375     0.010361771
       2387.0000       289.82462       99726.937       7872.4159     -0.11525000      0.53275000     0.089750010       341.59600       2.1111185     0.010478168
       2392.0000       289.86589       99713.210       7859.2626      0.10525000      0.20375000      0.17925000       341.98400       2.1686559     0.015672941
       2397.0000       289.91508       99714.511       7891.1345     0.097000000      0.46750000      0.40800000       343.12000       2.1463167     0.010531513
       2402.0000       289.96293       99719.322       8019.8287      0.77325000      0.82575010      0.14750000       341.50700       2.1505498     0.015120221
       2407.0000       289.96089       99714.318       8050.4287     0.013500000      0.66675000      0.39050000       343.24300       2.2190011     0.023096111
       2412.0000       289.92200       99711.317       8029.6669     0.042250000      0.99175010     -0.29975000       340.94500       2.0966923    0.0099668233
       2417.0000       289.90062       99716.236       8018.3509     -0.11850000      0.48900000     -0.21125000       341.04500       2.1057723     0.013745353
       2422.0000       289.79127       99719.312       7906.9444     -0.39525000      0.60300000     -0.31575000       341.21200       2.0595308    0.0088056030
       2427.0000       289.77622       99714.372       7880.0374     -0.56600000      0.38025000    0.0057500000       341.16800       2.2164127     0.018182839
       2432.0000       289.82191       99711.483       7903.3855     -0.89775000      0.57850000      0.26325000       341.89800       2.0789550     0.011371286
       2437.0000       289.89569       99716.453       7947.2640      -1.1335000      0.74650000      0.12250000       341.58700       2.1740538     0.021733615
       2442.0000       290.03890       99716.559       8040.2718      -1.7740000       1.3655000     -0.15825000       341.91000       2.1855799     0.014406614
       2447.0000       290.17097       99713.729       8133.2852      -2.1312500       1.2762500      0.19675000       340.88100       2.0911969    0.0078631433
       2452.0000       290.38853       99723.574       8296.3026      -1.4910000      0.87275000     -0.15650000       340.90200       2.1365318    0.0089362452
       2457.0000       290.49525       99728.129       8380.4290     -0.81125000      0.70550000     -0.27400000       340.76700       2.0874939    0.0087518676
       2462.0000       290.53691       99716.729       8426.8841     -0.26900000      0.26350000   -0.0035000000       340.94500       2.0403152    0.0082989514
       2468.0000       290.57543       99712.892       8464.8233     -0.75450000      0.21175000     -0.41600000       342.54000       2.1092549    0.0099927576
       2473.0000       290.50483       99721.139       8403.4979     -0.89875010     -0.38450000      0.50525000       343.48400       2.1723955     0.012079057
       2478.0000       290.48867       99721.331       8408.9174      -1.3975000      0.33475000    -0.099500010       341.89700       2.1455085     0.011532139
       2483.0000       290.53815       99715.298       8484.2848      -1.5630000     -0.28100000    -0.016000000       341.94800       2.1090864    0.0098514662
       2488.0000       290.49635       99714.747       8470.7643      -1.5925000     -0.54700010     -0.12675000       341.17900       2.0976038     0.010757821
       2493.0000       290.35819       99718.454       8398.1027      -1.8782500     -0.50725000      0.23325000       342.20400       2.1380014    0.0099206130
       2498.0000       290.32512       99714.698       8386.4722      -1.2477500     -0.36700000     0.091500010       342.65300       2.1250231     0.011065888
       2503.0000       290.34223       99702.001       8396.6829      -2.8845000       1.7190000     -0.40425000       340.89500       2.0548466     0.011284368
       2508.0000       290.27883       99704.582       8330.2951      -2.0392500      0.95225010     -0.14950000       340.80200       2.0883075     0.010772490
       2513.0000       290.23844       99717.296       8275.8078      -1.6825000      0.46375000     -0.37725000       342.56100       2.0334287    0.0090509612
       2518.0000       290.19160       99715.539       8199.5608      -1.1632500      0.72175000     0.032000000       342.60800       2.1232860     0.011808025
       2523.0000       290.00682       99712.486       7986.8616      -1.0575000      0.83700000      0.15975000       341.33600       2.0855407     0.010938511
       2528.0000       289.95604       99717.434       7890.8151     -0.60775010      0.50050000     0.055000000       340.96000       2.0470074    0.0094688870
       2533.0000       290.05067       99718.347       7857.2331     -0.34200000      0.49075000    -0.055000000       341.61800       2.0805697     0.011394374
       2538.0000       290.05695       99713.272       7846.9018    -0.041250000      0.50200000    -0.055000000       341.64700       2.0828956     0.010238529
       2543.0000       290.04408       99711.934       7900.2969     -0.32375000      0.54575000   -0.0072500000       342.36200       2.0392837    0.0086665010
       2548.0000       290.05412       99716.817       7919.5909     -0.60575000     0.089500000      0.20975000       343.10600       2.0973226    0.0095451764
       2553.0000       290.00369       99718.323       7939.9929     -0.78025000     0.054250000      0.32150000       342.64700       2.0641476    0.0090914792
       2559.0000       290.06293       99712.421       7995.1540     -0.74550000     0.047250000     -0.12900000       341.99300       2.1327529    0.0098757498
       2564.0000       290.21168       99713.620       8045.0395     -0.93650010     -0.31350000     -0.23625000       341.29700       2.1485759     0.011463622
       2569.0000       290.30224       99718.632       8084.6229     -0.96050010   -0.0042500000     -0.19600000       342.56400       2.1104293     0.010118587
       2574.0000       290.41753       99717.289       8150.1838     -0.63475000      0.66775010   -0.0047500000       343.19300       2.0715525    0.0089719758
       2579.0000       290.51224       99712.220       8200.7691     -0.71025000      0.36650000     0.048000000       341.85900       2.0863347    0.0090117518
       2584.0000       290.60712       99712.916       8228.5420     -0.26850000       1.1702500    -0.049500000       342.16400       2.0188383    0.0077088494
       2589.0000       290.62862       99717.841       8251.0247     -0.86200000      0.46325000    -0.026000000       342.78100       2.1194750     0.010557164
       2594.0000       290.60359       99717.286       8281.0706     -0.24225000      0.63200000     0.014750000       341.86400       2.0873007    0.0097772709
       2599.0000       290.60723       99712.353       8302.2975     -0.60425000      0.61125000     -0.10250000       342.12900       2.0544854    0.0087241410
       2604.0000       290.54338       99713.192       8293.6424      -1.1782500     -0.26850000      0.13500000       342.56000       2.0890144    0.0086811349
       2609.0000       290.53560       99718.154       8303.4855     -0.66050000      0.54200010     -0.62775000       340.99500       2.0854083    0.0098574069
       2614.0000       290.61131       99716.867       8354.9554     -0.78525000      0.14700000      0.32375000       341.81300       2.1469957     0.014287558
       2619.0000       290.60876       99711.839       8338.1026     -0.85550000       1.0372500    -0.013000000       342.76300       2.0826078    0.0099098537
       2624.0000       290.55813       99713.321       8273.4742     -0.55475000       1.5217500     -0.22425000       341.40900       2.1130344     0.011527263
       2629.0000       290.53816       99718.504       8240.9813     -0.76050000       1.6950000      0.48650000       341.57300       2.1109284     0.012301055
       2634.0000       290.52348       99717.447       8196.6353     -0.40500000      0.44375000      0.40525000       342.47100       2.0854391    0.0092130616
       2639.0000       290.47746       99712.420       8139.9426     -0.56200000       1.6105000     0.042500000       341.86100       2.0345637     0.011263167
       2644.0000       290.43795       99713.231       8102.6621     -0.60150000       1.3827500      0.12600000       342.31000       2.0769438     0.012664665
       2650.0000       290.34847       99719.188       8023.9301     -0.26200000       2.3505000     -0.14450000       341.52100       2.0256920     0.010171279
       2655.0000       290.18491       99715.813       7893.6343     -0.84775010       2.8007500      0.58600000       343.41400       2.0833940     0.012615897
       2660.0000       290.16061       99710.805       7855.3724       1.9792500       3.6550000     0.039750000       342.75200       2.0747839     0.011072982
       2665.0000       290.18735       99714.396       7848.2149       1.6332500       2.8790000     -0.87575010       341.46900       2.0789840     0.011570735
       2670.0000       290.20515       99719.585       7855.5506      0.78550000       3.0200000     -0.53925000       342.55800       2.0799282     0.011507836
       2675.0000       290.28057       99716.221       7904.5765      0.74625000       2.8437500     -0.21575000       342.01300       2.0375165     0.010298765
       2680.0000       290.35938       99711.145       7956.0549      0.17200000       1.6210000      0.18800000       343.13200       2.0684104     0.013091055
       2685.0000       290.44757       99716.165       8033.8851      0.61700000       3.1752500      0.75025000       342.23700       2.1148237     0.012799350
       2690.0000       290.48838       99717.397       8069.1914    -0.028250000       3.0192500     -0.29650000       341.97500       2.0538778     0.010401238
       2695.0000       290.57224       99705.191       8104.8120     -0.60025000       2.4895000    -0.075250010       342.20100       2.1220693     0.013248354
       2700.0000       290.56794       99699.903       8139.3157     -0.52800000       1.7275000      0.28975000       341.67300       2.0816165     0.012674274
       2705.0000       290.46083       99703.009       8143.9239     -0.40550000       1.7297500      0.35375000       342.63100       2.1812380     0.016612177
       2710.0000       290.41025       99709.792       8155.6132      0.41800000       1.8782500    -0.059500000       342.92500       2.0128433     0.010981221
       2715.0000       290.35170       99716.763       8201.0551       1.1365000       1.7375000      0.27600000       342.99700       2.0312554    0.0094204580
       2720.0000       290.32021       99713.977       8180.7433       1.0735000       1.4267500     -0.83850000       341.69500       2.0473153    0.0091283178
       2725.0000       290.26011       99713.854       8088.9428      0.58250000       2.7645000    -0.050500000       342.33200       2.0476522    0.0085228804
       2730.0000       290.32279       99718.798       8084.1623      0.87950000       2.3537500     -0.40225000       342.47300       2.0210075    0.0092147192
       2736.0000       290.50007       99715.351       8089.2933      0.73350010       1.5220000      0.10500000       342.51700       2.0604393    0.0089893796
       2741.0000       290.57955       99710.422       8119.0910     -0.66475000       3.3050000     -0.55000000       341.99200       2.0599717    0.0085813703
       2746.0000       290.71889       99717.120       8211.1591   -0.0065000000       2.7160000      0.20925000       342.78700       2.0946235     0.010642729
       2751.0000       290.77466       99717.812       8247.5220      0.77425000       1.7475000      0.55400000       343.95000       2.1440456     0.010599107
       2756.0000       290.73253       99704.064       8261.7195      0.39250000       3.4960000      0.37700000       342.41800       2.0596685    0.0097440840
       2761.0000       290.89210       99699.212       8310.7845      0.78500000       3.2010000     -0.30850000       341.88600       2.0959043    0.0095097741
       2766.0000       290.96583       99703.858       8342.1652     -0.43575000       2.1935000      0.56450000       343.28800       2.1099975     0.010511574
       2771.0000       291.07121       99717.340       8379.4740      -1.3120000       2.2730000     -0.46875000       341.88800       2.1992806     0.014215009
       2776.0000       291.08783       99716.604       8398.7969     -0.64800000       2.6200000     -0.15800000       342.51800       2.1432915     0.011255442
       2781.0000       290.92504       99710.255       8380.4941      0.13575000       2.5625000     -0.46050000       342.63000       2.1185935    0.0097530350
       2786.0000       290.84442       99715.173       8376.6922     0.012000000       2.9310000      0.58600000       341.79100       2.0962570    0.0095889219
       2791.0000       290.77613       99720.092       8374.2024     -0.64850000       2.9127500    -0.039750000       342.04600       2.0742352     0.011144126
       2796.0000       290.67528       99715.210       8366.3484      0.15475000       3.6415000     -0.40350000       341.53900       2.1096587     0.011204857
       2801.0000       290.67098       99710.329       8370.4181       1.5632500       2.2737500      0.32925000       341.54200       2.0833645     0.010489740
       2806.0000       290.76853       99716.500       8395.5858      0.23200000       1.8640000      0.12325000       341.78100       2.1492125     0.021932804
       2811.0000       290.73796       99711.247       8392.9057     -0.58825000       2.0300000     -0.41925000       341.86200       2.1091116     0.010023346
       2816.0000       290.67324       99703.907       8342.1399     -0.62375000       2.3732500     -0.47575000       340.80200       2.0261010     0.016972496
       2821.0000       290.43913       99702.365       8183.0208      -1.5147500       1.2000000      0.70225000       343.14700       2.0677275     0.010076803
       2827.0000       290.30842       99705.965       8081.4793     -0.87550000       1.5970000    -0.025500000       341.66200       2.0865540    0.0096885330
       2832.0000       290.20338       99707.704       7969.3480     -0.35600000       1.3660000     0.089500000       341.68400       2.0945704    0.0091913447
       2837.0000       290.21330       99704.774       7934.1218     -0.38250000       2.0807500     -0.25525000       341.76300       2.0890247     0.010519869
       2842.0000       290.49583       99704.272       8034.0448     -0.88650010       2.1747500     -0.17825000       342.27500       2.1400733     0.014421319
       2847.0000       290.53775       99706.197       8051.7651      -1.3470000       1.6305000     -0.28050000       341.69100       2.1746319     0.019686027
       2852.0000       290.48829       99700.066       8063.9266      -1.0682500       2.2480000      0.14025000       341.36400       2.1128501    0.0099910088
       2857.0000       290.46309       99698.428       8065.9010      -1.1620000       1.7415000      0.69400000       342.16200       2.1165005    0.0088837266
       2862.0000       290.23311       99712.708       7981.0006     -0.51125000       2.7012500     -0.45700000       340.78000       2.1324481     0.012703848
       2867.0000       290.15224       99713.025       7972.6198     -0.57050000       2.2407500     -0.15475000       340.80800       2.0972540    0.0082818943
       2872.0000       290.20562       99698.687       8014.9561     0.039000000       1.7282500      0.16900000       341.23100       2.1375207     0.010809353
       2877.0000       290.24776       99693.828       8055.1661      0.21575000      0.86800000     -0.20825000       340.87900       2.1278108    0.0091856848
       2882.0000       290.38584       99688.200       8163.6435      0.39125000       1.6142500     -0.58675000       341.10600       2.1189124     0.010082002
       2887.0000       290.42176       99683.568       8212.3910     -0.13875000      0.67875000      0.67150000       342.18300       2.1663571     0.014379751
       2892.0000       290.39748       99680.301       8220.7872     -0.44925000       1.2032500     -0.19525000       341.24800       2.1251802     0.010210700
       2897.0000       290.40652       99684.754       8241.0510     -0.34100000      0.87675010     -0.32500000       341.72100       2.1118714    0.0093956142
       2902.0000       290.31207       99699.305       8216.0217     -0.50425000      0.77575000      0.26875000       342.59300       2.1134491     0.011389395
       2907.0000       290.32767       99702.134       8230.9743     -0.19075000       1.1477500     -0.26225000       341.04300       2.0743053    0.0096487600
       2912.0000       290.50730       99702.105       8299.3765     -0.31525000      0.59200000     0.027000000       342.44600       2.0822697    0.0083634866
       2918.0000       290.58484       99707.848       8336.3841     -0.35950000      0.92500010      0.26675000       342.09900       2.1287271     0.013336504
       2923.0000       290.63493       99708.330       8376.3836     -0.20025000      0.39500000      0.14850000       343.29600       2.0432466     0.010599550
       2928.0000       290.67707       99703.946       8386.6263     -0.24575000       1.3490000     -0.20375000       341.32800       2.0949743     0.010581020
       2933.0000       290.63069       99698.331       8336.1998     0.075500000      0.89875010     -0.17375000       341.88500       2.0679599    0.0081221767
       2938.0000       290.64831       99700.761       8340.0817      0.54000000      0.85125010      0.22350000       342.37100       2.1054469    0.0097943257
       2943.0000       290.77259       99702.762       8383.9290    -0.016000000       1.4975000    -0.045000000       342.51700       2.1320005    0.0090826211
       2948.0000       290.76822       99698.786       8380.3019       1.4075000       2.4242500     -0.18350000       341.90900       2.1569890     0.017021364
       2953.0000       290.66777       99697.954       8363.5718       1.4495000       2.1375000     -0.25325000       343.43600       2.1352054     0.011566872
       2958.0000       290.63798       99701.883       8366.8323       1.7625000       2.0755000     0.035500000       341.23500       3.4844372     0.014420306
       2963.0000       290.56609       99702.859       8349.4460       2.9202500       1.8597500     -0.73000000       341.51100       3.3895757    0.0093247113
       2968.0000       290.52385       99698.948       8333.1602       1.1162500       1.6885000     0.078250010       342.95400       3.9700008     0.011136031
       2973.0000       290.58514       99699.310       8363.7259       1.2905000       1.9507500    -0.014500000       341.34500       4.6623093     0.011221970
       2978.0000       290.55371       99701.877       8345.1957       1.1232500       1.5845000     -0.31950000       341.65100       5.3165926     0.014174359
       2983.0000       290.46857       99696.493       8280.9342      0.64875000       1.0035000      0.50775000       342.62200       2.7496986    0.0096408531
       2988.0000       290.37083       99693.174       8223.1587       2.2672500       1.5367500     -0.67250000       341.26700       2.1690702     0.016282408
       2993.0000       290.19356       99700.852       8136.8584       2.7165000       2.4672500    -0.070500000       341.77100       2.1488380    0.0096685453
       2998.0000       290.10004       99701.691       8085.6318       1.5092500       1.6822500      0.42475000       342.57900       2.1287416    0.0095314925
       3003.0000       289.97599       99688.778       8023.0411       1.1675000       1.6460000      0.10200000       342.86300       2.7396431    0.0095752249
       3009.0000       289.97622       99688.841       8008.0327      0.89300010       1.9460000     -0.26275000       342.01000       2.1341031    0.0095286112
       3014.0000       290.13518       99702.023       8059.8943       2.0137500       3.1940000     -0.87225000       342.38400       2.1178670    0.0097842391
       3019.0000       290.17896       99701.064       8067.9167      0.90100000       2.6592500     -0.18650000       342.63400       2.0739405    0.0082388917
       3024.0000       290.26530       99693.028       8093.3360      0.58775000       3.0620000     -0.10600000       341.50400       2.0917913    0.0087416427
       3029.0000       290.27007       99696.286       8087.2752       1.9610000       1.7737500     -0.17225000       342.05800       2.0760309    0.0088360805
       3034.0000       290.14654       99702.034       8035.1943       1.6660000       3.1047500     -0.52400000       342.05500       2.0893519    0.0091043870
       3039.0000       290.12878       99699.443       8019.9041       1.8830000       4.0247500     -0.28350000       341.25900       2.0873834    0.0099077039
       3044.0000       290.10973       99698.741       8004.3446      0.95450000       2.6407500     -0.35725000       341.76200       2.0732661     0.010005152
       3049.0000       290.16480       99702.667       8011.5918      0.71025000       3.2137500     -0.33200000       341.75400       2.0569926    0.0087699498
       3054.0000       290.29114       99701.039       8014.4863      0.48775000       2.1175000      0.64225000       343.13800       2.1171353     0.019824870
       3059.0000       290.41258       99698.787       8081.2875      0.21800000       3.3202500     -0.28050000       341.38300       2.0657137    0.0092291391
       3064.0000       290.59700       99705.331       8198.2829     -0.13875000       3.6857500      0.33800000       342.09300       2.1290186     0.013278149
       3069.0000       290.73100       99708.017       8306.9108       1.6357500       3.1930000     -0.13625000       341.12200       2.1193600    0.0094285751
       3074.0000       290.89092       99701.088       8497.0528      0.27600000      0.75775000      0.72225000       342.95400       2.1967225     0.016102019
       3079.0000       290.95644       99697.595       8587.0536      0.21625000       2.5802500      0.15125000       342.30100       2.0234354    0.0081147382
       3084.0000       291.00099       99701.685       8652.3155       1.2272500       3.0845000     -0.69500010       341.48600       2.0928865    0.0097145307
       3089.0000       290.94458       99700.501       8648.4874      0.92450000       2.2815000      0.16200000       342.00500       2.0818877    0.0096083075
       3094.0000       290.75529       99687.189       8559.5234       1.2872500       3.5465000       1.2235000       342.81500       2.0825952    0.0085467521
       3100.0000       290.60364       99690.457       8477.6123       1.8872500       4.1142500     0.076750000       341.85400       2.1619590     0.017487806
       3105.0000       290.37854       99709.648       8345.4767       1.5225000       2.2742500      0.52950000       342.61700       2.0540382    0.0086198174
       3110.0000       290.33198       99704.311       8286.4512       1.3562500       1.4707500     0.037250000       343.13100       2.0660683    0.0095359927
       3115.0000       290.37793       99688.482       8253.0372      0.11075000       1.8095000     -0.15275000       341.61600       2.1006267     0.010148407
       3120.0000       290.41435       99691.321       8224.0167       1.1342500       2.0612500      0.31650000       342.39100       2.1366057     0.016228947
       3125.0000       290.52767       99690.012       8207.0207      0.82825010       2.3480000    -0.010250000       341.68900       2.0934347     0.010323071
       3130.0000       290.62658       99687.761       8226.6614     0.061000000       2.4287500      0.34800000       342.40600       2.1467766     0.016283242
       3135.0000       290.73335       99701.089       8247.5301      0.24825000       1.0867500      0.42975000       341.95100       2.0816252    0.0094066077
       3140.0000       290.82282       99705.432       8338.9856      0.46500000       2.3045000     -0.39600000       340.90400       2.0732423    0.0091038653
       3145.0000       290.97302       99694.598       8531.2929     -0.54500000       1.8407500    -0.038500000       341.19300       2.1277226     0.012106570
       3150.0000       290.98989       99692.273       8610.1150     -0.40100000       1.4567500     0.087250000       341.72300       2.1381263     0.012562442
       3155.0000       290.93181       99702.223       8700.1548      0.67125000       1.1970000      0.40850000       343.40700       2.0968185    0.0091114714
       3160.0000       290.86475       99701.585       8723.6916      0.95300010       1.2407500     -0.21275000       341.69300       2.0883703    0.0094028706
       3165.0000       290.73756       99688.019       8677.7384      0.64000000       1.9895000     -0.47875000       341.13800       2.0624955    0.0086912069
       3170.0000       290.59902       99689.507       8601.6636      0.70850000       1.6500000      0.18200000       341.42600       2.1093978    0.0093800750
       3175.0000       290.41506       99702.168       8486.7007     -0.47650000      0.46200000     -0.12600000       341.42100       2.1204033    0.0095996962
       3180.0000       290.29344       99700.507       8387.8513      0.22475000       1.2072500      0.10425000       341.53400       2.0845337    0.0096486635
       3185.0000       290.15113       99693.367       8223.6540     -0.15425000      0.73775010      0.10925000       341.50300       2.1163706     0.013011786
       3191.0000       290.05591       99698.005       8131.2239     -0.40975000       2.0745000     0.032250000       342.25900       2.0532988     0.010162031
       3196.0000       290.05102       99700.856       8106.1321     -0.55725000       1.6110000      0.15275000       341.34800       2.0460491    0.0085897353
       3201.0000       290.00057       99697.793       8059.4990     -0.62425010      0.76525000     -0.30825000       341.27800       2.0456467    0.0094437326
       3206.0000       289.93826       99700.945       8026.5601     -0.32475000      0.83525000     -0.42650000       341.53600       2.0630439     0.010636170
       3211.0000       289.96057       99698.537       7984.2755     0.087250000      0.64075010     -0.22375000       341.08500       2.1228218     0.010539748
       3216.0000       289.95088       99694.371       7954.9032    -0.095750000      0.68725000      0.19825000       343.00600       2.0830874    0.0090155555
       3221.0000       289.94038       99701.244       7926.3646     -0.18200000      0.30100000      0.16875000       341.72600       2.0468356    0.0080655152
       3226.0000       289.95045       99702.627       7922.1399     -0.31925000      0.11025000     -0.17550000       340.95400       2.0734685    0.0089263018
       3231.0000       289.92959       99685.871       7958.4346     -0.17375000      0.16950000     -0.13375000       341.09900       2.0837788    0.0088320959
       3236.0000       289.93655       99682.293       7971.5096     0.010000000     -0.31525000    -0.045250000       341.49800       2.0754760    0.0089857425
       3241.0000       289.96804       99684.853       7982.2303      0.22375000     -0.16225000      0.20450000       342.25300       2.0958211    0.0095915744
       3246.0000       290.06233       99697.716       7999.0257      0.46525000     -0.58525000     -0.36775000       341.42300       2.1432689     0.012685726
       3251.0000       290.06986       99692.185       8028.7851       1.1830000      -1.2010000      0.48425000       342.40800       2.0583485    0.0089896811
       3256.0000       290.06226       99684.275       8053.0937       2.3535000     -0.34175000      0.16400000       341.94900       2.0267288    0.0091790906
       3261.0000       289.98490       99685.903       8076.5680       1.2047500    -0.039500000     -0.16300000       344.34700       2.0620476    0.0092220426
       3266.0000       289.94313       99683.480       8094.7438     -0.74325000       1.4207500      0.49600000       342.39800       2.0801721    0.0095583071
       3271.0000       289.89989       99698.287       8069.6649     -0.25250000      0.82600000    -0.027250000       342.40600       1.9962572     0.010055566
       3276.0000       289.88763       99703.935       8065.0303      0.27125000       1.6100000    -0.075250010       341.93900       2.0535927    0.0096124586
       3282.0000       289.90370       99684.327       8075.1095     -0.53950000       1.9627500     0.040000000       342.77600       2.0515829    0.0091556273
       3287.0000       289.94642       99681.953       8097.1483     -0.36575000       2.0767500     0.048500000       342.41300       2.0243624    0.0092034158
       3292.0000       290.04402       99698.528       8132.0612     -0.16350000       1.4682500      0.33375000       342.22900       2.0170103    0.0099595823
       3297.0000       290.11442       99696.978       8169.6767      0.57125000       2.5037500    -0.019250000       342.34000       1.9740045     0.011967967
       3302.0000       290.17346       99683.044       8226.5661     0.061500000       1.8172500      0.14225000       343.78100       2.0396033    0.0099632669
       3307.0000       290.26499       99684.244       8276.0957     0.060500000       1.6010000      0.77625010       343.65700       2.0800492     0.012725078
       3312.0000       290.36505       99682.355       8312.7060       1.5115000       2.6822500     -0.27000000       341.89600       2.0901767     0.011252379
       3317.0000       290.46553       99683.125       8368.3739      0.47175000       1.8490000      0.21225000       342.49500       2.0545941    0.0094188551
       3322.0000       290.65304       99709.688       8463.4476     -0.33250000       3.3022500    0.0015000000       342.30600       2.0748850    0.0088942192
       3327.0000       290.73762       99715.715       8509.3380     -0.37675000       1.8667500      0.39550000       343.71300       2.0949303     0.010195936
       3332.0000       290.77618       99695.919       8581.1195      0.39700000       2.0990000     0.016750000       341.89900       2.0514413    0.0089577285
       3337.0000       290.77065       99693.310       8573.5654       1.1847500       2.0887500     0.025500000       342.18000       2.0722840    0.0096777733
       3342.0000       290.65655       99697.770       8466.7508      0.94375000       1.8110000     -0.32950000       342.36000       2.0708142    0.0090392652
       3347.0000       290.58621       99694.764       8389.1322       1.7202500       3.0285000      -1.0065000       341.74200       1.9852836    0.0084507360
       3352.0000       290.47103       99695.554       8247.2733       2.1032500       1.1110000     -0.98625000       341.68400       2.0580739     0.010716424
       3357.0000       290.42405       99696.322       8168.7801       2.9457500       1.7242500     0.093000000       341.77500       2.0188403    0.0089577669
       3362.0000       290.44343       99683.761       8146.2276       1.7640000       3.0712500      0.16775000       342.16900       2.0206309     0.010864305
       3368.0000       290.44614       99682.874       8100.3853       1.8392500       3.1315000    -0.050500000       341.27400       2.0749193    0.0093725208
       3373.0000       290.48192       99704.138       8065.6332      0.57225000       1.2467500      0.82875000       343.23000       2.0500197    0.0083329506
       3378.0000       290.51208       99702.866       8066.5722      0.65975000       1.9820000     -0.26625000       342.60900       2.0373505    0.0080871137
       3383.0000       290.58882       99683.908       8119.7607      0.17500000       1.8662500     -0.12575000       342.19000       2.0580714    0.0093501792
       3388.0000       290.55309       99684.150       8098.6500      0.56775000       1.9695000     -0.26800000       342.09600       2.0926413    0.0098965087
       3393.0000       290.45277       99685.867       8073.1882      0.33250000       1.8997500      0.61800000       342.94700       2.0198862    0.0097172909
       3398.0000       290.37494       99683.652       8035.7354       1.4070000       2.1900000    -0.075250010       342.30600       2.0642019    0.0096310862
       3403.0000       290.18046       99695.107       7904.5844      0.15375000       1.3917500      0.18450000       342.56100       2.0550503    0.0088718107
       3408.0000       290.09636       99698.488       7851.7419    0.0065000000      0.83650000      0.22350000       342.90800       2.0293334    0.0083941502
       3413.0000       290.09211       99682.931       7827.5425       1.0465000       1.0180000    -0.013500000       342.26600       2.0532359    0.0088476880
       3418.0000       290.08948       99682.756       7844.3786      0.71050010       1.3737500     0.028250000       341.25000       2.1183035    0.0090214235
       3423.0000       290.11004       99703.863       7888.9313      0.94475010      0.93400000     -0.24675000       341.51500       2.6777348     0.010535044
       3428.0000       290.15770       99702.511       7969.4525       1.1187500      0.85650000     -0.11700000       341.86700       2.0693125    0.0086650804
       3433.0000       290.27037       99686.379       8152.4289      0.11250000      0.94375000     -0.18975000       341.64300       2.0328203     0.010166150
       3438.0000       290.32699       99683.803       8247.2723      0.52325000      0.81100000      0.24300000       342.63100       2.0551715     0.010455403
       3443.0000       290.41615       99674.138       8344.6214      0.57175000       1.2332500     -0.32825000       341.38200       2.0550671    0.0084077699
       3448.0000       290.42218       99671.858       8390.1273     -0.41400000      0.52725010      0.19525000       342.64300       2.0401881     0.011988453
       3453.0000       290.34978       99692.828       8358.4755      0.98725000       1.9037500     -0.56750010       341.90000       2.0712574    0.0088174550
       3459.0000       290.26635       99692.876       8331.8382      0.19925000       1.5415000    -0.062750000       342.61500       2.0661009    0.0092352523
       3464.0000       290.11951       99678.229       8277.1575     -0.16525000       1.3862500      0.14925000       341.68500       2.1077610     0.010729517
       3469.0000       290.05234       99672.294       8246.9240     0.082750010      0.70000000      0.65450000       343.34100       2.0602103    0.0092572640
       3474.0000       290.00215       99657.464       8211.1132       1.5550000      0.68650000      0.32000000       342.55500       2.0827662    0.0092831533
       3479.0000       289.97447       99658.327       8186.1676      0.88325010       1.1307500     -0.67275010       342.54200       2.0970051    0.0089603623
       3484.0000       290.01138       99676.450       8186.3938       1.4000000       1.9177500     -0.10475000       342.11800       2.0913869    0.0098888529
       3489.0000       289.99530       99677.605       8160.9811       1.1317500       1.5512500   -0.0040000000       341.41900       2.1055856     0.010053174
       3494.0000       289.92452       99672.079       8085.4479       1.1722500      0.30425000     -0.30475000       342.46100       2.4652723    0.0080865892
       3499.0000       289.95337       99678.356       8105.8288      0.96925000      0.84100000      0.67000000       342.68200       2.7350819    0.0097338895
       3504.0000       290.01539       99687.142       8180.0625       1.5450000       1.9740000    -0.020500000       341.78700       2.4393238    0.0088393926
       3509.0000       290.07723       99684.890       8218.0821      0.42375000       3.2502500      0.10000000       342.21200       2.1677291     0.020785808
       3514.0000       290.19197       99685.822       8313.2646       1.7957500       3.0675000     -0.46200000       341.66700       2.1046592    0.0098019030
       3519.0000       290.31871       99687.544       8361.3348       2.2397500       2.1917500      0.82300000       342.57900       2.0845452    0.0089613406
       3524.0000       290.47715       99671.236       8338.9198      0.44625000       3.0330000      0.42525000       342.33100       2.0825063    0.0099062123
       3529.0000       290.55485       99673.540       8370.9314       2.0102500       3.0705000     -0.17750000       342.61200       2.1154352     0.010436302
       3534.0000       290.67756       99704.218       8441.1775       1.5272500       3.7165000     -0.17725000       341.65000       2.0798397    0.0084286969
       3539.0000       290.68128       99704.392       8485.1520       2.2592500       2.9135000     -0.86675010       342.01200       2.0641068     0.010959131
       3544.0000       290.50539       99683.616       8514.3096       1.3687500       2.3860000     0.041250000       342.53600       2.1157452     0.011259603
       3550.0000       290.46368       99685.163       8579.2177       2.1040000       3.2622500     -0.93600000       342.31200       2.0228836     0.010182376
       3555.0000       290.40200       99681.205       8644.5273      0.77900000       1.9237500      0.19250000       343.01700       2.0724420    0.0097351215
       3560.0000       290.47647       99685.716       8689.1623       2.4827500       3.4172500     -0.37875000       341.30300       2.1339466     0.010052640
       3565.0000       290.68720       99716.283       8753.9606       3.2932500       3.0495000     -0.29025000       341.03000       2.3684947     0.010017995
       3570.0000       290.77889       99712.559       8774.3559       2.4187500       3.0727500     0.077000010       341.82400       2.1092666     0.010818872
       3575.0000       290.91376       99682.253       8755.7305      0.93575010       3.3450000     -0.56650000       341.47700       2.0376700    0.0076919066
       3580.0000       290.95918       99681.554       8741.7065      0.53050010       1.7767500     -0.26050000       341.59700       2.0483651    0.0085597493
       3585.0000       290.90007       99683.729       8716.4731      0.20875000       1.6887500     0.031000000       341.89900       2.0991430    0.0097408778
       3590.0000       290.90000       99684.424       8686.2492       1.0540000       3.4867500   -0.0032500000       341.78700       2.1401608     0.010141008
       3595.0000       290.92738       99705.169       8636.3606      0.42400000       2.3540000      -1.0952500       342.04400       2.0704358    0.0078660701
       3600.0000       290.87201       99701.258       8609.6863       1.6457500       2.9247500      -1.0702500       342.28900       2.1495518     0.014932050
       3605.0000       290.79383       99671.686       8602.9694      0.99375000       2.6630000    -0.048750000       341.78000       2.0980077    0.0085204100
       3610.0000       290.67660       99672.971       8550.9411      0.24500000       2.0280000    -0.014000000       342.25000       2.0825691     0.014390765
       3615.0000       290.46400       99684.186       8484.2378       1.1452500       2.8602500     -0.69325010       341.98300       2.0550556    0.0095011316
       3620.0000       290.35110       99687.021       8431.0864      0.38475000       2.3652500      0.20000000       342.85900       2.0849430    0.0086360505
       3625.0000       290.27984       99705.183       8358.6627       1.3135000       2.9010000     0.048500000       342.70000       2.0295645     0.011903260
       3630.0000       290.15129       99701.326       8282.4225       1.0765000       2.7790000     -0.27675000       341.88000       2.0891059    0.0096175224
       3635.0000       290.01293       99671.493       8210.5620     -0.16075000       2.7557500     0.031500000       342.01600       2.0584892    0.0093961977
       3641.0000       289.90579       99673.877       8149.6199      0.36650000       2.4822500      0.39900000       341.80800       2.1289546     0.011520297
       3646.0000       289.76808       99684.233       8070.1428      0.55275010       2.7092500      0.30925000       341.56900       2.0644810    0.0095616164
       3651.0000       289.75548       99687.452       8061.7221      0.53075000       1.4135000     -0.33175000       341.31700       2.0597729    0.0094802136
       3656.0000       289.84964       99704.784       8108.5534     -0.23925000       2.1922500    -0.012250000       342.01200       2.1121839     0.011020974
       3661.0000       289.85569       99679.529       8135.0191     -0.16500000       1.7522500      0.32350000       342.21700       1.9864433     0.010503793
       3666.0000       289.89464       99671.754       8167.7898     -0.14250000       2.3890000     -0.56575000       341.31600       2.0856039    0.0092082907
       3671.0000       289.93106       99673.809       8189.3909     -0.83950010       2.2132500     -0.75125000       342.42500       2.1173001     0.011897261
       3676.0000       289.98855       99673.468       8242.2620     0.068250000       2.3720000    -0.042750000       341.89600       2.0561886    0.0098784531
       3681.0000       290.10029       99690.241       8303.4651      0.18275000       2.8920000     -0.27550000       341.50600       2.0734563    0.0081556685
       3686.0000       290.19959       99693.969       8400.1712      0.44275000       1.5590000      0.34675000       342.53000       2.0238377     0.010922177
       3691.0000       290.29890       99690.322       8527.8344     -0.39075000       2.4072500     -0.20425000       342.44500       2.0248534     0.010632937
       3696.0000       290.40407       99673.472       8708.6217      0.23850000       3.2220000      0.54325000       342.03300       2.0557425     0.010819852
       3701.0000       290.48323       99673.779       8829.6319     -0.24825000       3.7492500     -0.26925000       340.92200       2.1727491     0.019077894
       3706.0000       290.56712       99673.360       8986.2948     -0.39725000       2.1940000      0.21150000       342.79400       2.0691733     0.010456808
       3711.0000       290.53946       99691.711       8935.8312     -0.80725000       3.8350000     -0.29450000       341.68500       2.2146300     0.018856735
       3716.0000       290.54926       99694.794       8918.8487      -1.0412500       2.0065000    -0.090750000       341.91100       2.0806841     0.010391000
       3721.0000       290.54519       99672.375       8858.1122     -0.24425000       1.3965000      0.14675000       342.29300       2.1512844     0.020638457
       3726.0000       290.54402       99667.978       8789.8926      0.92700000      0.11875000      0.24600000       343.01900       2.0814455    0.0089083237
       3732.0000       290.59046       99667.428       8727.8252       1.7455000      0.31975000     -0.35800000       342.31100       2.0728745     0.010435676
       3737.0000       290.60895       99667.979       8670.5561       1.1160000       1.5540000     -0.24725000       342.52600       2.0838909     0.014048685
       3742.0000       290.59978       99691.715       8572.5047       2.3425000       2.4147500      0.34925000       341.86900       2.1110881    0.0086026188
       3747.0000       290.59964       99694.604       8501.8343       2.2920000       1.5332500      0.39850000       342.26600       2.7528891     0.010870178
       3752.0000       290.58612       99670.664       8436.5573       1.5280000       2.0992500      0.14150000       342.18800       4.3744483     0.010629795
       3757.0000       290.59744       99667.037       8405.4209       1.8185000      0.73975000     -0.31950000       341.08000       4.7707888     0.010887137
       3762.0000       290.60559       99664.993       8379.3291       1.1535000       1.2957500     -0.23125000       341.21400       3.5987821     0.013280889
       3767.0000       290.64775       99667.836       8396.0355       1.7085000       1.4227500     -0.21850000       341.10000       4.0086381     0.010724910
       3772.0000       290.78681       99700.441       8523.8063       1.3140000       1.4377500     -0.14600000       341.32700       5.5955981     0.011168675
       3777.0000       290.82312       99706.408       8556.3683       1.6422500       1.1930000    -0.025000000       341.59000       5.2527250     0.015078438
       3782.0000       290.81427       99688.763       8567.9253      0.49175000       1.8407500     -0.63250010       341.12800       4.2381988     0.010323403
       3787.0000       290.81162       99684.747       8562.8765      0.58075000       1.3887500     -0.49925000       341.10800       3.8522780     0.010347904
       3792.0000       290.72047       99670.679       8458.9379      0.23800000      0.93450000     -0.50375000       341.41000       2.3928081     0.012907412
       3797.0000       290.68253       99666.278       8417.3007    -0.072000000      0.90350000     0.053250000       341.62500       2.2182224    0.0099636880
       3802.0000       290.68631       99683.171       8411.3979     -0.11650000       1.2227500      0.34350000       342.39800       2.0864293     0.011126789
       3807.0000       290.69764       99687.874       8407.2538      0.12950000      0.50950000      0.20925000       343.05400       2.0766702    0.0091495631
       3812.0000       290.71968       99688.642       8441.8939      0.90500000      0.42425000      0.16775000       341.47100       2.1154904    0.0097110233
       3817.0000       290.75061       99686.223       8444.6899      0.21925000      0.76600000      0.16550000       342.83800       2.0817606    0.0099055331
       3823.0000       290.83251       99669.317       8424.4868       1.0870000      0.58050000      0.41925000       343.33600       2.1195920     0.010563679
       3828.0000       290.86864       99667.877       8421.5253      0.91450010       1.0257500    -0.078250010       342.17600       2.1388145     0.014214544
       3833.0000       290.94612       99672.932       8423.4158       1.0062500      0.63575010    -0.085250010       342.28400       2.0226713     0.013441437
       3838.0000       290.90712       99675.759       8401.8790      0.32600000       1.4030000      0.24075000       343.44600       3.2817964     0.010764274
       3843.0000       290.78419       99694.067       8407.9702       1.8682500       1.5770000     -0.13250000       342.30300       2.0821739     0.010954018
       3848.0000       290.66293       99693.545       8352.5674       1.8642500       1.7645000    -0.038250000       343.15700       2.0326126     0.010165985
       3853.0000       290.40412       99671.032       8207.2587       2.3415000       2.0825000    0.0015000000       342.26300       2.0806968     0.015037249
       3858.0000       290.28065       99667.185       8133.4093       1.1337500       1.6575000    -0.042250000       341.25700       2.0635666     0.015821872
       3863.0000       290.20201       99662.490       8037.6455       1.9205000       1.6680000     -0.23950000       341.36900       2.1596271     0.010708476
       3868.0000       290.16678       99663.323       8002.2342       1.1442500      0.45200000     -0.16550000       341.87600       2.5477783    0.0095188031
       3873.0000       290.22360       99686.503       8037.7208       1.0997500       1.0900000     -0.37550000       341.89700       2.5952069     0.011080352
       3878.0000       290.25749       99689.180       8058.4513       1.0315000      0.58400010     -0.16800000       342.42900       2.1741056     0.017966294
       3883.0000       290.31983       99678.255       8098.4280      0.55475000      0.95250000      0.24950000       342.96000       2.0398005     0.010080743
       3888.0000       290.37034       99673.860       8143.3302      0.78225000       2.0535000     -0.54475000       341.16300       2.0526444     0.011389586
       3893.0000       290.43390       99657.844       8223.6799      0.26350000       1.4612500    -0.076000010       342.90700       2.0461349     0.014208109
       3898.0000       290.47052       99656.940       8251.6126      0.41500000       1.5372500     -0.22050000       341.10600       2.0316724     0.011476353
       3903.0000       290.46880       99673.018       8238.2704     -0.21175000       1.3355000    -0.082500000       342.27700       2.0145821     0.010110080
       3908.0000       290.51219       99677.641       8265.9686     -0.59025000       1.2932500     0.088250000       341.62100       2.0134942     0.010596391
       3914.0000       290.59403       99689.415       8292.4988     -0.28250000       1.7352500     0.020250000       341.40500       2.0626433     0.012910498
       3919.0000       290.61774       99686.493       8303.1691     -0.77050010       2.3380000     -0.29000000       341.08700       2.0925816     0.016501851
       3924.0000       290.65629       99664.672       8346.9221    -0.099000010       1.1967500     -0.35625000       341.10700       2.0739979     0.015163402
       3929.0000       290.66416       99662.281       8362.4013     -0.12600000      0.69100000     0.052250000       341.76800       1.9983208     0.011880722
       3934.0000       290.61177       99662.057       8338.8626     -0.74900000      0.70550000    0.0022500000       342.06000       2.0435134     0.010011926
       3939.0000       290.58184       99665.501       8321.4504     -0.56350000       1.1640000     -0.27000000       341.07500       2.0032319     0.012965820
       3944.0000       290.56874       99687.820       8317.3837     -0.76125000       1.2985000     -0.27625000       341.02700       2.0788810     0.011133753
       3949.0000       290.53268       99689.035       8292.3645     -0.99850000      0.82750000     -0.30875000       341.02900       2.0815359     0.016866566
       3954.0000       290.44782       99678.555       8229.9770     -0.86175010      0.88675000     -0.48425000       341.13500       2.0609530     0.011160150
       3959.0000       290.43032       99672.317       8198.9049     -0.57825010     0.056250000      0.14125000       341.90200       2.0659111     0.014344920
       3964.0000       290.44155       99651.812       8177.2324     -0.73875000      0.17400000     -0.16525000       341.41800       2.0833216     0.013719025
       3969.0000       290.44784       99652.270       8158.2036     -0.89650010    -0.016250000      0.15475000       341.35300       2.0539809     0.011657469
       3974.0000       290.50969       99668.311       8147.1150     -0.52325000      0.40800000      0.10725000       341.84500       2.0305171     0.012412561
       3979.0000       290.50730       99673.332       8140.0490      0.50725000       1.0540000    -0.099500010       341.21500       2.1227477     0.021178120
       3984.0000       290.48022       99689.270       8150.0096      0.49750000       1.2550000      0.10675000       341.42600       2.0516000     0.016846600
       3989.0000       290.42815       99688.060       8132.3922     0.075750000       1.5257500    -0.072500010       342.16700       2.0541270     0.013079765
       3994.0000       290.31625       99666.490       8103.1018     -0.26175000      0.93225000    -0.098250000       342.76300       2.0815029     0.020541277
       4000.0000       290.25352       99659.912       8076.0056      0.24100000       1.1580000     0.025750000       341.43700       2.0228380     0.011629053
       4005.0000       290.18428       99651.041       8016.3361      0.12300000       1.8157500      0.16700000       342.05600       2.0654702     0.025612020
       4010.0000       290.18117       99655.426       8029.2365      0.24025000       1.5337500      0.38550000       343.30300       2.0338062     0.014938591
       4015.0000       290.25488       99675.261       8094.2591      0.57950000       2.2055000      0.16075000       341.99200       2.0216046     0.012533366
       4020.0000       290.25605       99680.574       8112.1261      0.34825000       1.7695000      0.10175000       341.81300       2.0753354     0.017700884
       4025.0000       290.26460       99689.037       8152.1969       1.4725000       2.0520000    -0.029250000       341.31900       2.0410800     0.014262354
       4030.0000       290.23687       99684.725       8156.7883      0.91125010       1.7492500     -0.22000000       341.90500       2.0053228     0.012050617
       4035.0000       290.15977       99663.428       8120.0771       1.3420000      0.97125010      0.47325000       343.33800       2.0299672     0.022082816
       4040.0000       290.11030       99661.960       8098.7078       1.3972500       1.5997500      0.19450000       342.82600       2.0482978     0.019029993
       4045.0000       290.05076       99662.245       8078.8467       1.8442500       2.5590000     -0.11950000       342.98500       2.0511566     0.011144370
       4050.0000       290.01941       99666.649       8055.6014       2.3907500       1.7915000     -0.44550000       342.20500       1.9916472    0.0087246163
       4055.0000       289.98737       99688.536       8008.6982      0.81525000       2.6517500    -0.044500000       341.45700       2.0331913     0.011940753
       4060.0000       289.99515       99688.236       8006.3304       1.0720000       2.0762500     -0.43150000       341.47900       2.0368396     0.015785383
       4065.0000       290.04638       99675.064       8023.8287      0.70600000       2.1472500      0.35600000       341.46900       2.0405027     0.020323985
       4070.0000       290.06663       99674.001       8044.8783      0.55750000       1.7597500      0.36400000       343.12300       2.0371702     0.013209262
       4075.0000       290.10342       99670.531       8096.8272     -0.17750000       1.1260000      0.53625010       342.46000       2.0778293     0.018778330
       4080.0000       290.11495       99667.446       8120.7999     -0.37650000       1.0272500      0.49500000       343.52300       2.0657237     0.014208427
       4085.0000       290.09109       99668.980       8123.4147     -0.30700000       1.6937500      0.37900000       342.67500       1.9719890     0.010987227
       4091.0000       290.11479       99673.717       8175.2155     -0.27700000       2.5607500     -0.14700000       341.43500       1.9912302     0.011166660
       4096.0000       290.15002       99676.012       8240.4202      0.57800000       2.8375000     0.011750000       342.76000       2.0554220     0.018716958
       4101.0000       290.17051       99674.006       8251.5032     0.025000000       2.3807500      0.18725000       341.93300       1.9691429     0.015084866
       4106.0000       290.20616       99677.563       8268.7788      0.91575000       4.1000000       1.0957500       342.38000       1.9688726     0.011217348
       4111.0000       290.19956       99660.063       8223.7198       1.3037500       3.9642500    -0.011250000       342.16700       2.0002560     0.013130827
       4116.0000       290.19934       99652.387       8195.2708     -0.51025000       3.5290000      0.63775000       342.00800       2.0051056     0.011021109
       4121.0000       290.20001       99650.380       8207.0599     -0.40175000       3.1620000      0.57025000       342.19200       1.9707248     0.010695557
       4126.0000       290.20001       99652.931       8188.4800     0.014750000       2.7520000      0.39625000       342.14200       2.0052069     0.010605135
       4131.0000       290.18525       99672.308       8128.3700      0.92700000       4.0807500     -0.18550000       341.76800       2.0332143     0.011595618
       4136.0000       290.19398       99677.776       8097.0726      0.90325000       2.7532500      0.35850000       342.19200       2.0273002    0.0099749780
       4141.0000       290.21505       99678.327       8072.5070      0.38700000       1.6297500      0.36350000       342.60400       2.0302989     0.012678100
       4146.0000       290.24286       99679.693       8026.1951    -0.069250000       1.5867500      0.43325000       341.81400       1.9900704     0.012223229
       4151.0000       290.28475       99669.857       8060.0666      0.42525000      0.10175000      0.44800000       343.77300       1.9867524     0.014083789
       4156.0000       290.35541       99641.690       8155.9509       1.0355000      0.94575010   -0.0012500000       341.96500       1.9843741     0.015032206
       4161.0000       290.37012       99639.517       8174.2015      0.90000000      0.52425000     0.031750000       342.17000       2.0237815     0.017674693
       4166.0000       290.40029       99641.708       8210.6916       1.5362500      0.99500010   -0.0085000000       342.29200       2.0226560     0.011236627
       4171.0000       290.41551       99666.394       8202.9670       1.7975000      0.95800010     -0.23375000       341.29300       2.0471544     0.012352629
       4176.0000       290.44426       99677.772       8219.6339       1.3097500      0.58525000     0.066750000       342.34000       3.2741420     0.017048254
       4182.0000       290.49500       99688.486       8293.1058       2.7005000       1.0140000   -0.0052500000       341.65100       3.2511975     0.016073036
       4187.0000       290.55670       99688.648       8353.5980       2.0080000     -0.20400000      0.20475000       341.96600       4.8279901     0.018427794
       4192.0000       290.62978       99671.196       8374.0679       1.2325000      0.72975000      0.52275000       342.44600       3.3230833     0.010895658
       4197.0000       290.71140       99663.356       8469.4167       1.1665000       1.5022500     -0.32500000       341.24200       5.0550124     0.020313932
       4202.0000       290.85062       99648.851       8652.8131      0.84475000      0.58325000    -0.058250000       341.72500       5.7307992     0.023524181
       4207.0000       290.92894       99646.512       8783.2650      0.23175000      0.78825000     -0.40125000       341.65500       6.2459298     0.017334746
       4212.0000       290.96703       99660.566       9000.6530      0.14275000      0.43325000      0.42825000       343.04200       4.3096225     0.014585050
       4217.0000       291.01528       99666.492       9086.4134       1.2090000      0.75750010     -0.11150000       342.56200       3.7530439     0.013993644
       4222.0000       291.04823       99681.840       9041.7294     -0.21150000       1.6570000      0.15950000       342.56100       3.1621669     0.012928410
       4227.0000       291.05698       99684.210       9019.3796       1.7195000       2.2540000     -0.10800000       341.57500       2.3543671     0.012813178
       4232.0000       291.07240       99673.247       8912.4187       1.3032500       1.5720000     -0.10500000       341.28700       2.0840198     0.010181522
       4237.0000       291.05996       99664.932       8848.3709       1.7322500       2.1630000      0.19550000       341.14700       2.1426420     0.019125182
       4242.0000       290.96276       99643.945       8786.2035       1.1955000       1.3587500     -0.48825000       341.24300       2.0276656     0.015385691
       4247.0000       290.93531       99636.598       8766.5498       1.4890000       1.2112500     -0.14025000       341.45300       2.0148573    0.0098574507
       4252.0000       290.98696       99635.044       8817.8221       1.7215000       1.7012500      0.42500000       341.95700       1.9905631    0.0085110659
       4257.0000       290.95509       99638.662       8806.0078      0.55675000       2.8605000     -0.11550000       342.45700       1.9406387     0.010566221
       4262.0000       290.90234       99658.635       8811.8357      0.42675000       2.6982500     -0.39650000       342.00000       2.0080261    0.0097232032
       4267.0000       290.85031       99668.294       8773.0947      0.37225000       3.0360000     -0.64675000       341.54100       2.0455845     0.016927070
       4273.0000       290.69087       99681.515       8636.3973     -0.51625000       2.1442500      0.43025000       343.33900       1.9983799     0.010817590
       4278.0000       290.60862       99683.537       8533.6517      0.55425000       2.3505000     -0.25650000       342.91100       1.9813949    0.0099810822
       4283.0000       290.54146       99673.836       8384.0635      0.44250000       1.9535000    -0.043500000       342.01000       1.9893432     0.015678274
       4288.0000       290.53275       99668.362       8314.5208     -0.61800000       1.6902500      0.22175000       342.19800       2.0093979     0.013307171
       4293.0000       290.59501       99653.414       8273.2821    -0.019500000       2.2660000     -0.27975000       341.97600       2.0528257     0.020842185
       4298.0000       290.60517       99652.219       8248.8542      0.18275000       1.8137500     -0.47325000       342.52500       1.9776001     0.011212972
       4303.0000       290.66518       99662.264       8298.6718      0.69325010       1.2597500      0.13000000       343.08800       2.0101825     0.010334094
       4308.0000       290.66350       99666.618       8314.2630       1.3672500       2.4252500      0.25500000       342.66500       2.0075227    0.0095646658
       4313.0000       290.55437       99678.761       8310.0939       1.7292500       1.6157500      0.12975000       343.46500       1.9887607    0.0097611478
       4318.0000       290.53199       99683.633       8326.5048       1.1967500       2.0495000     -0.13300000       342.95100       2.0452287     0.020460422
       4323.0000       290.59636       99683.088       8388.9023     -0.60750000       2.7405000      0.28800000       343.29800       2.0722248     0.022027746
       4328.0000       290.54497       99680.378       8381.6952     0.091250000       2.2922500     -0.31100000       342.14200       1.9828214     0.010159139
       4333.0000       290.41788       99676.617       8317.8973      0.27250000       2.4265000     -0.61650000       341.77700       2.0433011     0.010782176
       4338.0000       290.38197       99668.527       8309.6377       1.0555000       2.1097500     -0.62275000       342.36900       1.9751004     0.010065769
       4343.0000       290.30977       99646.933       8293.7144      0.44000000       1.7625000      0.38625000       343.89100       1.9960177     0.010781210
       4348.0000       290.27046       99640.287       8272.6681       1.0440000       1.9617500     -0.29050000       342.64300       1.9486021     0.013575108
       4353.0000       290.33943       99635.597       8292.0493      0.82075010       1.2882500      0.70225000       344.06900       2.0283345     0.010238203
       4358.0000       290.36553       99638.890       8296.8973       1.1447500       1.7915000     -0.54375000       341.66400       1.9551658     0.010130148
       4364.0000       290.33051       99661.471       8240.0818      0.13975000       1.8200000      0.18750000       342.58200       1.9888835    0.0097204037
       4369.0000       290.35356       99671.892       8256.4088       1.1525000       2.6180000     -0.32475000       342.29400       2.0601155     0.014608422
       4374.0000       290.42988       99687.391       8330.9341       1.6977500       2.1757500      0.11025000       342.94200       2.0080305     0.010203780
       4379.0000       290.48011       99688.585       8377.0671       1.9120000       1.9147500      0.88825010       342.88200       2.0207527     0.010489738
       4384.0000       290.57595       99678.482       8453.7684       1.5620000       2.1535000    -0.077000010       341.46200       2.0956680     0.021181334
       4389.0000       290.56149       99672.252       8481.5362      0.94050000       1.9162500     -0.15275000       341.56600       1.9966580     0.011852630
       4394.0000       290.48344       99658.495       8488.8910      0.53625010       1.8222500     -0.14425000       341.97400       1.9935809     0.012487502
       4399.0000       290.42098       99649.211       8472.8190      0.47300000       3.3212500      0.53325000       341.98800       1.9876613     0.010458150
       4404.0000       290.26080       99636.461       8402.9400      0.43475000       1.7065000    -0.024250000       341.78600       2.0294649     0.010007674
       4409.0000       290.19965       99639.173       8380.8576       1.1765000       2.2792500     -0.65325000       342.30800       1.9941408    0.0099652997
       4414.0000       290.22412       99650.957       8379.0194      0.41700000       2.0155000     0.099500010       343.20900       2.0197941     0.010824386
       4419.0000       290.17755       99658.283       8340.3630      0.91750000       2.4685000     -0.15225000       343.27000       1.9969557    0.0095525117
       4424.0000       290.11649       99679.690       8307.8262       1.0522500       3.1102500     -0.13925000       342.09900       2.0225865     0.010511902
       4429.0000       290.07655       99686.653       8262.9039       1.7787500       3.4632500      0.47200000       342.26200       2.0486124     0.012480674
       4434.0000       290.00119       99683.650       8164.2102       1.5070000       2.1380000      0.23225000       342.27800       2.0620104     0.010041145
       4439.0000       289.97335       99678.856       8117.1975       1.5837500       2.2312500     -0.11675000       342.28100       1.9991607     0.010614970
       4444.0000       289.99976       99669.941       8105.5698      0.89700000       2.1622500    -0.049250000       342.35700       2.0421697     0.012529914
       4449.0000       289.99964       99660.736       8078.3490       1.2972500       3.5632500     -0.36575000       341.93100       2.0336419     0.013170334
       4455.0000       289.97207       99638.536       8029.0051       1.0725000       3.0022500     -0.63650000       341.87000       1.9517642    0.0096923228
       4460.0000       290.02917       99634.989       8057.3988       1.4570000       3.6280000      0.30825000       341.83000       1.9770506     0.010316772
       4465.0000       290.15536       99636.488       8127.9577       1.4562500       2.9617500     -0.86950000       341.69100       2.0650706     0.012251512
       4470.0000       290.17762       99644.002       8163.0671       2.0215000       3.3150000     -0.63250010       341.83500       2.0427780     0.010729656
       4475.0000       290.21659       99665.033       8241.6338       1.2642500       3.3440000      0.24275000       342.39700       2.0635292     0.011081711
       4480.0000       290.21060       99673.284       8277.4825      0.70850000       2.3895000      0.45100000       343.18000       2.0316063     0.011839557
       4485.0000       290.09415       99682.829       8260.9353      0.86425010       5.4240000    -0.051250000       342.09800       2.0268894     0.011187979
       4490.0000       290.07212       99682.358       8273.6749       1.0957500       3.7222500      0.35500000       342.61200       1.9874318    0.0099526821
       4495.0000       290.10021       99673.892       8310.6470       1.1417500       4.2135000     -0.55750000       341.64200       2.0360367     0.013326913
       4500.0000       290.10014       99664.334       8313.0342      0.14200000       2.5875000      0.80575000       343.15500       1.9366425     0.011704105
       4505.0000       290.09101       99646.332       8288.1986      0.75275000       4.4692500     -0.61175000       342.26200       1.9371817     0.010581172
       4510.0000       290.11003       99638.081       8283.5479      0.40275000       4.3282500     -0.37750000       342.13900       1.9940312     0.010477808
       4515.0000       290.15438       99626.835       8277.1248     -0.19175000       1.8215000     -0.14675000       342.39000       1.9961034     0.010850728
       4520.0000       290.15548       99629.022       8268.7983      0.18150000       2.4765000    -0.067500000       343.10300       1.9446315     0.014233689
       4525.0000       290.13804       99642.390       8256.4798       1.9205000       2.1400000      0.48250000       342.08000       2.0439370     0.010991904
       4530.0000       290.16644       99652.064       8270.1156       1.8000000       1.6507500     0.066250000       342.74600       2.0099786     0.010884644
       4535.0000       290.18876       99670.549       8289.8189       1.1870000       2.1967500     -0.14825000       342.11200       2.0383104     0.012192996
       4541.0000       290.22426       99678.922       8319.7506      0.32750000       1.9590000      0.30200000       342.58700       1.9897837     0.010413508
       4546.0000       290.29953       99682.843       8371.5817      0.44925000       2.4250000      -1.1527500       342.39900       2.0551741     0.017307378
       4551.0000       290.35967       99680.225       8407.8008      0.78600000       3.7300000     -0.16975000       342.22000       2.0800545     0.021073214
       4556.0000       290.37668       99672.062       8432.3012     -0.26225000       2.3747500      0.24975000       342.44700       2.0109871     0.011091559
       4561.0000       290.57847       99655.603       8470.8000      0.36450000       3.2097500     0.080250000       342.61000       2.0489173     0.014924338
       4566.0000       290.71111       99644.365       8524.9418      -1.0135000       2.8275000      0.65100000       342.96900       2.0283360     0.010948723
       4571.0000       290.90174       99627.069       8603.2556     -0.71975000       3.9955000      0.17425000       341.87700       2.0624591     0.012525184
       4576.0000       290.98754       99621.445       8667.8440       1.0492500       3.0635000     -0.38850000       341.57000       2.0365032     0.010356689
       4581.0000       290.92481       99629.316       8768.4985       1.6052500       2.8547500     -0.38550000       342.86400       2.0447320     0.011908947
       4586.0000       290.90615       99634.008       8819.8286       2.1952500       4.6450000     -0.16425000       341.64200       2.0333383     0.010884627
       4591.0000       290.87520       99641.130       8840.9293      0.70025000       3.4850000     -0.85325000       342.57400       2.0289194     0.011071195
       4596.0000       290.77455       99655.681       8829.5049      0.56450000       3.9400000     -0.40700000       342.14800       2.0404179     0.010446785
       4601.0000       290.80026       99664.510       8813.0083      0.79275010       3.8207500     -0.27725000       341.60000       2.0462516     0.011896211
       4606.0000       290.90615       99670.796       8766.4500      0.31775000       2.8435000     -0.90300010       342.29300       2.0891219     0.021537996
       4611.0000       290.93986       99680.375       8704.1533       1.5900000       3.3895000     -0.72325000       342.18600       2.0607146     0.013124888
       4616.0000       290.96291       99683.030       8652.5325     -0.33750000       3.5950000      0.39675000       342.92400       2.0463520     0.011811798
       4621.0000       290.91487       99678.607       8586.9431      0.14950000       3.1335000     -0.12125000       342.07200       2.0138385     0.013162768
       4626.0000       290.89392       99671.949       8528.7981      0.83925000       2.4067500     0.061000000       342.17400       2.0483468     0.011011360
       4632.0000       290.89964       99653.674       8465.4668     -0.62500000       4.1037500     -0.68850000       341.80900       2.0993401     0.016050905
       4637.0000       290.89937       99642.808       8430.0975      0.38825000       1.9745000     0.096750010       342.88100       2.1169223     0.013161095
       4642.0000       290.91386       99625.847       8405.8706     -0.72125010       2.1495000      0.20150000       342.50800       2.0673242     0.010195498
       4647.0000       290.90244       99621.700       8382.9593      0.39400000       2.7227500     -0.59525000       342.55700       1.9783385    0.0096108003
       4652.0000       290.92178       99630.197       8409.3689      0.36150000       3.2892500     -0.42325000       342.28700       2.0809071     0.010848303
       4657.0000       290.85718       99635.455       8378.6394       1.2195000       2.0820000     -0.46275000       342.56700       2.0938737     0.012211581
       4662.0000       290.68657       99655.199       8302.5196      0.54175000       3.2935000    -0.011000000       342.45300       2.1278211     0.018401734
       4667.0000       290.57742       99659.348       8241.5401      0.58900000       3.5342500     -0.47800000       342.44500       2.0882664     0.012346976
       4672.0000       290.39118       99644.897       8098.5446     -0.43725000       3.3642500      0.21275000       342.07100       1.9957224     0.011961675
       4677.0000       290.30789       99644.166       8061.5058      0.69875000       3.9790000     -0.37550000       341.48300       2.0767892     0.012859794
       4682.0000       290.29871       99640.136       8107.8954     0.073750000       4.0340000    0.0092500000       342.08800       2.0805471     0.011538616
       4687.0000       290.33394       99642.755       8135.3982     -0.27250000       4.2967500     -0.12625000       341.61800       2.0610844     0.012364917
       4692.0000       290.44914       99668.369       8222.9358     -0.44675000       4.3155000      0.18050000       342.17600       2.0219451     0.010327416
       4697.0000       290.56216       99674.784       8289.9611      0.35750000       4.7057500     -0.29450000       342.61500       2.0221639     0.011005796
       4702.0000       290.74648       99672.174       8296.9878    -0.018250000       3.8787500     -0.79900000       341.92200       2.1042486     0.012891141
       4707.0000       290.88626       99666.610       8372.8138     -0.97850010       2.4490000       1.4460000       342.62200       2.1256951     0.016811340
       4712.0000       291.02539       99641.552       8510.3953       1.5537500       2.2755000      0.21425000       343.29400       2.0886941     0.011086826
       4717.0000       291.13201       99631.160       8632.3317       1.5705000       2.2865000      0.91425000       342.87200       2.1364562     0.018182566
       4723.0000       291.24185       99625.588       8887.8639      0.78975000       3.3632500     0.034000000       341.82200       2.0505004    0.0092325408
       4728.0000       291.28055       99622.831       8965.1844    -0.030750000       3.9847500     -0.33425000       341.43200       2.0992318     0.014230177
       4733.0000       291.24397       99625.896       8952.4852     -0.11400000       3.3755000      0.63800000       342.18400       2.1300177     0.017948285
       4738.0000       291.25420       99631.708       8938.4669     -0.14350000       3.8995000     -0.23875000       341.57100       2.0586898     0.011502080
       4743.0000       291.25644       99639.439       8825.9929      0.34425000       3.9992500     -0.45325000       341.37000       2.1019608     0.018820196
       4748.0000       291.24659       99648.287       8745.1887      -1.8075000       3.7527500     -0.13750000       342.11400       2.0079919     0.010655061
       4753.0000       291.23133       99669.157       8637.3859      0.91575000       3.4020000     -0.14650000       342.06100       2.1299268     0.014822961
       4758.0000       291.25503       99675.177       8602.4604      0.40125000       1.9242500     -0.22050000       342.27200       2.0389776     0.010435250
       4763.0000       291.25505       99671.708       8577.8139       2.0512500       4.4152500     -0.25625000       341.03800       2.0703955     0.011070889
       4768.0000       291.30578       99670.999       8592.6887       1.1052500       4.4347500     0.071750000       342.08300       2.0754305     0.011288151
       4773.0000       291.50434       99662.669       8745.7513      0.90700010       4.7397500     -0.41825000       341.75000       2.0645065     0.017872581
       4778.0000       291.53517       99658.036       8771.5646     -0.91575000       3.4245000      0.87375000       342.84200       2.0598050    0.0093652361
       4783.0000       291.55223       99659.097       8781.6210     0.056250000       5.5390000     -0.18450000       341.47700       2.0908494    0.0098554586
       4788.0000       291.44210       99654.357       8714.3318      0.37675000       1.9787500    -0.044250000       342.91500       2.0528174     0.010119447
       4793.0000       291.08295       99644.222       8504.0140     -0.82375000       3.2185000      0.45075000       342.80000       2.0780549     0.011689090
       4798.0000       290.91280       99637.197       8390.1691     -0.14725000       3.7572500    -0.042500000       342.23400       2.1031188     0.011889293
       4803.0000       290.71630       99626.212       8254.3072      0.29850000       2.2377500       1.0672500       342.46600       2.0504281    0.0092657834
       4808.0000       290.63324       99622.377       8177.2129     -0.10525000       3.1012500    -0.073250000       342.09300       2.0759249     0.010302884
       4814.0000       290.73007       99622.360       8165.1585      0.35100000       3.4517500      0.18575000       341.94000       2.0458832     0.011194974
       4819.0000       290.76701       99626.425       8156.3393      0.33800000       3.0505000    -0.012750000       342.62800       2.1061424     0.012820360
       4824.0000       290.84060       99637.621       8171.0163       1.6392500       3.1690000     -0.10425000       341.69200       2.0588844    0.0096739271
       4829.0000       290.87426       99644.700       8179.8884       1.2882500       3.6585000     -0.39775000       341.80400       2.0329285     0.011496283
       4834.0000       290.89963       99654.418       8212.9112     0.063750010       2.0857500      0.10850000       342.40300       2.0578706     0.011206159
       4839.0000       290.91358       99659.220       8220.6099     -0.12850000       1.8882500      0.29075000       342.91600       1.9945021     0.011621723
       4844.0000       290.91180       99660.394       8214.8192     0.018750000       1.8027500      0.12100000       342.86100       2.1407837     0.018763031
       4849.0000       290.89593       99661.840       8211.8333      0.98100010       2.2135000      0.14625000       342.07800       2.0360056     0.011007127
       4854.0000       290.84689       99660.304       8181.9375      0.83575000       2.0515000     -0.23800000       342.34800       2.0787550     0.011389879
       4859.0000       290.84311       99660.276       8198.5564       1.4412500       3.3995000     -0.12400000       342.50800       2.1166047     0.015786827
       4864.0000       290.87774       99660.462       8255.1890      0.59975000       3.1595000     -0.87000010       342.34800       2.0439534     0.010114853
       4869.0000       290.83531       99660.521       8268.7564      0.89475010       1.7232500     -0.26725000       342.29500       2.0334253    0.0094021685
       4874.0000       290.77316       99661.409       8292.2681      0.20575000       2.9950000     -0.14500000       342.46000       2.0747811     0.010552171
       4879.0000       290.72699       99659.790       8295.9562       1.1427500       3.3035000    -0.079750000       342.56200       2.0800332     0.010233536
       4884.0000       290.60151       99658.197       8247.9486      0.59500000       2.5047500     -0.38275000       342.23200       2.0335694    0.0088449659
       4889.0000       290.55959       99652.939       8240.9797       1.7807500       2.2937500      -1.4065000       342.24100       2.0611287    0.0093374607
       4894.0000       290.58923       99643.163       8263.1519      0.87200000       2.9347500     -0.27750000       342.07300       2.0327419     0.010686211
       4899.0000       290.60558       99636.274       8263.2610      0.91075000       2.5332500    0.0070000000       342.61000       2.0637526    0.0096893986
       4905.0000       290.66361       99624.413       8276.0284       1.0265000      0.94575010      0.29900000       343.42700       2.0887870    0.0093192089
       4910.0000       290.64559       99622.170       8240.8424      0.43475000       1.5682500      0.20125000       342.90200       2.0384257    0.0097342865
       4915.0000       290.61056       99624.794       8170.3392       2.0090000       1.8257500     -0.14600000       342.35700       2.0586675    0.0094116875
       4920.0000       290.58170       99625.723       8126.1328      0.69875000       2.9777500      0.34650000       342.16200       2.0378899    0.0081560734
       4925.0000       290.47580       99628.661       8045.2387       2.3157500       2.6172500     -0.27250000       342.41600       2.0093227    0.0084270529
       4930.0000       290.49072       99633.468       8037.5691      0.33875000       3.5962500    -0.047250000       341.93400       2.0285842     0.010609197
       4935.0000       290.58371       99638.799       8075.5289      0.32100000       3.0075000      0.64475010       342.75100       2.0510760     0.010145357
       4940.0000       290.64214       99644.696       8108.2418       1.3155000       3.0765000     -0.21175000       341.15600       2.0407812    0.0092397060
       4945.0000       290.72416       99655.518       8148.0862       2.1662500       2.4697500      0.13750000       343.03800       2.0348205     0.010802937
       4950.0000       290.82186       99659.765       8252.4282       1.0240000       1.9292500      0.41850000       341.55000       2.1273283     0.020209621
       4955.0000       290.94858       99660.841       8403.9267      0.72300000       2.6175000     -0.49700000       341.52600       2.0575717     0.010975248
       4960.0000       291.00170       99662.048       8526.9781     -0.92000000       2.5225000    -0.091500010       342.31200       2.0464321    0.0098025900
       4965.0000       291.10552       99660.314       8757.3846      0.32150000       2.4550000     -0.44650000       341.48300       2.0639471     0.010023235
       4970.0000       291.02570       99660.347       8764.0116     -0.44500000       2.4110000      0.10950000       343.07400       2.1544001     0.015523157
       4975.0000       290.77206       99660.277       8646.8282     -0.43175000       2.7652500     -0.53925000       341.55400       2.0610260    0.0099148808
       4980.0000       290.64209       99660.277       8540.5443     -0.60650000       1.8737500     0.078000000       341.82500       2.0360273     0.011240030
       4985.0000       290.43009       99663.043       8288.0790      0.33225000       2.3887500     -0.12675000       341.52400       2.0827498     0.011327275
       4990.0000       290.37304       99657.507       8203.7156      0.54700010       2.0870000    -0.077250000       342.68700       2.0065080    0.0096560710
       4996.0000       290.44317       99644.223       8174.4673      0.64975010       1.2402500    -0.039500000       341.79300       2.1269233     0.011445202
       5001.0000       290.45488       99642.437       8133.3449       1.7962500       1.3225000     -0.46550000       342.33500       2.0880205    0.0095838847
       5006.0000       290.50535       99639.689       8145.7667      0.41750000      0.76475010      0.50150000       343.94700       2.1275357     0.010320588
       5011.0000       290.51454       99642.586       8074.9736       1.0490000      0.55825000     0.022750000       343.07000       2.0781483    0.0079208822
       5016.0000       290.50577       99641.927       8022.2532       1.4182500       1.4752500     -0.34500000       342.57900       2.0821009    0.0089367068
       5021.0000       290.46992       99630.247       7985.8825       1.9135000       1.0135000    0.0082500000       341.98100       2.0467356     0.010234275
       5026.0000       290.45012       99624.086       7942.3424       2.1955000      0.95925000   -0.0022500000       341.16700       2.1118979     0.012631768
       5031.0000       290.41497       99621.747       7884.8366       1.9872500      0.95650010      0.19475000       341.98000       2.1035496     0.010477871
       5036.0000       290.39381       99619.607       7851.9643       1.5615000      0.89950010      0.44900000       342.28200       2.0878251    0.0090078052
       5041.0000       290.38494       99618.689       7830.1358       2.4120000       1.9147500      0.18325000       341.28400       2.0331616    0.0094464111
       5046.0000       290.40012       99619.710       7806.9235       2.6055000       2.1220000      0.43750000       341.52500       2.1054400     0.010850258
       5051.0000       290.40005       99621.883       7815.0508       2.2125000       1.4400000     -0.38950000       341.49800       2.0792759    0.0095562680
       5056.0000       290.38230       99623.981       7839.7169       1.5190000       1.0317500     -0.37250000       341.62700       2.1121264     0.011743928
       5061.0000       290.49181       99634.817       7978.7415       1.1365000      0.44125000     0.017250000       341.49000       2.0635941     0.010009260
       5066.0000       290.55279       99641.039       8051.8291       1.0572500     -0.36575000     0.032750000       342.12300       2.0403257    0.0094808833
       5071.0000       290.65571       99647.294       8123.2891      0.34500000     -0.33525000     -0.21500000       342.06100       2.0562865     0.010419462
       5076.0000       290.71873       99651.448       8192.6727      0.73000000       1.2047500      0.15350000       342.13900       2.0600736     0.010577559
       5081.0000       290.74478       99653.116       8238.2094    -0.059250000       2.5882500     -0.34375000       341.88900       2.0715358     0.010023602
       5087.0000       290.70013       99650.089       8221.7998       1.2685000       1.1885000      0.62575000       342.73200       2.0731101     0.010810943
       5092.0000       290.71346       99653.563       8271.4566      0.74975000      0.43875000      0.11500000       342.50400       2.1164993    0.0098856252
       5097.0000       290.70171       99655.502       8292.9261       1.2117500       2.1152500     -0.82050000       342.31400       2.0611986     0.010580962
       5102.0000       290.63699       99659.387       8257.2732      0.95375010      0.49925000      0.34700000       343.26400       2.0874631     0.010337876
       5107.0000       290.63900       99661.300       8270.9475       1.7032500       2.2037500     -0.21100000       342.65700       2.0529315     0.010181070
       5112.0000       290.66333       99661.887       8304.8147    -0.070250000       2.7697500     -0.13950000       342.88300       2.1051103     0.011419515
       5117.0000       290.69550       99660.804       8344.5389     -0.41025000       2.5452500     0.032000000       342.70300       2.0704642    0.0086216688
       5122.0000       290.81443       99656.877       8459.8555      0.60575000       3.4672500     -0.40425000       341.88400       2.0646633     0.010132257
       5127.0000       290.87159       99654.901       8497.1106      0.72600000       2.6987500     -0.26750000       341.85100       2.0091844     0.012629224
       5132.0000       290.89000       99651.264       8490.3629      0.46375000       2.3580000     -0.69400000       341.58100       2.1396216     0.010926224
       5137.0000       290.90862       99649.403       8480.2687      0.64175000       1.1585000      0.77600000       342.52400       2.0197200    0.0088768096
       5142.0000       290.89977       99653.083       8403.8392      0.85875000       2.2322500    -0.021500000       342.27600       2.0406679     0.010006836
       5147.0000       290.89962       99650.816       8365.5690      0.43075000       2.3840000    -0.034750000       342.50500       2.1343594    0.0098700039
       5152.0000       290.91411       99643.254       8360.1569     -0.24050000       1.8365000     0.035000000       341.20500       2.1313128     0.011148767
       5157.0000       290.90304       99639.175       8334.0073      0.51300000       2.4380000     -0.20125000       341.17600       2.0756761     0.010889834
       5162.0000       290.87996       99633.608       8299.3914      0.15575000       1.1965000     -0.36700000       341.20000       2.1294801     0.010136849
       5167.0000       290.84877       99628.721       8275.9408     -0.32125000      0.14325000      0.22500000       341.59300       2.1318098     0.011463002
       5173.0000       290.80782       99629.316       8255.8559     -0.45175000     -0.43675000      0.55950000       342.04300       2.1232398     0.010131901
       5178.0000       290.72977       99624.526       8217.0048    -0.028500000     -0.31200000     -0.12375000       341.30900       2.0809118     0.010054576
       5183.0000       290.59115       99610.732       8181.2019      0.17525000      0.34100000      0.35825000       342.25700       2.0644932    0.0080705642
       5188.0000       290.51460       99607.911       8131.3320      0.46450000       1.4570000     -0.90000000       341.61800       2.0316515    0.0097783987
       5193.0000       290.41414       99608.993       8016.6686    -0.075500000       1.3907500     -0.17325000       341.71200       2.1147584     0.010566129
       5198.0000       290.36482       99609.722       7980.9247       1.5767500       1.5980000      0.75675000       343.41600       2.0366187     0.010844688
       5203.0000       290.36104       99619.269       7972.0102      0.73000000       1.1425000     -0.25375000       341.63800       2.1066957     0.010658463
       5208.0000       290.40214       99622.473       7993.3021      0.94275000       1.0487500    -0.039000000       343.17800       2.0253779     0.010038809
       5213.0000       290.53937       99620.380       8101.5757      0.81550000      0.23225000     0.068750000       342.23900       2.0682058    0.0098862920
       5218.0000       290.57147       99620.421       8148.3673      0.25925000       1.1035000    0.0067500000       343.48800       2.0796923    0.0090757993
       5223.0000       290.59708       99620.236       8190.2717     0.048000000      0.69100000      0.11900000       342.82900       2.0932660     0.011003020
       5228.0000       290.61925       99620.195       8219.4611     -0.15475000       1.1210000     -0.31825000       341.49900       2.0146618    0.0099369242
       5233.0000       290.56172       99619.040       8201.6339     -0.37525000      0.88175000    -0.079000000       342.53300       2.0705926    0.0097602525
       5238.0000       290.53511       99620.475       8219.8202      -1.5905000       2.2892500    -0.071500000       341.69000       2.0337903     0.010569552
       5243.0000       290.56959       99624.319       8285.4697     -0.23025000       1.7470000      0.34450000       342.05200       2.0720942    0.0092756828
       5248.0000       290.55250       99626.391       8287.7656      -1.0347500       2.2852500     0.067000000       341.30600       2.0962236     0.010889390
       5253.0000       290.49231       99627.101       8290.1966     -0.63100000       1.5405000     0.097750010       341.37600       2.0861994     0.010108454
       5258.0000       290.42894       99631.426       8239.8997     -0.73500000       1.8620000     -0.17800000       342.11300       2.0228563     0.012298350
       5264.0000       290.31819       99642.102       8067.2547     -0.45800000       1.2210000     -0.41700000       341.80300       2.1998234     0.023646702
       5269.0000       290.26440       99641.187       7998.1268     -0.62775000       1.5202500      0.51125000       342.93900       2.0728718    0.0099279328
       5274.0000       290.19129       99636.367       7915.4309      0.37600000       1.5852500     -0.50250000       341.92600       2.0930858    0.0090161536
       5279.0000       290.18024       99634.797       7900.5670     0.059250000       2.5337500      0.48575000       341.74400       2.0591324     0.010063872
       5284.0000       290.24257       99624.546       7975.1663      0.55000000       1.0742500     -0.38300000       341.28500       2.0546636     0.010690585
       5289.0000       290.26251       99622.345       7994.2629     -0.19075000      0.26050000     -0.31525000       341.37200       2.0608854     0.010396990
       5294.0000       290.29941       99628.037       8036.0134     -0.17575000      0.18575000     -0.23325000       341.72400       2.0683302     0.012982960
       5299.0000       290.31288       99632.635       8033.7618    -0.012750000     -0.33200000     0.097250010       341.34300       2.0602558     0.011160050
       5304.0000       290.29975       99638.663       7972.9408      0.20350000     -0.15725000     -0.14500000       341.56900       2.0999933     0.010636359
       5309.0000       290.29981       99642.633       7966.8543      0.27250000     -0.47725000     0.074500000       342.28600       2.0885226     0.011487799
       5314.0000       290.28844       99649.939       7948.1665      0.17225000     -0.33550000    -0.051250000       342.69000       2.0434752     0.010923197
       5319.0000       290.30498       99652.590       7981.1410   -0.0097500000     -0.43675000      0.42450000       342.84100       2.0479104    0.0086080493
       5324.0000       290.36441       99650.461       8112.2324      0.15200000     -0.44450000      0.61575000       343.69500       2.0473932    0.0095340175
       5329.0000       290.35206       99650.520       8118.1919      0.39225000     -0.46550000      0.18425000       341.63800       2.0211388     0.010251772
       5334.0000       290.31448       99650.351       8085.7757      0.11525000     0.042750000      0.51900010       343.09800       2.0218583    0.0093525728
       5339.0000       290.28844       99650.367       8054.6344     -0.36450000      0.32225000    -0.015250000       341.84900       2.0097138     0.012035674
       5344.0000       290.20143       99650.277       7933.0183     -0.55900000      0.86925010     0.020000000       341.99900       2.0591834    0.0093352141
       5349.0000       290.17417       99650.277       7886.0808     -0.98275010      0.88075010     -0.38100000       341.45900       2.0324558     0.010429282
       5355.0000       290.19981       99650.245       7890.2715     -0.88125000       1.3885000     -0.15900000       342.37800       2.0313226     0.010389327
       5360.0000       290.19969       99650.245       7866.5133     -0.48400000       1.5492500    0.0060000000       342.06000       2.0168086     0.010652399
       5365.0000       290.19165       99650.473       7828.2490      -1.9770000       1.5927500     -0.46525000       341.76800       2.0079366     0.012497292
       5370.0000       290.21086       99650.533       7828.9500      -1.3605000       2.7042500     -0.48450000       341.50100       1.9928520     0.013011272
       5375.0000       290.26430       99650.277       7853.6037      -2.7497500       1.8360000     -0.11725000       342.50900       2.0408712    0.0097648001
       5380.0000       290.24681       99650.277       7846.0402     -0.99500010       2.8990000     0.052250000       342.69700       2.0362365     0.010782793
       5385.0000       290.21121       99650.308       7853.1477    -0.062000000       2.3457500      0.32925000       342.86500       2.0767851     0.010751947
       5390.0000       290.18276       99650.308       7839.5901    -0.057750000       1.9887500    -0.055500000       343.00700       2.0326557     0.010158716
       5395.0000       290.09470       99650.277       7788.2233     -0.73150000       2.3400000     -0.44450000       342.57000       2.0048354    0.0099956558
       5400.0000       290.07228       99650.277       7762.2773     -0.86400000       2.8242500    -0.017000000       341.15500       2.0172846     0.010752224
       5405.0000       290.07202       99650.245       7737.5191     -0.57500000       2.1322500     -0.27950000       341.46500       2.0395671    0.0092987976
       5410.0000       290.12900       99650.245       7744.1301     -0.62125000       1.4337500      0.22075000       342.27600       2.0460357    0.0099998594
       5415.0000       290.23835       99650.473       7762.7775     -0.70450000       1.4790000   -0.0025000000       342.10800       2.0737443     0.011341240
       5420.0000       290.29890       99650.532       7781.7623     -0.10550000       1.1922500     0.015000000       341.57600       1.9915149     0.016091237
