MIRICO/SHELL project - Processed LDS file generated on
Thu Jul 06 05:30:36 2017
Time stamp for record start
05/10/2017  13:24:10.0000
Nb of points in the record
        1073
Beam position index
       2.0000000
Beam angle (degrees)
      -8.6100000
Open Path length (m)
       64.850000
****************** Temporal data record ************************
Elapsedtime_sec Temp_K Press_Pa Humidity_ppmv WindX_m/s WindY_m/s WindZ_m/s Speedofsound_m/s CH4vmr_ppmv CH4vmrerror_ppmv  
      0.00000000       289.12534       99791.169       7619.4382       4.0757500       1.3350000      0.31225000       341.74100       1.9715642    0.0084508776
       5.0000131       289.18384       99801.528       7647.3029       2.0130000       2.7560000     -0.27975000       341.60100       1.9240452    0.0078385843
       9.9999860       289.08634       99806.288       7579.9713      0.49050000       3.2982500     -0.46425000       341.17800       1.9967743    0.0058904437
       14.999999       288.88873       99805.383       7455.7635       1.1547500       1.4682500     -0.51550000       341.23200       1.9051132    0.0085059000
       20.000012       288.77587       99810.313       7373.4877       1.0212500       1.5077500    -0.071000000       341.65800       1.9515821    0.0070526153
       24.999985       288.71841       99811.633       7319.1484      0.80750010       1.8910000      0.17275000       341.54300       1.9697023    0.0075768109
       29.999998       288.81537       99810.222       7328.2817     0.089750010       1.4325000      0.52475010       341.77600       1.9622814    0.0073752869
       35.000011       288.85622       99806.447       7318.6761      0.90975000       1.4585000      0.18425000       342.25200       1.9515309    0.0091596710
       39.999984       288.88478       99800.214       7307.8226      0.44850000       2.7332500     0.096500000       341.27400       1.8938047     0.011067426
       44.999997       288.90668       99790.492       7297.3400    -0.018500000       2.1000000     -0.83925000       341.67700       1.9516646    0.0074826225
       50.000010       288.91526       99783.430       7289.8649      0.22250000       1.1905000      0.23650000       341.87200       1.8921372     0.010204412
       54.999983       288.90625       99773.974       7278.9880      0.57800000       1.2825000      0.43525000       341.93400       1.9448643    0.0070919653
       59.999996       288.86942       99770.131       7274.7490      0.40025000       2.1715000     -0.27075000       341.69400       1.9267665    0.0080029763
       65.000010       288.84917       99768.806       7274.2677      0.47500000       2.2877500     -0.21125000       342.07600       1.9343018    0.0094436209
       69.999982       288.79966       99770.386       7267.3275       1.5745000       3.0157500    -0.095250000       341.80000       1.9389014     0.010817704
       74.999996       288.78762       99774.157       7274.1542       1.1072500       3.2780000     -0.15625000       340.80500       1.9303203    0.0082962348
       81.000003       288.83390       99784.707       7273.7453      0.70975010       2.6260000    0.0070000000       340.96300       1.9479249     0.011037351
       86.000016       288.85369       99791.661       7315.6734      0.81225000       1.9830000     -0.58200000       340.95700       1.9636851    0.0093125071
       90.999989       288.84647       99803.291       7377.8876      0.00000000       1.6460000     0.021500000       341.85300       1.9375130    0.0073574777
       96.000002       288.89919       99807.958       7471.9146     -0.42700000       1.8157500    -0.080500010       340.48100       1.9336224    0.0093780147
       101.00002       289.00181       99805.849       7684.1070     -0.53925000       2.4472500     -0.42050000       340.91200       1.9237186    0.0085990339
       105.99999       289.06202       99805.748       7780.0067      0.26450000       2.8577500    -0.074250010       340.77300       1.9449373    0.0088182670
       111.00000       289.18450       99805.453       7845.2426      0.56775000       2.3237500    -0.043250000       341.46600       1.9440527    0.0098589174
       116.00001       289.23040       99800.204       7874.0979      0.36175000       2.2357500     0.067250010       341.76600       1.9146515    0.0095405771
       120.99999       289.18009       99792.771       7793.3927     0.057500000       2.4310000    -0.026750000       341.14200       1.9514107    0.0067208907
       126.00000       289.14904       99784.552       7740.1593     0.073250000       1.8732500     -0.36750000       341.37100       1.9615396    0.0079078281
       131.00001       289.07697       99766.766       7674.1635     0.088250000       2.3985000     -0.30500000       340.82000       1.9472532    0.0086799319
       135.99999       289.03861       99757.290       7626.5462      0.11925000       2.0290000     -0.19675000       341.02200       1.9243385     0.010422467
       141.00000       289.01015       99747.963       7569.3002      0.70125000       1.7415000    -0.029500000       341.30700       1.9417554     0.010365316
       146.00001       288.99131       99747.562       7535.5380      0.89775000       2.5072500     -0.16100000       341.26500       1.9239253    0.0087056532
       150.99999       288.95767       99757.965       7502.8230      0.63100000       1.5960000     -0.13550000       341.52200       1.9280079    0.0092775695
       156.00000       288.99095       99766.305       7519.5329      0.42450000       1.5335000    -0.069500010       341.83200       1.9262769    0.0077085230
       161.00001       289.07473       99782.974       7576.8175      0.75825010       1.8950000     -0.80275010       341.59000       1.9689737    0.0075514378
       165.99998       289.15697       99793.642       7641.3716     -0.18550000      0.86275010       1.0452500       342.22400       1.9320337    0.0092460742
       171.99999       289.33473       99804.360       7784.9948     -0.53350000       1.2590000     0.039250000       341.44500       1.9715501    0.0070083039
       177.00001       289.45017       99808.247       7886.3908     0.076000010       2.3967500    -0.087500010       341.09300       1.9420846    0.0085557272
       182.00002       289.57780       99808.973       7994.9607     0.090750000       2.9347500      0.34025000       341.71600       1.9324228    0.0078486052
       186.99999       289.63646       99805.893       8078.4981     -0.33975000       3.5120000      0.23325000       341.23800       1.9199837    0.0094528323
       192.00000       289.66402       99794.701       8171.4493      0.44800000       2.0157500      0.36550000       341.90700       1.9330879    0.0064218595
       197.00002       289.66308       99787.731       8211.4776      0.47800000       1.4785000      0.45000000       342.30000       1.9357479    0.0099379379
       201.99999       289.56634       99779.836       8205.5581       1.0280000      0.55000000      0.47475000       341.83700       1.9844356    0.0064913662
       207.00000       289.52968       99771.782       8192.1621      0.41150000       3.0987500     -0.36925000       341.13200       1.9424625    0.0066993390
       212.00002       289.51786       99760.551       8133.9452       2.0560000       1.3552500      0.53675000       342.83100       1.9510922    0.0092564485
       216.99999       289.48812       99757.682       8091.6616      0.14225000       1.6275000    -0.035500000       342.10600       1.9418588    0.0084952454
       222.00000       289.47653       99757.441       8046.3890       2.0240000       2.1837500     -0.27750000       340.86600       1.9992358    0.0096929216
       227.00002       289.44261       99759.645       7998.0494       2.5682500       1.4722500       1.0337500       341.35000       1.9244513    0.0076256092
       231.99999       289.35423       99769.151       7924.9819      0.88600000       2.7765000      0.15750000       341.06600       1.9390607    0.0068184698
       237.00000       289.33152       99778.574       7897.8887      0.27550000       2.3775000      0.22375000       341.58600       1.9259855    0.0085126869
       242.00002       289.34311       99792.787       7904.9362       1.6520000       1.4347500    -0.012750000       341.87800       1.9530654    0.0070024969
       246.99999       289.34671       99799.139       7888.0142       1.4315000       1.8817500     -0.24300000       341.74700       1.9756324    0.0098374573
       252.00000       289.38196       99804.918       7878.8532      0.44025000       1.8880000     -0.20750000       342.32800       1.9587290    0.0093483771
       257.00001       289.41142       99807.656       7883.0930     -0.63750000       2.8857500      0.55050000       341.77400       1.9873430    0.0075909924
       262.99998       289.47585       99803.976       7877.8804       1.2417500       3.2947500    -0.040500000       340.49900       1.9657606    0.0069161258
       267.99999       289.44777       99797.901       7876.8097       2.2692500       3.1320000      0.15500000       341.39900       1.9492082    0.0099626416
       273.00001       289.37618       99790.145       7910.5878      0.27175000       2.4657500      0.46250000       341.58400       1.9589000    0.0074942711
       277.99998       289.32959       99780.773       7912.3348      0.70900010       3.6025000      0.40725000       341.93300       1.9546929    0.0075856738
       282.99999       289.20385       99760.060       7878.3863     -0.69225000       3.2077500     0.014250000       341.48600       1.9606060    0.0097471103
       288.00001       289.16208       99755.117       7872.4193     -0.12300000       2.8725000      0.31625000       341.73600       1.9756941    0.0067459727
       292.99998       289.22198       99755.709       7882.3106      0.64050000       3.1992500      0.14775000       341.43600       1.9726550     0.010523482
       297.99999       289.18967       99761.833       7875.5322      0.66550000       3.1387500    -0.075750000       340.85000       2.0066107     0.010050255
       303.00001       289.14950       99781.702       7883.5072      0.58150010       2.6180000     0.052750000       341.51200       1.9984068     0.010234061
       308.00002       289.06145       99792.047       7851.5642      0.39200000       2.7742500     -0.34075000       340.54200       1.9348157    0.0072255005
       312.99999       288.87828       99805.350       7782.7441     -0.33700000       1.5712500      0.52700000       341.44000       1.9909784    0.0073228943
       318.00001       288.79099       99809.750       7737.0701     -0.12925000       2.0525000     -0.19700000       340.58800       1.9177356     0.010827304
       323.00002       288.70349       99808.068       7670.5058    -0.089000000       1.1182500     -0.33650000       340.60700       1.9608398    0.0058914524
       327.99999       288.66219       99804.132       7633.6807     -0.62550000       1.2757500      0.15300000       340.76500       1.9662634    0.0063117850
       333.00000       288.69984       99792.824       7619.5045   -0.0087500000      0.98700000      0.29225000       341.27100       1.9563371    0.0092825356
       338.00002       288.69989       99785.810       7605.3828     0.074000000       1.5625000     -0.10200000       341.28500       1.9883249    0.0088528799
       342.99999       288.68855       99778.564       7596.4937     0.060250000      0.57650000    -0.095500010       340.93100       1.9360243    0.0066704042
       348.00000       288.70459       99770.683       7597.1826       1.1655000      0.82325010      0.51075000       341.21300       1.9857209    0.0078567818
       354.00001       288.72761       99758.988       7595.3058       1.2682500       1.3597500      0.16675000       340.99500       1.9317569    0.0094985386
       358.99998       288.78435       99757.562       7643.0959      0.10425000      0.44275000      0.37925000       341.93600       1.9544491    0.0090380151
       364.00000       288.88398       99755.786       7732.9075     0.084750000       1.0735000      0.16850000       341.63500       1.9370289    0.0099219827
       369.00001       288.95451       99763.214       7787.9209    -0.022000000      0.99975000     -0.28200000       340.59500       1.9659941     0.010517319
       373.99998       289.05065       99784.499       7872.1495      0.23200000      0.81150000     0.055500000       341.11600       1.9662682    0.0075731031
       379.00000       289.09341       99792.776       7918.1606     0.022000000      0.85850010     -0.21425000       341.57500       1.9808768    0.0068321459
       384.00001       289.12123       99802.801       7936.9947     -0.63150000       1.4302500      0.58150010       340.82200       1.9525855    0.0065389328
       388.99998       289.09542       99802.424       7929.6338      0.14825000      0.77250000     -0.36300000       341.29000       1.9371082     0.010661555
       394.00000       289.00768       99792.274       7906.5969      0.83975010       1.4242500     -0.10375000       341.44900       1.9424896     0.013389227
       399.00001       288.96787       99786.518       7877.5092      0.77350000       1.5217500     -0.26375000       340.85000       1.9484411    0.0093218191
       403.99998       288.87498       99776.980       7793.0030      0.44100000       1.8897500     -0.41275000       340.86000       1.9405206    0.0089990681
       408.99999       288.89088       99768.879       7776.1864      0.42500000       1.5472500      0.27650000       341.44900       1.9484698    0.0085995372
       414.00001       289.00150       99760.894       7803.5021      0.76825000       2.4265000     -0.47050000       341.52500       1.9296527     0.010534083
       418.99998       289.02300       99755.811       7783.5299      0.39750000       2.5480000     -0.41050000       341.90300       1.9242290    0.0093322330
       423.99999       289.06034       99745.308       7769.8862       1.3550000       2.2692500    0.0055000000       341.32800       1.9228102    0.0083945910
       429.00001       289.06309       99752.412       7735.9614      0.77500000       1.8547500     -0.21575000       340.76500       1.9714653    0.0067225568
       433.99998       288.99643       99773.303       7655.9897      0.45625000       1.8512500     -0.33125000       341.98900       1.9547499    0.0083326633
       439.99999       288.99966       99795.836       7607.7281      0.29575000       2.3707500     -0.51425000       341.19300       1.9439916     0.011725663
       445.00000       288.99940       99804.690       7604.0876      0.11400000       1.9772500      0.34025000       341.57200       1.9855726    0.0090415521
       450.00001       288.99909       99804.934       7628.1245      0.20525000       2.7740000     0.081500000       341.78600       1.9691077    0.0086655685
       454.99999       288.98039       99790.941       7674.1598      0.90225010       1.6770000      0.20200000       341.45700       1.9448760    0.0086049388
       460.00000       289.04499       99784.670       7760.1468       1.0200000      0.57500000      0.54300000       343.32800       1.9529246     0.010395959
       465.00001       289.13133       99771.949       7888.5608      0.65550010       1.1892500    -0.088000010       341.38500       1.9750680    0.0096866472
       469.99999       289.31648       99783.882       8047.9681      0.79975000       1.7242500     0.038500000       341.04700       1.9669733    0.0086908877
       475.00000       289.45893       99786.090       8188.1929      0.63025000       1.6452500     0.042000000       341.01900       1.9547088    0.0092624931
       480.00001       289.63069       99786.878       8384.2832      0.32775000       1.6030000     -0.35700000       341.05100       1.9631769    0.0063950498
       484.99998       289.72450       99790.988       8486.8766     -0.27350000       1.2327500      0.53375000       341.32100       1.9578313     0.010215363
       490.00000       289.76903       99793.861       8534.9215      0.52000000      0.51300000      0.67050000       342.52100       1.9589380    0.0088852759
       495.00001       289.76281       99788.826       8541.5738       1.1857500       1.2752500     -0.22600000       341.37100       1.9434804    0.0095283482
       499.99998       289.75930       99791.147       8502.0730       1.1940000       1.1242500     -0.31700000       341.06300       1.9185186     0.011141394
       505.00000       289.69431       99802.752       8373.0343      0.10425000      0.33400000    -0.033000000       342.02600       1.9624353    0.0067262244
       510.00001       289.71495       99795.617       8290.6443      0.14900000      0.96025000     -0.28650000       342.41500       1.9508662    0.0097636849
       514.99998       289.70637       99790.670       8215.7883      0.33925000      0.63925000    -0.024500000       341.34500       1.9753592    0.0066542098
       520.00000       289.63955       99783.050       8133.6867     -0.40450000      0.81625000      0.49125000       342.79200       1.9524156    0.0084880509
       525.00001       289.63720       99775.085       8072.4675     0.045250000       1.3157500    -0.011500000       341.47200       1.9569459    0.0084722592
       531.00002       289.66365       99760.317       8010.5415      -1.1230000       1.9597500     -0.69500010       341.67900       1.9063989    0.0090520528
       535.99999       289.69566       99757.848       7978.1912     -0.68100010       3.0380000     -0.28125000       341.84400       1.9371993    0.0085066468
       541.00000       289.87264       99759.341       8008.2758     -0.17875000       1.5682500     -0.64025000       341.87500       1.9823319    0.0084528489
       546.00002       289.88478       99763.897       7975.1575      0.73050000       1.8462500     0.098250000       342.64500       1.9605529    0.0077204622
       550.99999       289.78243       99786.770       7916.3710      0.67275010       1.2377500      0.72875010       343.53900       1.9721226    0.0065985839
       556.00000       289.69871       99794.208       7860.1408       1.2405000       2.3267500    -0.086750000       341.25700       1.9304686    0.0084256115
       561.00001       289.47016       99791.465       7735.2470       1.6152500       1.9017500     -0.17200000       341.16400       1.9386493    0.0069869289
       565.99999       289.35374       99791.232       7670.2665     -0.38325000       1.3682500     -0.40150000       341.95700       1.9762542    0.0090940474
       571.00000       289.31936       99786.386       7656.7546      0.12150000       2.6312500    0.0075000000       342.25700       1.9286659    0.0082272480
       576.00001       289.28212       99779.285       7629.2609    -0.090750000       1.4975000      0.45925000       343.06900       1.9440431    0.0093834223
       580.99999       289.31463       99770.317       7627.2274     -0.13250000       1.8705000     -0.30075000       342.23000       1.9880463    0.0098851827
       586.00000       289.30322       99764.341       7610.8851     -0.13225000       2.0097500      0.28775000       342.00500       1.9705567    0.0092505543
       591.00001       289.27988       99749.298       7569.6728      0.84700010       1.9930000     -0.27400000       342.50300       1.9774509    0.0071317868
       595.99999       289.24847       99747.204       7552.5405       1.5292500       2.6565000     -0.48025000       340.69500       1.9450633    0.0088777291
       601.00000       289.20269       99757.965       7562.0763       1.4097500       1.2280000   0.00025000000       341.34800       1.9380835    0.0080380462
       606.00001       289.14122       99766.305       7546.5149       1.8782500       1.8447500      0.22225000       341.35500       1.9421228    0.0094993254
       610.99999       289.02674       99787.218       7505.2807      0.58900000       2.0842500    -0.015500000       342.70300       1.9491050    0.0068097098
       616.00000       288.97993       99794.508       7503.8989       1.2517500       1.5700000      0.45675000       343.34600       1.9436789    0.0089012159
       622.00001       288.90913       99795.389       7478.5462      0.24900000       1.7477500     0.043500000       342.49500       1.9084737    0.0070632984
       627.00002       288.93717       99790.504       7521.7691     -0.47075000       1.3440000     0.011750000       342.89900       1.9777995    0.0063124934
       631.99999       289.07890       99770.133       7677.4982      0.49575000       2.3167500     -0.25775000       340.63500       2.0190123    0.0062706490
       637.00000       289.18289       99760.884       7746.1404     -0.28675000       1.9522500      0.43300000       342.31500       2.0411794    0.0066957072
       642.00002       289.30841       99748.310       7782.5199      0.53100000      0.66175000      0.34250000       342.98300       2.3361606    0.0088985560
       646.99999       289.45333       99747.665       7860.5785      0.83175000       1.2312500     0.099250000       341.74900       2.7607460    0.0067646503
       652.00000       289.65752       99761.813       7919.4590      0.77625010       1.6690000      0.45475000       342.35000       2.2893705    0.0081570106
       657.00002       289.75739       99767.813       7985.2644      0.69675000       2.5277500     0.033750000       340.98400       3.1689465    0.0077520665
       661.99999       289.85555       99778.887       8151.5871       1.8510000       2.5980000     -0.19375000       340.94200       2.3860122    0.0073673465
       667.00000       289.88663       99783.770       8194.1283       2.5545000       2.4247500      0.21150000       341.17600       4.5422895    0.0097521922
       672.00002       289.76793       99784.436       8134.2564       1.7770000       1.9977500     -0.66900000       341.81800       5.2120223    0.0093772095
       676.99999       289.73191       99780.300       8108.9577       1.6822500       2.1905000      0.79150000       341.64400       2.7925006    0.0090973150
       682.00000       289.73072       99768.930       8044.0065       2.5122500       2.0587500     -0.13200000       341.45100       2.6168495    0.0074745393
       687.00002       289.68644       99762.967       7987.2050      0.91750000       3.4997500     -0.19875000       341.61200       2.5316372    0.0073378099
       691.99999       289.60986       99749.130       7930.9747      0.44850000       2.1842500      0.29300000       342.50100       2.7291634    0.0072809582
       697.00000       289.58347       99746.964       7894.7854      0.99975000       2.0945000     -0.42825000       340.93900       3.4813270    0.0072949698
       702.00001       289.50885       99754.073       7816.3170      0.71225010       1.9285000      0.13125000       341.25500       2.3798977    0.0066631853
       706.99999       289.53781       99762.178       7824.0185       1.0367500       1.5917500      0.16550000       341.74600       3.0901717    0.0075360533
       713.00000       289.72515       99784.867       7943.4177       1.7627500       1.4617500     -0.18875000       341.66900       2.7509264    0.0068287703
       718.00001       289.79849       99790.348       7984.2378       1.4580000       2.2505000     -0.19925000       340.99000       2.7170559    0.0073301671
       722.99998       289.92120       99795.398       8062.2590       1.3070000       1.5695000    -0.032500000       341.73400       2.5913949    0.0095846634
       727.99999       289.92953       99790.598       8076.1289       1.3675000       1.0817500      0.31850000       342.65600       2.1775239    0.0069962752
       733.00001       289.83781       99769.035       8029.0230       2.0682500       1.8855000     -0.40025000       340.69300       2.8623848    0.0073802059
       737.99998       289.76493       99758.593       7982.2354      0.40175000       1.9600000     -0.31825000       341.51600       2.4061912    0.0069766238
       742.99999       289.66059       99742.633       7910.1588      0.25050000      0.87400000      0.32675000       343.73300       3.4230276     0.010648054
       748.00001       289.52836       99741.204       7848.7477      0.89400010      0.86300000      0.12950000       341.74500       2.3080064    0.0071053929
       753.00002       289.33330       99749.701       7763.2847      0.65350000      0.37400000      0.38025000       343.42400       3.7516766     0.010404176
       757.99999       289.22670       99759.177       7702.8135       1.3600000       1.1110000      0.35875000       341.71100       2.2856759    0.0092522487
       763.00001       289.12667       99784.912       7655.5346      0.94325010       1.3027500     -0.28925000       342.49400       2.7324069     0.010382632
       768.00002       289.03974       99791.749       7615.3247       1.5305000       1.3950000      0.10800000       342.79800       2.1329970     0.010307050
       772.99999       289.01566       99794.959       7581.4187       1.0547500       1.9127500      0.17500000       341.45400       2.8304242    0.0082736863
       778.00000       288.97544       99790.239       7554.4946      0.83350000       1.1702500     -0.10575000       341.84800       2.9016483     0.011202322
       783.00002       288.87885       99767.337       7513.6306      0.74250000       1.5155000     -0.18375000       341.48300       2.9439937     0.010742699
       787.99999       288.88366       99758.495       7537.4925       1.2962500       1.2292500     0.096250010       341.43800       2.8488824    0.0075974274
       793.00000       288.94018       99747.148       7586.5823      0.81725000       1.2787500      0.14900000       341.96800       2.5303188    0.0098982137
       798.00002       289.04480       99747.992       7667.3476       1.3380000       1.2117500    -0.054500000       341.54900       2.6950917     0.010894218
       803.99998       289.29813       99764.194       7863.1130      0.53325000       1.5672500     -0.15700000       341.46700       2.3433675    0.0095145926
       809.00000       289.38147       99770.179       7951.7475      0.50425000       2.1615000    -0.037500000       342.68900       2.1648445    0.0066535548
       814.00001       289.45784       99784.085       8014.6781      0.59850000       1.5522500      0.11525000       343.13100       3.6289225    0.0097623758
       818.99998       289.50142       99781.797       8102.4832      0.88000010      0.58325000      0.11175000       342.77900       3.1675748    0.0086412533
       824.00000       289.45193       99767.576       8171.0557      0.19550000      0.47275000     -0.10000000       341.84300       2.8745550    0.0082722561
       829.00001       289.44169       99759.770       8238.4561     -0.12075000      0.82725010      0.22250000       341.51900       3.3136778    0.0085411734
       833.99998       289.44749       99743.596       8349.1768     -0.17525000       1.5637500      0.27400000       342.58300       4.3783762     0.012001367
       839.00000       289.45747       99739.947       8378.0303      0.24400000       1.3465000     -0.23850000       340.55000       6.3378118     0.013187934
       844.00001       289.43412       99742.014       8364.5411    0.0070000000      0.57775000     0.038250000       340.58800       2.4598949    0.0067821331
       848.99998       289.46132       99748.472       8312.6378      0.24900000       1.0480000    -0.085250010       340.69100       2.7387907    0.0072877263
       853.99999       289.58557       99764.193       8210.5361      0.57050000       1.4390000    -0.081000000       341.13700       2.7759074    0.0076810893
       859.00001       289.54067       99771.359       8112.3683       1.1582500      0.83650000    -0.014750000       343.09900       3.9161536     0.012477976
       863.99998       289.41828       99782.077       7959.6690       1.6632500       1.2125000    -0.034000000       341.91400       5.8983798     0.013807969
       868.99999       289.34918       99783.597       7872.5526       2.2527500     -0.44950000     -0.10350000       341.01600       2.8692286    0.0074552741
       874.00001       289.18617       99778.101       7798.5501       1.7502500      0.24425000      0.72100000       341.01500       2.5046169    0.0094327727
       878.99998       289.14082       99770.470       7757.9149       1.9490000      0.22800000      0.16250000       341.45800       2.2048090    0.0083270594
       883.99999       289.20876       99753.558       7761.2052       1.6350000      0.77275000     0.011250000       341.96400       3.1646596    0.0090543302
       889.00001       289.18996       99752.114       7738.1813      0.82650010      0.66000000    -0.061750000       341.66700       3.2515778    0.0076648495
       895.00001       289.15027       99751.552       7728.9537   -0.0015000000       2.5900000     -0.35950000       341.45400       3.3121556     0.010817759
       899.99999       289.13048       99761.175       7699.2074       1.6175000       3.2925000     -0.73950000       341.06100       2.8347952    0.0097424371
       905.00000       289.10123       99789.223       7642.9805      0.59850000       1.9152500     -0.19225000       342.46600       2.7872827    0.0081262196
       910.00001       289.07141       99791.572       7635.3584      0.23425000       2.7665000      0.48325000       342.60900       2.3722672    0.0097000298
       914.99999       289.03227       99788.864       7627.6059      0.17500000       1.9705000      0.33075000       342.93500       3.2735845    0.0077437005
       920.00000       289.10634       99764.032       7732.0920     0.073500000       1.8655000     -0.22525000       341.71200       3.2256107     0.013812817
       925.00001       289.14537       99752.281       7786.1097     -0.81425010       2.8832500     -0.26150000       340.79700       2.8201594     0.011245564
       929.99998       289.25580       99743.331       7822.3813     -0.61950000       2.5582500     -0.37975000       340.90100       2.4496837    0.0098166896
       935.00000       289.31898       99741.677       7877.1841     -0.51400000       2.3412500     -0.21825000       340.77900       4.3753072    0.0087895067
       940.00001       289.34530       99747.399       7926.7611     -0.93500010       1.3687500      0.52175000       341.24300       3.3206233     0.011707233
       944.99998       289.29358       99766.231       7937.9749     -0.64350000       2.4355000     -0.32325000       341.25400       5.1484621    0.0096006460
       950.00000       289.31513       99770.942       7993.2440      -1.0025000       2.6755000     0.093750010       341.92100       3.2710274     0.013569940
       955.00001       289.34970       99778.042       8089.0423     -0.15000000       3.1465000      0.32700000       340.72700       3.4889665     0.012371028
       959.99998       289.32594       99765.647       8143.7386      0.57325010       2.3855000     -0.30125000       341.03600       2.8969837    0.0079533612
       965.00000       289.38196       99759.469       8191.8220       1.3430000       1.8362500      0.28800000       342.30200       2.9669576    0.0078610222
       970.00001       289.49136       99748.681       8258.1386      0.98325000       2.2565000      0.19675000       341.81700       4.0009888    0.0098026945
       974.99998       289.58830       99747.097       8279.3539       1.4170000       3.4287500     -0.66325000       340.81500       2.9266825    0.0072779972
       980.00000       289.83003       99759.494       8295.6204       1.4477500       1.7995000     -0.15450000       341.44900       2.5151153    0.0070734297
       986.00000       289.94944       99766.747       8240.3747       1.4060000       1.4902500     -0.31500000       341.69100       3.7328649    0.0090722437
       991.00002       289.90008       99781.855       8064.5249       1.8442500       1.6550000      0.11250000       342.40500       4.7091021     0.010627339
       995.99999       289.90900       99784.093       7982.6123      0.24900000       4.0620000     -0.13050000       341.11800       2.9381255    0.0073091213
       1001.0000       289.86822       99771.546       7897.3305       1.0130000       3.5492500     -0.26800000       340.75600       2.3954996    0.0071045273
       1006.0000       289.83896       99764.419       7849.3741     -0.18750000       3.6540000   -0.0085000000       341.02700       3.3692794    0.0084246612
       1011.0000       289.84120       99745.597       7911.1656       1.6627500       3.5335000     -0.18875000       340.62200       3.2814695     0.013227584
       1016.0000       289.85090       99741.236       7913.1887       1.1787500       3.6790000     -0.13675000       341.48000       2.9122463    0.0080041542
       1021.0000       289.84377       99750.089       7892.9259       1.2810000       1.9247500      0.81525000       343.16500       3.2540108     0.014005055
       1026.0000       289.84493       99755.265       7866.1673     -0.20425000       3.6112500     -0.61450000       340.93300       2.1509813    0.0065760520
       1031.0000       289.87582       99772.213       7801.9255      0.20875000       2.6462500     -0.24000000       341.51900       2.6986640    0.0078573803
       1036.0000       289.90590       99778.642       7762.8862      0.78225000       1.4142500      0.60225000       342.99700       2.6429218    0.0086686075
       1041.0000       289.97584       99780.018       7717.7620      0.34800000       2.6195000       1.1402500       342.12100       3.1031295     0.012245129
       1046.0000       289.96159       99776.437       7699.2731      0.29425000       2.0897500      0.28800000       341.15200       2.6701236    0.0077219567
       1051.0000       289.90037       99756.568       7737.0212      0.64400010       3.0072500      0.63375000       341.63600       3.6358602    0.0077985619
       1056.0000       289.84771       99751.955       7724.9629       1.5647500       3.1582500     -0.45450000       340.73500       2.9436481     0.012843015
       1061.0000       289.69411       99757.792       7691.5277     -0.22075000       2.9862500      0.36000000       341.99900       2.8579514     0.010499516
       1066.0000       289.61892       99754.850       7668.9105      0.46800000       3.2170000     -0.45900000       341.33500       2.6345696     0.012377125
       1072.0000       289.59223       99753.649       7589.5169     0.075000000       2.7857500     0.030750000       342.32600       3.9027366    0.0097486011
       1077.0000       289.58961       99756.690       7571.3891      0.16625000       2.8627500    -0.090000000       341.64700       2.4276462    0.0072023003
       1082.0000       289.63711       99755.661       7584.5138       1.0515000       3.3647500    -0.083750000       340.96200       2.1562857    0.0070873773
       1087.0000       289.65717       99754.079       7616.3300     -0.54850000       1.9782500     -0.24625000       342.07700       2.9540274    0.0076361047
       1092.0000       289.71951       99758.405       7706.0148     0.022000000       2.1557500      0.39150000       341.61600       3.4715640    0.0088212266
       1097.0000       289.70810       99762.048       7741.9756     -0.96825000       1.5160000     0.033000000       341.28800       3.5380425    0.0087743516
       1102.0000       289.63566       99757.711       7787.6215      0.42775000       3.2617500     -0.29025000       341.17200       3.2134373    0.0077572837
       1107.0000       289.58179       99759.815       7792.0418      0.59850000       2.1517500    -0.082750010       342.19700       2.7252633    0.0083920958
       1112.0000       289.47181       99776.945       7736.9691       1.3250000       1.7925000      0.59100000       341.08400       2.5443544    0.0068426179
       1117.0000       289.41969       99777.996       7699.8004      0.46475000      0.97775010      0.73150000       341.40400       2.7373275    0.0079348481
       1122.0000       289.37762       99770.062       7609.9193      0.99625000       1.2605000      0.19625000       341.42000       2.9216769    0.0083096266
       1127.0000       289.38911       99764.279       7606.8263       1.9100000       1.0562500    -0.011000000       341.82500       2.8927545     0.012036073
       1132.0000       289.46332       99744.345       7622.5714       1.6825000       1.9682500     -0.42650000       340.74000       4.0866991    0.0090479778
       1137.0000       289.51736       99741.686       7693.5637       1.8812500       1.6947500     -0.15125000       340.70500       2.7466734    0.0071832364
       1142.0000       289.60437       99750.975       7891.6880       1.2060000       1.2675000      0.34500000       341.88100       3.0962495    0.0080316021
       1147.0000       289.68477       99756.639       8002.2763       1.4787500       1.5620000     -0.41025000       340.66900       2.5168480    0.0084718416
       1152.0000       289.73263       99776.484       8092.4351      0.34425000      0.80675010    -0.019500000       340.86800       2.5950614    0.0071151769
       1157.0000       289.82935       99779.117       8192.7018       1.0477500      0.12775000      0.20950000       341.29800       2.4197145    0.0082368307
       1163.0000       290.04626       99768.911       8323.4492      0.12425000      0.85700010      0.17325000       341.55800       4.9896398    0.0095855698
       1168.0000       290.10095       99762.748       8334.5275       1.7445000       1.7140000     -0.19775000       340.93200       3.7464402     0.011379347
       1173.0000       290.09220       99741.888       8305.9224      0.96725000       1.9270000     -0.65750000       342.00200       3.3569807    0.0078269509
       1178.0000       290.12578       99742.361       8275.4122       1.0017500       1.5467500     -0.27875000       340.74800       4.0802596     0.012671877
       1183.0000       290.07528       99757.104       8132.6668      0.60975000      0.90950010    0.0050000000       341.28000       2.5786114     0.010444432
       1188.0000       290.10398       99763.728       8076.6757       1.1167500      0.50400000     0.068500000       341.15600       2.4955023    0.0071677598
       1193.0000       290.26461       99784.725       8087.5370      0.65825000      0.17425000     -0.10500000       341.20300       2.6560049     0.010223428
       1198.0000       290.28061       99783.891       8064.8424      0.92225000      0.38275000    -0.023500000       341.38900       2.1254047    0.0097176479
       1203.0000       290.22621       99763.361       8039.7956      0.89000000      0.93025000      0.24975000       343.03900       2.6802604    0.0080673523
       1208.0000       290.18396       99755.376       8004.7850      0.34600000       2.2387500      0.11525000       342.56000       2.3650033    0.0075168676
       1213.0000       290.07168       99735.918       7955.9059     0.047250000       1.0110000     -0.29550000       341.24900       2.6443461    0.0073185563
       1218.0000       290.00787       99737.157       7932.4534      -1.5805000       1.1667500     0.091250000       341.60400       3.7293670    0.0085497130
       1223.0000       289.99242       99758.366       7916.0021     -0.79275010       2.0912500     0.012250000       342.20600       3.7606630    0.0089718302
       1228.0000       289.90945       99764.812       7890.6735     -0.79225000       1.1765000     0.076250000       342.09700       4.5903265     0.012745536
       1233.0000       289.77168       99779.100       7888.7730      0.48200000       2.2390000     -0.45600000       341.19800       3.3839752     0.011551092
       1238.0000       289.69768       99777.743       7858.2008     -0.60800000       2.0160000     0.023250000       341.32000       3.6322814     0.013370906
       1243.0000       289.61276       99756.497       7794.5121     -0.62325000       1.7647500     -0.57800000       341.45700       3.3742312    0.0083736506
       1248.0000       289.55589       99750.788       7752.3650      -1.0965000       1.2965000      0.61375000       342.82800       3.0732058    0.0077362182
       1254.0000       289.50851       99741.136       7679.2145     -0.77600000       1.4095000    -0.098000000       341.46300       3.1578958     0.014103831
       1259.0000       289.58100       99745.251       7693.1601      -1.0472500       2.1230000     -0.13375000       340.56700       2.6146747     0.011387983
       1264.0000       289.73136       99765.067       7755.2994      -1.4032500       1.1135000     -0.13500000       341.74600       3.7040355     0.012384024
       1269.0000       289.80186       99770.368       7787.3660     -0.96200010      0.94075010     -0.31775000       342.31500       3.1652402    0.0074469645
       1274.0000       289.96729       99779.211       7861.7587      -1.5975000       1.2012500     -0.52075000       341.12100       3.3086450    0.0082728210
       1279.0000       290.00458       99775.069       7906.3437      -1.0487500      0.72550000     -0.29200000       341.10900       2.0081777    0.0095540720
       1284.0000       289.89710       99753.327       7909.4743     -0.99875000      0.51375000      0.17775000       342.10400       2.0499616    0.0068179196
       1289.0000       289.88574       99751.771       7946.0037      -1.2510000      0.60575000    -0.099500010       341.87200       2.0054760    0.0066377595
       1294.0000       289.91777       99753.199       8025.4336      -1.2255000      0.96800010     -0.21250000       341.91700       2.0162575    0.0076865512
       1299.0000       289.88062       99755.819       8038.1824      -1.6557500      0.74375000     -0.16625000       340.98000       2.0601069     0.014312704
       1304.0000       289.81879       99773.899       8025.9192      -1.5105000      0.81775000     -0.21250000       340.55500       2.0197994    0.0063976979
       1309.0000       289.75947       99771.491       8004.3858      -1.1567500      0.96550010     -0.13425000       340.54000       1.9883525    0.0097514923
       1314.0000       289.64023       99755.761       7942.3210     -0.85050000      0.61025010     -0.49550000       340.61700       2.0222398    0.0061763372
       1319.0000       289.61669       99751.732       7910.9274     -0.52325000      0.53225000     -0.18325000       340.68800       2.0585098     0.011668771
       1324.0000       289.65254       99741.139       7893.6882     0.040750000       1.0325000     -0.11775000       340.69600       2.0047886    0.0065660631
       1329.0000       289.64263       99745.320       7849.2070      0.20625000      0.89325000     -0.16425000       341.50300       2.4715561    0.0074541538
       1334.0000       289.67501       99767.076       7797.0759      0.40950000      0.61500000     -0.25150000       341.22400       4.2952927    0.0077138123
       1339.0000       289.62900       99768.532       7744.4771      0.32625000      0.66025000     -0.52950000       340.64300       2.9085308     0.011656529
       1345.0000       289.50080       99769.022       7657.7137     -0.15575000      0.18325000     -0.14975000       342.01900       2.3660331    0.0077276415
       1350.0000       289.43148       99759.410       7612.1728      0.33650000      0.19050000      0.11250000       341.59400       2.1778168    0.0061699237
       1355.0000       289.33881       99731.634       7580.3892     -0.11300000     0.094750000      0.22450000       342.49700       2.1545727    0.0072318667
       1360.0000       289.30138       99729.394       7546.5102     0.097500000      0.30625000     -0.13350000       341.28600       2.0266891    0.0059459097
       1365.0000       289.28236       99732.531       7508.3450      0.45375000      0.38725000     0.082250010       342.35500       2.0490997    0.0058170908
       1370.0000       289.34598       99756.170       7521.2778      0.84250000      0.51375000      0.14450000       341.98600       2.1874311    0.0065381381
       1375.0000       289.39494       99764.037       7546.2427      0.61550000       1.3032500     0.080750000       340.60300       3.2076719    0.0070407231
       1380.0000       289.50065       99756.774       7634.0651      0.60550000      0.77550010      0.15025000       341.43000       3.5485340     0.016525701
       1385.0000       289.56257       99755.882       7692.5879      0.33300000      0.52500000    -0.042750000       341.08600       2.6572336    0.0067273280
       1390.0000       289.59990       99753.768       7741.6704      0.35375000       1.6840000     -0.13450000       340.62400       3.9135266    0.0073625123
       1395.0000       289.61377       99742.073       7791.2912     0.028500000       1.0452500    -0.038000000       341.42900       3.7719905    0.0097272585
       1400.0000       289.60096       99745.857       7802.6826     -0.20025000      0.99200000      0.33700000       342.31800       4.3053658    0.0074890062
       1405.0000       289.55595       99762.052       7790.6328      0.18000000       1.5197500      0.46550000       341.81700       4.4731941     0.010807914
       1410.0000       289.45445       99765.518       7730.9696       1.7445000       1.1447500     -0.29825000       341.33500       4.5235128    0.0075425772
       1415.0000       289.42991       99763.113       7706.4677      0.90475000       1.1882500      0.58775000       342.09300       2.5386408    0.0062048637
       1420.0000       289.49043       99736.652       7693.4589       1.9202500       1.1270000     -0.16700000       341.19900       3.1807565    0.0065435993
       1425.0000       289.50050       99730.934       7686.3720       1.2592500       1.2790000    -0.037250000       342.13600       3.9560753    0.0076457221
       1430.0000       289.53997       99739.755       7732.2719       1.5387500       1.4785000     -0.22250000       342.69500       2.4583476    0.0061066795
       1436.0000       289.56374       99744.482       7734.6998       1.8355000       1.6550000      0.32175000       341.56300       3.3455652    0.0080864867
       1441.0000       289.49573       99772.961       7690.1973       3.4742500       1.4535000    -0.089000000       341.55800       2.5821177    0.0073333654
       1446.0000       289.48871       99776.733       7677.8866       2.3510000       1.9855000     -0.72325000       340.86600       3.1038494    0.0072823278
       1451.0000       289.54778       99749.032       7671.4327       1.7172500      0.69725000      0.30675000       342.60700       3.2851641    0.0077898200
       1456.0000       289.55651       99742.344       7646.0660      0.47150000      0.97375010      0.13225000       342.99700       2.8699580    0.0068534327
       1461.0000       289.54159       99732.745       7623.6858       1.8035000       2.1020000      0.17800000       341.77700       3.1726246    0.0075690967
       1466.0000       289.55155       99731.531       7611.2172      0.17950000       1.1897500      0.60150000       342.84500       3.2714731    0.0079727716
       1471.0000       289.52938       99758.486       7556.1704      0.53250000       2.1662500     0.063000000       341.81100       2.1928243    0.0065128554
       1476.0000       289.54171       99764.649       7550.1952       1.4185000       2.6865000     0.026250000       340.90800       3.5081225    0.0071656191
       1481.0000       289.60954       99758.478       7590.2612      0.51425000       1.5125000     -0.15025000       341.33500       4.1914210    0.0081300260
       1486.0000       289.65968       99756.241       7633.7210      0.53050010       1.2192500      0.11950000       342.44900       2.8614788    0.0072097074
       1491.0000       289.69632       99739.067       7676.6507     -0.25425000      0.59950000      0.54000000       342.41900       2.9424495    0.0064671666
       1496.0000       289.75815       99736.816       7766.0683      -1.0160000       1.5297500     -0.20350000       340.90500       2.2893114    0.0061586258
       1501.0000       289.88786       99754.906       7970.2127     -0.12125000       1.2960000     -0.38975000       340.90200       2.3666603    0.0062622797
       1506.0000       289.92474       99757.607       8045.3239     -0.64325000       1.1460000    -0.080750000       341.30300       2.3514887    0.0071211696
       1511.0000       289.91300       99760.060       8084.9291     -0.29200000       2.1070000     -0.48625000       342.27900       3.2273762    0.0077699881
       1516.0000       289.91042       99757.376       8100.7792     -0.17575000       1.8167500     -0.25325000       341.59000       5.0248428    0.0087066134
       1521.0000       289.81963       99729.396       7978.2981      0.54375000       2.0645000     -0.14250000       341.66700       2.7926874    0.0069667373
       1527.0000       289.77770       99725.811       7910.6437      0.26950000       1.9282500    -0.047250000       342.05000       2.5662998    0.0063060481
       1532.0000       289.75995       99743.919       7867.8906      0.17225000       2.1262500     -0.15700000       341.59900       3.9545159    0.0074504506
       1537.0000       289.80155       99746.586       7870.3762      0.30925000       1.9732500     -0.22025000       341.53000       2.9390757    0.0073770832
       1542.0000       289.90059       99758.687       7918.9381      0.34400000       1.9880000    -0.046750000       341.85100       3.4697520    0.0069648391
       1547.0000       289.97444       99758.142       7942.7027      0.35450000       1.0717500     -0.14475000       341.44000       3.2351785    0.0062591782
       1552.0000       290.17579       99727.448       8042.2027     0.075000000      0.86925010      0.24475000       342.50500       2.9871332    0.0083299645
       1557.0000       290.19127       99725.208       8038.9711      0.65825000      0.48125000      0.24250000       341.84000       2.5265815    0.0066660861
       1562.0000       290.04276       99743.148       7933.1321      0.18600000       1.1657500     0.077250000       341.60800       2.5248265    0.0074854518
       1567.0000       289.97946       99747.219       7884.7792     -0.50850000      0.62250000      0.27175000       341.51800       2.6386517    0.0067047850
       1572.0000       289.80587       99764.302       7778.1798     -0.25600000       1.9610000    -0.039000000       341.79000       3.1783988    0.0078812720
       1577.0000       289.75548       99764.062       7756.9126      0.33175000       1.3095000      0.50100000       342.42600       3.0848623    0.0070172583
       1582.0000       289.83772       99736.142       7819.1303     -0.15950000       1.3652500     0.046000000       342.29500       3.3947019    0.0065622529
       1587.0000       289.85758       99731.049       7847.2584    -0.091750000       1.3377500      0.33900000       342.27600       4.0287578    0.0082267446
       1592.0000       289.94673       99733.326       7912.7407      0.20050000      0.99625000     -0.11500000       342.20200       2.9460634    0.0068600759
       1597.0000       289.90851       99734.472       7940.4433      0.77750000       1.8175000     0.054750000       341.45600       3.9411683    0.0069900132
       1602.0000       289.75966       99754.184       7948.0417      0.37975000       1.5542500     -0.26000000       340.89600       2.3375428    0.0065713539
       1607.0000       289.66640       99753.531       7936.9129      0.18600000       1.6615000     -0.16725000       340.90800       2.3532599    0.0070731381
       1613.0000       289.43921       99728.997       7880.2883      0.37950000       1.3027500     -0.43750000       341.23900       2.1549957    0.0066995722
       1618.0000       289.39654       99727.471       7864.4596     -0.40350000       1.1625000     0.072250000       341.89700       2.1708715    0.0080493808
       1623.0000       289.47123       99726.899       7840.5238      0.29875000      0.93475000     -0.28100000       341.99500       2.4512724    0.0053498351
       1628.0000       289.51425       99729.471       7836.5812     -0.29350000       1.0280000    -0.034750000       342.23100       2.5270273    0.0086439835
       1633.0000       289.65049       99753.205       7873.0003     -0.38300000      0.80525000     0.078750010       342.61900       2.2954968    0.0076128745
       1638.0000       289.68215       99753.880       7876.3879     -0.51525000      0.71825000     -0.16050000       341.37600       2.4321455    0.0097343800
       1643.0000       289.65651       99735.140       7850.0213     -0.22975000       1.1732500      0.38675000       342.92800       2.5070608    0.0057947909
       1648.0000       289.65029       99732.338       7867.1257   -0.0075000000       1.7822500     -0.15300000       341.49900       2.1309719    0.0060508856
       1653.0000       289.60078       99727.864       7891.4235      0.31825000       1.7097500     -0.23425000       341.25500       4.0467124    0.0095207211
       1658.0000       289.58709       99729.400       7931.8400      0.25800000       1.4592500     0.077500000       341.11100       3.2506619     0.019537996
       1663.0000       289.58838       99744.475       7995.8828      0.98950000      0.97250000      0.26200000       342.01200       4.5353157     0.012898760
       1668.0000       289.60486       99749.267       8079.6971       1.3202500       2.7292500     -0.53200000       341.73400       6.2169261    0.0086901746
       1673.0000       289.67485       99750.213       8222.3336       1.3330000       1.3925000    -0.036750000       341.95100       3.0077889    0.0065308854
       1678.0000       289.64555       99751.594       8261.6924       1.4567500       1.6662500    -0.040250000       341.29000       2.1961313    0.0051174332
       1683.0000       289.57061       99750.367       8298.0322       1.1430000       1.0552500    -0.050500000       340.82800       3.3615483    0.0076173171
       1688.0000       289.52419       99750.426       8270.8202      0.94275000      0.44225000    -0.019250000       340.85300       3.7154161    0.0071715645
       1693.0000       289.37879       99754.862       8093.7985      0.68425010       1.6890000     -0.41175000       341.13100       2.7783258    0.0064446017
       1698.0000       289.37022       99748.412       8056.8177       1.7070000       2.1120000      0.12800000       341.62700       2.5654563    0.0070401188
       1704.0000       289.51025       99728.297       8071.8574      0.71825000       2.7692500     -0.43075000       341.24200       4.3467564    0.0086326692
       1709.0000       289.51312       99727.758       8057.8855       1.0017500       3.1187500     -0.15975000       341.32500       4.0795498    0.0072860636
       1714.0000       289.51607       99727.198       8097.8975      0.73225000       3.8965000      0.42725000       341.54200       2.6091684    0.0066154426
       1719.0000       289.49810       99730.783       8076.0271     -0.52775000      0.88325010      0.45600000       342.91100       2.6499181    0.0093651896
       1724.0000       289.36860       99753.879       7965.7089     -0.70000000       1.3555000     -0.52300000       342.24200       2.2846802    0.0071422983
       1729.0000       289.40220       99752.735       7992.7580      -1.2300000       2.8202500     -0.61325000       341.10200       2.6038832    0.0063641733
       1734.0000       289.54036       99733.605       8079.1023     -0.59775000       2.4717500    -0.094750000       340.97900       2.7421693    0.0079294211
       1739.0000       289.60044       99733.237       8142.5271     -0.56950000      0.73050000   -0.0025000000       343.09200       3.8557375    0.0083969187
       1744.0000       289.71822       99733.069       8302.7809     -0.21500000       2.7280000    -0.083250000       340.91300       2.7789166    0.0063854370
       1749.0000       289.73314       99735.584       8319.4153    -0.065250000       1.8067500     -0.36825000       340.92500       3.2623472    0.0070326062
       1754.0000       289.66394       99754.992       8253.0188     -0.10325000       1.8000000     -0.43500000       340.99700       2.6781159    0.0070361151
       1759.0000       289.62449       99750.679       8210.5364    -0.020250000       1.6070000      0.13200000       341.68500       4.1624412    0.0073480178
       1764.0000       289.56012       99728.550       8114.6620     0.095750000       1.7137500      0.39775000       342.03100       2.6041973    0.0075917794
       1769.0000       289.50982       99728.202       8060.8627      0.21575000       1.1882500      0.20225000       341.58800       2.2752194    0.0056851579
       1774.0000       289.45016       99727.710       8023.0949     -0.28225000      0.74625000      0.42675000       343.29900       2.1282970    0.0062486002
       1779.0000       289.41892       99731.167       7984.3531     -0.58000000      0.74475000      0.12350000       343.50100       2.1022319    0.0066272859
       1784.0000       289.39677       99754.253       7952.4878     -0.11075000      0.51800000     0.077750000       341.47500       2.0161267    0.0061051959
       1789.0000       289.38557       99753.119       7910.4325     -0.22450000       1.2225000     -0.10000000       341.31500       2.4209788    0.0076235552
       1795.0000       289.38686       99733.299       7850.2497     -0.39100000       1.1790000    -0.033250000       341.57700       2.5211076    0.0087945756
       1800.0000       289.42850       99733.557       7843.8288      0.50575000       1.5882500      0.48050000       340.93900       3.6140861    0.0082563871
       1805.0000       289.49849       99733.807       7853.7967     0.099500010       1.6447500     -0.46600000       342.02300       2.6266148    0.0072216014
       1810.0000       289.53903       99735.139       7839.8601     -0.56475000      0.41050000      0.56975000       343.25000       2.0885437    0.0081780853
       1815.0000       289.62378       99748.109       7857.1770   0.00050000000       1.0130000     -0.34300000       341.47900       3.9303209    0.0086377377
       1820.0000       289.52412       99728.292       7775.6776     -0.40450000      0.40300000     -0.13800000       342.19900       2.3212124    0.0085079107
       1825.0000       289.49217       99726.375       7739.2205     0.079500000      0.74000000      0.36450000       343.28700       2.0826333     0.012596881
       1830.0000       289.47451       99745.770       7737.2210     -0.65975000      0.70275000     -0.35875000       343.29800       2.4752496    0.0083282819
       1835.0000       289.44338       99747.077       7728.9216     -0.20250000       1.6112500     -0.10050000       342.09800       3.4498850     0.012239884
       1840.0000       289.42454       99744.676       7729.3254      0.43925000       1.7335000   -0.0055000000       343.26200       2.4890688    0.0072900705
       1845.0000       289.46387       99747.568       7757.5925      0.39050000       1.4442500      0.21150000       341.53900       3.6123268    0.0081776022
       1850.0000       289.43057       99745.988       7752.8413      0.80375000       1.3142500     -0.23750000       341.03700       2.8119294    0.0092605855
       1855.0000       289.34365       99726.781       7729.2143       1.0800000       1.1165000      0.10150000       342.27800       2.2488176    0.0078793123
       1860.0000       289.31505       99746.244       7739.7973      0.97025010       1.0137500    -0.059500000       341.49400       3.0789839     0.015781221
       1865.0000       289.29365       99749.058       7735.6810       1.3977500      0.99025010      0.36475000       342.36900       2.8323905    0.0079162884
       1870.0000       289.25495       99730.773       7709.0778      0.48475000      0.82350000     -0.32050000       340.84000       2.5841182    0.0071980134
       1875.0000       289.28132       99728.477       7719.0487      0.51525000     0.022500000     -0.14675000       340.90000       2.5835810    0.0070863436
       1880.0000       289.39014       99728.286       7751.2210      0.29625000      0.68125000     -0.10650000       340.88100       2.6267283    0.0074098446
       1886.0000       289.46149       99728.217       7773.3096      0.42350000       1.1437500     -0.24275000       341.66300       2.7109831    0.0075965707
       1891.0000       289.57067       99752.228       7800.3710      0.76775000       1.1132500     -0.19925000       341.13600       2.6550722    0.0076267647
       1896.0000       289.62673       99755.144       7852.0055      0.21275000       1.2925000     -0.31700000       341.29700       3.2967871    0.0075596568
       1901.0000       289.54404       99731.226       7884.8963     -0.31225000       1.0830000      0.31750000       342.17400       3.3362725    0.0078364195
       1906.0000       289.58938       99727.813       7954.4947      0.11125000       1.0877500     0.059000000       341.97400       2.7177511    0.0079115480
       1911.0000       289.72477       99732.261       8095.7536      0.22775000      0.97475000    -0.016250000       342.61400       2.4371177     0.014269066
       1916.0000       289.81682       99729.424       8207.1644      0.27750000      0.96225010      0.26775000       341.39200       5.5966465    0.0094135273
       1921.0000       289.93838       99736.132       8354.1288     -0.32450000       1.6202500      0.14550000       342.21300       7.0899572     0.011799237
       1926.0000       290.07700       99737.576       8432.2594       1.0360000      0.77850000     -0.35825000       341.49900       2.6100629    0.0083172228
       1931.0000       290.20883       99718.684       8454.4359     0.073000010      0.98100010     -0.66475000       341.51200       3.7486002    0.0087346216
       1936.0000       290.31879       99716.529       8481.9951      0.15100000       1.2970000      0.35425000       341.16200       3.4911088    0.0077727026
       1941.0000       290.52150       99736.026       8480.8149      0.47725000       1.1975000     -0.31700000       341.15500       2.7041851    0.0082147614
       1946.0000       290.59402       99737.460       8450.6962     -0.35525000       1.0020000      0.24775000       342.04000       2.7945490    0.0080587805
       1951.0000       290.53502       99727.865       8410.8350      -1.3425000       1.2260000     -0.18600000       341.53800       3.5777229    0.0069196896
       1956.0000       290.50246       99729.895       8359.9884     -0.89575000      0.84375010      0.30825000       343.43800       2.8603097    0.0083822584
       1961.0000       290.38447       99729.171       8239.3568      -1.6845000      0.52875000    -0.011500000       342.18000       2.5188392    0.0070580798
       1966.0000       290.32770       99728.597       8170.8020      -1.9432500       1.8172500     -0.87100010       341.58200       2.3060343    0.0070950167
       1971.0000       290.29522       99747.168       8137.8137      -1.4320000       1.0832500      0.25475000       340.94800       2.0021106    0.0062640246
       1977.0000       290.28903       99748.672       8087.6947      -1.6715000       1.0010000     -0.25525000       342.41500       2.0256976    0.0058108066
       1982.0000       290.35043       99724.209       8067.0481      -1.4697500       2.0675000    -0.081250000       342.13200       2.0013738    0.0085177048
       1987.0000       290.35665       99722.088       8033.0825      -1.2095000       1.1942500     0.033000000       342.29000       2.2213235    0.0073588789
       1992.0000       290.36962       99730.993       7988.7342      -1.8722500      0.89100000     -0.16700000       342.48900       2.5093773     0.010072026
       1997.0000       290.35233       99729.966       7947.4651      -2.2165000       1.3232500      0.20325000       342.18100       2.2194576    0.0061361165
       2002.0000       290.27871       99736.698       7887.1019      -2.7227500       1.3732500     -0.12250000       340.90900       2.0247911    0.0075098461
       2007.0000       290.22839       99737.252       7866.6360      -2.5492500       1.8762500     -0.38900000       341.13400       1.9843800    0.0062250949
       2012.0000       290.19278       99717.892       7885.2749      -1.8702500       1.7100000     -0.13350000       342.08900       2.0370734    0.0087957026
       2017.0000       290.12953       99717.155       7867.9581      -1.7712500       1.4570000     -0.59700000       342.06500       2.0147223    0.0071999732
       2022.0000       290.01725       99737.017       7848.4061      -1.2765000       2.2937500     -0.45100000       341.60100       2.0339055    0.0099113270
       2027.0000       289.97516       99737.531       7844.9012      -2.6095000       1.5550000     -0.71550010       341.81500       2.0061961    0.0083642413
       2032.0000       289.93606       99728.505       7812.9149     -0.78875010       1.6557500    -0.022000000       342.59900       2.2922204    0.0083509320
       2037.0000       289.93735       99731.016       7814.0855      -1.3197500       1.8187500     -0.23350000       342.38800       2.8727016    0.0081537890
       2042.0000       290.03394       99731.363       7869.4335    -0.025500000       2.2495000    -0.082500000       340.82400       2.8204968    0.0086968518
       2047.0000       290.07034       99728.693       7893.8941     -0.39550000       2.4442500     -0.52600000       341.66800       3.4878755    0.0067690941
       2052.0000       290.10848       99737.015       7889.6131      0.35950000       1.5775000      0.10425000       342.05600       3.3553422    0.0078926088
       2057.0000       290.11083       99737.516       7924.4379    -0.034750000       1.7495000     0.030000000       341.62700       3.0355336    0.0073597512
       2062.0000       290.08841       99717.936       8004.7055      0.36300000       1.3292500     -0.23300000       342.18600       2.7978859    0.0070752315
       2068.0000       290.02925       99717.888       8025.8452     -0.70500000       1.8855000      0.20600000       342.80200       3.2544041    0.0092498730
       2073.0000       289.90716       99737.174       8043.6918      0.10625000       1.1197500      0.17075000       342.56500       3.1212403    0.0080115161
       2078.0000       289.86964       99736.633       8033.7664      0.29800000       2.0385000     -0.20750000       341.58900       4.2850833    0.0092905485
       2083.0000       289.77870       99729.924       7917.2836      -1.2005000       1.9645000     -0.43800000       341.84000       3.3335675    0.0089052708
       2088.0000       289.86912       99731.034       7941.0464     -0.13750000       1.0425000     -0.77025000       341.62300       2.9068609    0.0076811337
       2093.0000       290.13337       99725.395       8033.5721     -0.60375010       2.5045000     -0.24800000       341.62800       3.2596564    0.0073382839
       2098.0000       290.30000       99722.550       8118.6773     -0.32875000       1.5067500      0.65950000       343.25000       3.0265216     0.010140578
       2103.0000       290.54650       99729.554       8290.4739     -0.38275000       3.2887500    -0.092000010       342.14500       3.8391901    0.0090523615
       2108.0000       290.71649       99732.922       8396.6876       1.1540000       2.2042500     -0.34825000       343.50000       3.9340178    0.0089591299
       2113.0000       290.85754       99727.623       8498.9755      0.80125000       1.6290000     -0.65750000       342.03200       2.9300898    0.0096456162
       2118.0000       290.89558       99730.637       8537.3728      0.14175000       1.5555000      0.30200000       343.03100       2.6947450    0.0061000378
       2123.0000       290.89248       99748.626       8536.5692      0.51850000       1.3145000      0.46875000       343.01000       2.8494705    0.0086751680
       2128.0000       290.84097       99746.854       8520.4788     -0.43775000      0.94875000      0.39625000       343.33300       3.1840774    0.0083935789
       2133.0000       290.62678       99728.534       8445.4078     -0.15750000       2.0747500     -0.53350000       341.75100       4.0274678    0.0071233594
       2138.0000       290.52893       99728.311       8379.6849      -1.5485000       1.4145000     -0.13200000       342.72200       3.0089920    0.0098413562
       2143.0000       290.48139       99730.713       8323.8034     -0.98000000       1.9627500      0.85525010       343.26000       2.9693048    0.0085922598
       2148.0000       290.40211       99728.362       8227.5826     -0.21025000      0.99500010      0.68525000       342.50400       3.6707306    0.0094695954
       2153.0000       290.30578       99738.478       8062.5922      -1.1347500       3.8607500      -1.0082500       341.35600       4.0767477    0.0093987329
       2159.0000       290.26370       99735.232       7965.3607      0.30625000       2.8545000      0.14625000       343.01000       2.8013229    0.0075732949
       2164.0000       290.24923       99711.403       7897.4776      0.17025000       2.1382500     0.088500000       341.84900       2.4464869    0.0064830713
       2169.0000       290.22834       99713.715       7843.5806     -0.65800010       1.9505000      0.48850000       342.93700       4.2134695    0.0082980891
       2174.0000       290.24786       99731.931       7826.1977     -0.80425010       4.9802500      -1.1272500       340.90200       2.9864325    0.0073394602
       2179.0000       290.25818       99731.288       7827.6176     -0.41625000       3.6387500      0.20725000       341.78500       2.5919339    0.0070101222
       2184.0000       290.24338       99729.192       7840.9562     0.069500010       2.4720000      0.24125000       343.26200       3.0706705    0.0092797063
       2189.0000       290.25197       99733.155       7842.9494    -0.064750000       2.9217500     -0.27200000       342.56700       2.7198047    0.0097934320
       2194.0000       290.29441       99730.165       7889.3329      0.45850000       5.5367500     -0.86200000       342.05100       2.2911960    0.0090202754
       2199.0000       290.32427       99728.052       7883.0764       1.2290000       4.7262500      -1.1295000       341.61300       2.6446327    0.0082435578
       2204.0000       290.34482       99737.925       7821.4946      0.33150000       4.8932500     -0.83475010       341.74900       3.2339502    0.0072019946
       2209.0000       290.36489       99736.301       7808.6289      -1.3760000       3.0215000     -0.56175010       342.08700       2.7471665    0.0064435274
       2214.0000       290.38597       99717.641       7792.1129      -1.1707500       4.0855000     -0.20825000       341.02300       2.7075609    0.0062558432
       2219.0000       290.43538       99717.998       7824.5512      -1.6950000       4.2457500     -0.25975000       340.84600       3.2521650    0.0071654043
       2224.0000       290.50234       99732.262       7891.9086     -0.78325000       4.0265000     -0.21850000       340.95000       2.1548563    0.0055954407
       2229.0000       290.52349       99730.649       7955.1263     0.022000000       4.7980000     -0.82475010       341.09300       2.8751564    0.0070776107
       2234.0000       290.55145       99723.579       8059.0692      0.19850000       3.5240000     -0.53775000       341.30400       2.2958430    0.0057400664
       2239.0000       290.57253       99727.325       8122.3874      0.53475000       4.3950000     -0.53650000       341.12900       2.9271985    0.0068354076
       2244.0000       290.55278       99731.331       8185.7763      0.35475000       2.5195000      0.12600000       341.22100       3.9893601    0.0072947359
       2250.0000       290.54119       99727.744       8202.0931     -0.22475000       2.0647500     -0.22475000       340.95300       2.4301928    0.0079457734
       2255.0000       290.58429       99731.411       8192.4090      0.33400000       1.9212500     -0.56150000       341.43200       2.9702879    0.0066411659
       2260.0000       290.48698       99733.319       8154.2580      0.34050000       2.8212500     -0.67250000       341.94700       2.7059153    0.0066096652
       2265.0000       290.30050       99724.100       8070.8658      0.21300000       2.6307500      0.10875000       342.54600       2.6235395    0.0074353773
       2270.0000       290.12974       99731.160       7989.7606      0.49700000       1.7655000     -0.74225000       341.99400       2.3532788    0.0061582769
       2275.0000       290.02319       99732.720       7933.0831     0.047000000       2.0902500     -0.15775000       342.17000       4.3380084    0.0073581941
       2280.0000       290.04474       99715.818       7913.6150     0.018750000       1.7585000     0.011500000       342.59300       2.4011681     0.011230879
       2285.0000       290.00617       99712.300       7861.6428      0.44650000       1.5565000      0.45050000       342.77600       3.3743026     0.013145163
       2290.0000       289.95526       99714.950       7800.8219      0.52400000       3.1160000     -0.18300000       341.89000       3.0653658     0.010024968
       2295.0000       289.91469       99727.660       7744.8403      0.69675000       3.0207500    -0.074750010       342.60700       2.7472549     0.011311425
       2300.0000       289.83102       99722.039       7676.8356       1.5190000       2.2157500      0.70050000       343.04500       2.5074633    0.0076340446
       2305.0000       289.67612       99714.052       7567.9187       1.2962500       1.7607500     -0.20225000       341.29100       2.9431035     0.010575874
       2310.0000       289.69062       99720.311       7559.4686      0.91000000      0.93825010     0.034250000       342.08200       3.4374905    0.0071940471
       2315.0000       289.68800       99715.327       7546.7025       1.3452500      0.81575010      0.50075000       343.45700       2.3082804    0.0076299362
       2320.0000       289.80064       99710.334       7578.1857      0.68200000       2.1902500     -0.13325000       341.28100       2.3763535    0.0093327088
       2325.0000       289.82474       99715.252       7588.2523      0.56625000       1.9412500     -0.23025000       341.38600       2.1224247    0.0062455631
       2330.0000       289.75503       99717.459       7575.8628     0.095250000       2.0487500    -0.058000000       341.81500       3.5161614    0.0072087827
       2336.0000       289.69561       99713.940       7572.3937      0.20700000       1.4275000     -0.31225000       341.34400       3.4866963    0.0095930985
       2341.0000       289.58646       99721.013       7564.6568      0.33500000       1.6225000     -0.32750000       341.43300       3.2252373    0.0075583254
       2346.0000       289.52900       99727.723       7564.0002     0.048500000       1.3032500      0.27950000       342.42100       2.5090493    0.0093489798
       2351.0000       289.51048       99726.202       7557.6311     -0.19075000       2.2655000      0.21600000       343.03100       3.1298996    0.0065103149
       2356.0000       289.49163       99724.186       7578.1796      0.20375000       1.6710000     -0.20350000       340.97200       3.6153238    0.0091284471
       2361.0000       289.47190       99731.808       7611.2919     -0.19050000       1.7150000      0.14600000       341.90600       2.9565529    0.0077644463
       2366.0000       289.49419       99732.355       7658.7748     0.069250000      0.98800000     -0.48325000       341.87800       2.9063244    0.0093190963
       2371.0000       289.53940       99714.552       7768.0831      0.55675000      0.94025000     -0.17125000       341.46700       2.9744237    0.0076922769
       2376.0000       289.60126       99712.191       7820.3734    -0.052250000      0.84425000     -0.25750000       341.13700       2.8304351    0.0060343502
       2381.0000       289.74741       99728.546       7838.6543     0.022750000      0.59525000     -0.12600000       341.42400       2.3477790    0.0086788762
       2386.0000       289.82462       99726.937       7872.4159    -0.040250000      0.36600000    -0.050750000       341.43800       2.4580972    0.0072429805
       2391.0000       289.86589       99713.210       7859.2626      0.12600000     0.067000000      0.19025000       342.02900       2.3331270    0.0085171414
       2396.0000       289.91508       99714.511       7891.1345      0.50650000      0.85775010      0.23575000       342.57800       2.2850315    0.0075510806
       2401.0000       289.96293       99719.322       8019.8287      0.25050000       1.5137500     -0.27550000       341.67600       4.2673112     0.010958683
       2406.0000       289.96089       99714.318       8050.4287     -0.12875000      0.97450010      0.32700000       342.29800       2.7804146     0.014311684
       2411.0000       289.92200       99711.317       8029.6669    -0.051000000      0.87500010     -0.15425000       340.96300       2.2054201    0.0069321255
       2416.0000       289.90062       99716.236       8018.3509     -0.25700000      0.59025000     -0.10525000       341.23200       2.2102706    0.0069722158
       2421.0000       289.79127       99719.312       7906.9444     -0.45300000      0.51150000     -0.34650000       341.25100       2.7136589    0.0091980602
       2427.0000       289.77911       99713.386       7879.3502     -0.69275000      0.19150000    -0.027000000       341.32100       2.6820651    0.0072588710
       2432.0000       289.83357       99712.486       7909.7854      -1.6195000      0.73150000     -0.21800000       340.71100       2.6668693    0.0082141562
       2437.0000       289.91508       99717.434       7959.6224      -1.4782500      0.76925000      0.27175000       341.55700       2.2904762    0.0061998417
       2442.0000       290.06431       99715.793       8057.7097      -1.2130000      0.94500010      0.63550000       342.65400       2.0007274    0.0063082591
       2447.0000       290.19888       99713.463       8153.6508      -2.0765000       1.6357500     0.015000000       340.96700       2.0184301    0.0065132431
       2452.0000       290.41400       99724.885       8315.8594      -1.4667500       1.1447500     -0.18275000       340.83700       2.0771131     0.011292535
       2457.0000       290.51041       99728.440       8393.1227     -0.67300000      0.77650000     -0.11225000       340.85700       1.9674520    0.0059921733
       2462.0000       290.54702       99715.724       8436.2087     -0.29700000      0.24350000      0.10125000       340.99600       1.9859135    0.0053220826
       2467.0000       290.57543       99712.892       8464.8233     -0.72375010      0.13125000      0.28375000       341.94400       1.9715005    0.0060479132
       2472.0000       290.50483       99721.139       8403.4979      -1.1990000      0.33375000      0.64550000       343.57000       2.0261160    0.0072767711
       2477.0000       290.48867       99721.331       8408.9174      -2.1450000     -0.36250000    -0.051250000       341.78400       2.0227424     0.010554687
       2482.0000       290.53815       99715.298       8484.2848      -1.7727500     -0.43000000     0.045750000       341.47700       2.0069819    0.0062454743
       2487.0000       290.49635       99714.747       8470.7643      -1.5155000     -0.43025000     0.099250000       341.59600       1.9683194    0.0053457336
       2492.0000       290.35819       99718.454       8398.1027      -1.6052500     -0.15200000      0.12500000       342.43900       2.0137942    0.0066401343
       2497.0000       290.32512       99714.698       8386.4722      -1.6095000      0.25050000      0.18400000       342.45500       1.9808784    0.0070835211
       2502.0000       290.34223       99702.001       8396.6829      -1.9877500       1.1997500      0.64425000       341.98900       1.9911149    0.0083417374
       2507.0000       290.27883       99704.582       8330.2951      -1.6942500      0.90950010     -0.13500000       340.87000       2.0193624    0.0076879442
       2512.0000       290.23844       99717.296       8275.8078      -1.7992500      0.65250000     0.012500000       341.97700       1.9646666    0.0060233577
       2518.0000       290.17927       99714.891       8180.2062      -1.5615000      0.88750000    -0.021250000       342.66500       2.0148694    0.0079254767
       2523.0000       289.99162       99713.485       7963.9030     -0.46225000      0.61075000     0.058250000       341.74200       2.0198688    0.0096505332
       2528.0000       289.95344       99718.410       7877.1816     -0.76850000      0.49900000     -0.15700000       340.85900       1.9899399    0.0069847106
       2533.0000       290.05292       99717.330       7852.5251     -0.27850000      0.53825000     -0.12700000       341.67900       1.9777628    0.0077673686
       2538.0000       290.05670       99712.261       7848.8006     0.097000000      0.28650000    0.0055000000       342.26500       2.0555720    0.0094558303
       2543.0000       290.04608       99712.905       7903.9900     -0.29300000      0.40525000     -0.11375000       342.54400       1.9931332    0.0072193247
       2548.0000       290.05614       99717.802       7923.6985     -0.55800000     0.039500000     0.077500000       342.65000       1.9916590    0.0076335761
       2553.0000       290.00865       99717.339       7948.3511     -0.64300000   -0.0020000000      0.25400000       342.47200       1.9903388    0.0075107194
       2558.0000       290.06293       99712.421       7995.1540     -0.57650000     0.017250000     0.036250000       342.22500       1.9903717    0.0069455946
       2563.0000       290.21168       99713.620       8045.0395     -0.97050010     -0.37675000      0.10750000       341.78700       1.9812574    0.0071125762
       2568.0000       290.30224       99718.632       8084.6229     -0.63525000      0.15225000     0.015750000       342.38600       2.0297700    0.0079646545
       2573.0000       290.41753       99717.289       8150.1838     -0.60375010      0.68075000      0.11000000       343.22800       1.9675235    0.0064397676
       2578.0000       290.51224       99712.220       8200.7691     -0.37800000      0.97925010    -0.076750000       341.80900       2.0192330     0.011608045
       2583.0000       290.60712       99712.916       8228.5420     -0.10525000       1.0700000     -0.14800000       341.37400       2.0194141     0.010421930
       2588.0000       290.62862       99717.841       8251.0247     -0.72650000      0.59650000      0.30475000       342.89300       2.6635647    0.0084163472
       2593.0000       290.60359       99717.286       8281.0706      -1.0777500      0.72125010     -0.16975000       341.51100       2.6431700    0.0067291244
       2598.0000       290.60723       99712.353       8302.2975     -0.78525000      0.76625000      0.55650000       342.74500       1.9850397    0.0077552529
       2603.0000       290.54338       99713.192       8293.6424     -0.82275000      0.58175000      0.48625000       343.45400       1.9241394    0.0064171020
       2609.0000       290.53699       99719.148       8306.1169     -0.30900000      0.57400000     0.036250000       341.02400       2.0033329    0.0070707943
       2614.0000       290.61282       99715.854       8353.8950     -0.59200000      0.29250000      0.40075000       342.01800       2.0101288    0.0078363553
       2619.0000       290.60522       99710.845       8331.2711     -0.37575000       1.0312500      0.13825000       342.54200       2.0223683    0.0088923490
       2624.0000       290.55413       99714.355       8267.1708     -0.50375000       1.6602500     -0.46825000       341.27700       1.9738845    0.0072276806
       2629.0000       290.53417       99719.544       8234.1904     -0.88275000       1.4232500     -0.15825000       342.35200       2.3018871    0.0064918463
       2634.0000       290.51528       99716.450       8185.5818     -0.49425000      0.73100000      0.51675000       342.01600       2.5255448    0.0072903024
       2639.0000       290.46676       99711.402       8128.1809     -0.60175000       1.3805000      0.16625000       341.79600       3.6422903    0.0089220126
       2644.0000       290.42550       99714.223       8091.2633     -0.12950000       1.8377500     0.045250000       342.13500       2.9426771    0.0083452127
       2649.0000       290.34847       99719.188       8023.9301     -0.19850000       2.1337500    -0.056500000       341.83400       3.5705323    0.0078494375
       2654.0000       290.18491       99715.813       7893.6343     -0.18725000       3.3417500     -0.32000000       341.69800       2.8561885    0.0078030931
       2659.0000       290.16061       99710.805       7855.3724       1.4340000       3.4810000     -0.34575000       342.36900       2.9167213    0.0073563025
       2664.0000       290.18735       99714.396       7848.2149       1.0360000       3.3565000     -0.18800000       342.35300       2.9730146     0.016555519
       2669.0000       290.20515       99719.585       7855.5506       2.0900000       2.8255000      0.13575000       342.64300       2.8044194    0.0083550274
       2674.0000       290.28057       99716.221       7904.5765      0.35200000       2.7590000      0.36650000       342.49600       3.2811518    0.0087887031
       2679.0000       290.35938       99711.145       7956.0549      0.40425000       2.4052500      0.28525000       343.27000       2.9431011    0.0077202475
       2684.0000       290.44757       99716.165       8033.8851     -0.20525000       3.0817500     -0.20250000       342.18700       2.6984599    0.0078718834
       2689.0000       290.48838       99717.397       8069.1914     -0.49650000       3.4532500     -0.32400000       342.11100       2.3104832    0.0079640645
       2694.0000       290.57224       99705.191       8104.8120      0.42125000       2.8147500      0.57325010       342.59100       2.9349877    0.0079080041
       2700.0000       290.56117       99699.139       8145.2212     -0.81975000       2.0770000     -0.13700000       342.01000       3.7701418    0.0087677979
       2705.0000       290.45076       99704.167       8146.2692    -0.018250000       1.7362500     -0.24950000       342.99300       3.0487660    0.0093377971
       2710.0000       290.40007       99711.447       8157.9396       1.2070000       1.8417500      -1.1322500       341.34000       4.3900091    0.0086547731
       2715.0000       290.34440       99716.404       8199.4551      0.62275000       1.7902500      0.26475000       342.94700       2.2849482    0.0060477049
       2720.0000       290.25532       99709.970       8109.2131       1.3250000       1.1302500     -0.21325000       341.79400       3.9147965     0.012111835
       2725.0000       290.26761       99714.835       8086.1664      0.52750000       3.7405000     -0.49400000       342.51000       2.6410215    0.0073910440
       2730.0000       290.42065       99720.293       8084.3046     0.012500000       2.5987500     -0.17275000       342.54200       3.2576180     0.015163762
       2735.0000       290.50007       99715.351       8089.2933      0.76150010       2.2415000     -0.63425000       342.57800       3.0226947    0.0080907142
       2740.0000       290.57955       99710.422       8119.0910      0.25525000       2.6542500      0.49875000       342.32300       4.6418912    0.0086699716
       2745.0000       290.71889       99717.120       8211.1591      0.79425000       2.3077500     -0.19725000       342.61000       3.6103784    0.0086846873
       2750.0000       290.77466       99717.812       8247.5220       1.2030000       1.6487500      0.56525000       342.69300       2.6163684    0.0074334924
       2755.0000       290.73253       99704.064       8261.7195      0.68400000       2.7487500      0.25750000       341.80000       4.3790110     0.018446560
       2760.0000       290.89210       99699.212       8310.7845      0.77450000       2.4517500     -0.15925000       342.01100       4.6586720    0.0084870800
       2765.0000       290.96583       99703.858       8342.1652     -0.28450000       3.0055000      0.66325000       343.32000       3.4432493     0.010147646
       2770.0000       291.07121       99717.340       8379.4740      -1.3062500       1.1090000     -0.79575000       342.68600       2.7413215    0.0083155231
       2775.0000       291.08783       99716.604       8398.7969     -0.28125000       2.7397500      0.10100000       342.61600       4.0337593     0.011054864
       2780.0000       290.92504       99710.255       8380.4941     -0.68800000       2.2392500      0.10775000       343.17500       3.5552829     0.010241601
       2785.0000       290.84442       99715.173       8376.6922    -0.046000000       3.0765000    -0.092000010       342.25400       2.9661540    0.0071919073
       2791.0000       290.71502       99719.196       8367.6151      0.66250000       3.2670000     0.022500000       342.42200       3.1338359    0.0077587913
       2796.0000       290.67038       99714.225       8366.6566      0.25350000       3.3910000     -0.52700000       341.70600       3.5454800    0.0084801274
       2801.0000       290.77648       99714.026       8401.6699      0.98800000       2.0902500     -0.16900000       340.92600       2.8133993    0.0095177737
       2806.0000       290.76279       99716.872       8392.0825     0.093750010       1.8320000     0.082750010       342.46600       3.9106037     0.011443498
       2811.0000       290.72897       99709.579       8385.8906   -0.0037500000       1.5350000      0.56900000       342.34000       2.9790154    0.0096086833
       2816.0000       290.65436       99702.739       8327.3051     -0.43825000       2.3457500    -0.080250000       341.11400       3.0575137     0.010620033
       2821.0000       290.41242       99702.964       8164.2009      -1.7392500       1.2937500    -0.059000000       341.93800       2.6587130    0.0074650592
       2826.0000       290.30842       99705.965       8081.4793      -1.2082500       1.2937500     -0.17600000       341.22200       2.4208774    0.0066487891
       2831.0000       290.20338       99707.704       7969.3480     -0.37375000       1.2957500      0.20500000       341.99400       2.4516077    0.0097909318
       2836.0000       290.21330       99704.774       7934.1218     -0.17250000       1.8982500     -0.35075000       341.82600       2.9342522    0.0076445537
       2841.0000       290.49583       99704.272       8034.0448     -0.67925010       2.0195000      0.29675000       342.06900       2.8527915    0.0068028534
       2846.0000       290.53775       99706.197       8051.7651     -0.93225000       2.0315000     -0.38975000       341.79700       4.7078812     0.010360722
       2851.0000       290.48829       99700.066       8063.9266     -0.79450010       2.2692500     0.042750000       341.24700       2.8964785    0.0077465257
       2856.0000       290.46309       99698.428       8065.9010     -0.92750010       3.0030000     -0.31725000       341.17800       3.7393140     0.011509004
       2861.0000       290.23311       99712.708       7981.0006     -0.34800000       2.6367500     -0.31700000       340.77300       5.5740093     0.016079992
       2866.0000       290.15224       99713.025       7972.6198     -0.33750000       2.3410000     -0.20700000       341.15800       2.8671189    0.0087535678
       2871.0000       290.20562       99698.687       8014.9561    -0.038250000       1.4010000     -0.25500000       341.10500       3.0718404    0.0085667645
       2877.0000       290.25915       99693.003       8065.3243      0.13225000      0.93625000    -0.074000000       340.91600       2.7875166    0.0068528729
       2882.0000       290.39601       99687.070       8175.3466      0.29450000       1.3582500     -0.72425000       341.14700       3.2790977    0.0082754790
       2887.0000       290.42445       99682.947       8219.1963     -0.19475000      0.54150000      0.46575000       341.89400       2.5723928    0.0079192214
       2892.0000       290.40028       99680.889       8225.5873     -0.29525000       1.0787500     0.042250000       341.19100       2.6610998    0.0091542906
       2897.0000       290.40684       99686.098       8243.9808     -0.33075000       1.1402500     -0.25225000       342.04800       3.0150557     0.012448195
       2902.0000       290.31016       99700.081       8217.3616     -0.22950000      0.54550000     -0.28650000       341.75500       3.2279329    0.0084343498
       2907.0000       290.33834       99702.385       8236.4462     -0.17775000       1.1092500     -0.20275000       340.97600       3.8161762    0.0099512671
       2912.0000       290.52269       99703.184       8306.3285     -0.78850000      0.49125000     -0.36750000       341.43000       3.5650870    0.0072973849
       2917.0000       290.58484       99707.848       8336.3841     -0.80800000       1.1310000      0.34200000       342.45200       3.8752760     0.010378861
       2922.0000       290.63493       99708.330       8376.3836     -0.23575000      0.42000000      0.49050000       343.74600       4.0005302    0.0077829134
       2927.0000       290.67707       99703.946       8386.6263     -0.24300000       1.2695000     -0.27875000       341.18000       4.0640624    0.0085107516
       2932.0000       290.63069       99698.331       8336.1998      0.23600000      0.66925000     -0.19350000       342.04900       4.0292163    0.0080591149
       2937.0000       290.64831       99700.761       8340.0817      0.71700000      0.51450000     0.055750000       342.27400       3.0817298    0.0076041160
       2942.0000       290.77259       99702.762       8383.9290      0.37050000       2.1215000     -0.15000000       341.87600       4.2756907    0.0080291870
       2947.0000       290.76822       99698.786       8380.3019       1.7210000       3.2177500     -0.34575000       342.11300       3.3367704    0.0091009352
       2952.0000       290.66777       99697.954       8363.5718       1.4725000       1.4295000      0.29025000       343.48600       3.4877244     0.011829259
       2957.0000       290.63798       99701.883       8366.8323       1.5677500       1.7347500     0.093750010       341.62600       2.1828692    0.0065014202
       2962.0000       290.56609       99702.859       8349.4460       2.1935000       2.8200000     -0.82250010       340.94500       2.3110301    0.0068963302
       2968.0000       290.51837       99698.165       8330.5832       1.1382500       2.4022500     0.094250000       341.73900       3.2642739    0.0084391540
       2973.0000       290.58192       99699.932       8362.0588       1.7220000       2.1480000    -0.087750000       341.64400       3.8276398    0.0082660633
       2978.0000       290.54282       99702.227       8338.4381       1.3945000       1.8857500     -0.28150000       341.80700       3.7817575     0.011821028
       2983.0000       290.45102       99695.630       8270.0189       1.3517500       1.3212500     -0.14350000       342.25800       3.0320298    0.0076603692
       2988.0000       290.34828       99692.809       8210.6503       2.2280000       1.1252500     0.071750000       341.38100       2.2643456    0.0080655493
       2993.0000       290.17275       99701.319       8125.6678       2.6547500       2.7752500    -0.093500000       342.18300       2.1713886    0.0071000385
       2998.0000       290.08451       99701.411       8076.7969       1.3545000      0.98275010      0.25550000       343.23600       2.5045984    0.0095724079
       3003.0000       289.96864       99688.297       8017.5102       1.9330000       2.0915000      0.49025000       342.38300       3.0867903    0.0085947970
       3008.0000       289.97622       99688.841       8008.0327      0.83200000       2.3387500     -0.29400000       341.47600       3.0138272    0.0078167732
       3013.0000       290.13518       99702.023       8059.8943      0.85375010       1.6420000      0.92550000       342.51100       2.9361586    0.0068547920
       3018.0000       290.17896       99701.064       8067.9167       1.0452500       3.0760000     -0.24700000       341.67800       2.8606065    0.0080263167
       3023.0000       290.26530       99693.028       8093.3360      0.67050000       3.1705000    -0.075250010       341.57800       3.1872248    0.0075594923
       3028.0000       290.27007       99696.286       8087.2752       1.6435000       2.2192500     -0.21650000       342.31700       2.9954770     0.010889578
       3033.0000       290.14654       99702.034       8035.1943       1.4297500       4.0582500     -0.33150000       342.24400       2.5108794    0.0083784509
       3038.0000       290.12878       99699.443       8019.9041       1.6972500       3.9422500     -0.21150000       341.42000       3.5786174    0.0085553579
       3043.0000       290.10973       99698.741       8004.3446       1.0670000       2.8672500     -0.19250000       341.84100       2.9546839     0.012414319
       3048.0000       290.16480       99702.667       8011.5918       1.4040000       3.6390000    -0.054500000       341.80500       2.4032626    0.0091578376
       3053.0000       290.29114       99701.039       8014.4863      0.12400000       2.7780000      0.40375000       342.83800       2.1847049     0.011320613
       3059.0000       290.43983       99698.485       8099.1916      0.13425000       2.6885000      0.37575000       341.40200       2.8608648    0.0085636961
       3064.0000       290.62471       99706.077       8218.4761     -0.18225000       4.0720000      0.13375000       342.15700       3.1826951     0.010250424
       3069.0000       290.75644       99708.241       8330.9509      0.91975000       2.5695000      0.88350000       343.60000       3.0923078    0.0084499933
       3074.0000       290.90803       99700.289       8518.2223     0.052500000       2.4527500    -0.016500000       342.72100       3.4092796     0.011718829
       3079.0000       290.96354       99697.047       8600.2615       1.1805000       1.4547500      0.83775000       343.27600       2.6097188     0.011747097
       3084.0000       290.99574       99701.646       8655.9319      0.48425000       2.0667500      -1.0055000       341.44500       2.1408168    0.0063055945
       3089.0000       290.92425       99699.967       8641.1582       1.7835000       1.8197500      0.12000000       342.54600       3.0866747    0.0075356007
       3094.0000       290.73125       99687.120       8547.8097       1.1617500       3.9097500   -0.0090000010       341.35400       2.6398731    0.0089725451
       3099.0000       290.60364       99690.457       8477.6123       1.1535000       4.1137500     -0.63325010       341.03300       3.3255193     0.012350753
       3104.0000       290.37854       99709.648       8345.4767       1.0565000       2.5700000     0.030000000       342.09300       2.6273176    0.0070950961
       3109.0000       290.33198       99704.311       8286.4512       1.2425000       1.6530000      0.51550000       343.28400       2.2547244    0.0063808397
       3114.0000       290.37793       99688.482       8253.0372      0.49400000       1.7825000     0.047500000       341.74400       3.6692021    0.0087681957
       3119.0000       290.41435       99691.321       8224.0167      0.87450000       1.4875000      0.38750000       342.33600       3.9905363     0.012436010
       3124.0000       290.52767       99690.012       8207.0207      0.39075000       2.3672500      0.33125000       341.82200       2.6001073    0.0081910690
       3129.0000       290.62658       99687.761       8226.6614     -0.27200000       2.8852500     0.028250000       341.42500       3.2647332    0.0087369526
       3134.0000       290.73335       99701.089       8247.5301      0.46800000       1.9357500     0.088750000       342.39200       3.0742002     0.012554560
       3139.0000       290.82282       99705.432       8338.9856      0.47350000       2.5692500     -0.46275000       340.90700       3.9409939    0.0078613119
       3144.0000       290.97302       99694.598       8531.2929     -0.12350000       1.6812500     -0.24175000       342.18000       2.7829863    0.0076815892
       3150.0000       290.98588       99692.101       8622.7537    -0.097000000       1.7415000     -0.30400000       341.63800       2.5103897    0.0099691598
       3155.0000       290.92149       99702.401       8708.6389      0.44450000       1.2587500     0.046500000       343.33000       3.2979430    0.0079039408
       3160.0000       290.84670       99700.999       8722.7406      0.81050000       1.3777500      0.12250000       341.73500       3.9758753     0.010212037
       3165.0000       290.71186       99687.916       8665.4681      0.66700010       1.7600000     -0.59575000       341.47400       2.7117859    0.0063551849
       3170.0000       290.52251       99700.715       8555.9861      0.81575010       1.5982500     -0.47750000       341.31200       2.3402542    0.0085422336
       3175.0000       290.38961       99702.145       8468.0111      0.18925000      0.95550010     0.025750000       342.38800       2.1689273    0.0065982396
       3180.0000       290.24415       99692.230       8310.9884      0.18450000      0.88575010      0.30300000       341.19600       2.2189674    0.0086919856
       3185.0000       290.13156       99693.895       8205.0626     -0.54050000      0.62150000      0.48175000       341.95800       3.3161756     0.011672212
       3190.0000       290.05591       99698.005       8131.2239      -1.1195000       1.8407500    -0.019250000       341.55900       4.0092513     0.013793400
       3195.0000       290.05102       99700.856       8106.1321     -0.72225000       1.3737500    0.0095000010       341.64800       4.1040740     0.011668971
       3200.0000       290.00057       99697.793       8059.4990     -0.49850000      0.86025010     -0.16475000       341.11700       3.0040036    0.0071197003
       3205.0000       289.93826       99700.945       8026.5601     -0.41700000      0.76175000    -0.098250000       341.43300       2.5401024    0.0090862116
       3210.0000       289.96057       99698.537       7984.2755      0.21450000      0.63850000    -0.032250000       341.30200       2.6011399    0.0086341631
       3215.0000       289.95088       99694.371       7954.9032     -0.24575000      0.83175000     -0.31825000       341.09000       3.7827594     0.010998471
       3220.0000       289.94038       99701.244       7926.3646    -0.085000000      0.45350000    -0.097500000       341.83800       4.6036228     0.010964223
       3225.0000       289.95045       99702.627       7922.1399     -0.57375000      0.20275000     -0.13075000       341.20100       3.6655253    0.0099420680
       3230.0000       289.92959       99685.871       7958.4346     -0.17925000     0.098750000     -0.13425000       340.98000       3.5993081     0.010867864
       3235.0000       289.93655       99682.293       7971.5096     0.029500000     -0.23050000      0.16375000       341.49400       2.8918218    0.0091693838
       3241.0000       290.03833       99698.541       7978.7779      0.31275000     -0.23175000      0.22225000       342.20100       2.6990141     0.010841513
       3246.0000       290.06583       99697.010       8004.5839      0.65725000     -0.48600000     -0.25975000       341.49100       2.5535644    0.0096206920
       3251.0000       290.07009       99683.373       8041.5237       1.3882500     -0.34400000     0.072750000       341.98200       2.3449313     0.010155639
       3256.0000       290.05780       99684.750       8055.6585       2.5865000     0.023750000      0.18875000       341.73500       2.2139318    0.0089634016
       3261.0000       289.97551       99685.127       8081.2950       1.0340000      0.97725000     -0.51175000       344.55300       2.1380127    0.0098625591
       3266.0000       289.93633       99683.433       8096.7494     -0.59725000       1.8222500      0.21450000       342.21200       2.0449938    0.0088614641
       3271.0000       289.89548       99700.008       8067.8648    -0.050250000      0.91425000      0.10575000       341.98100       2.2465604    0.0076269187
       3276.0000       289.88813       99704.178       8065.4128      0.15350000       1.6722500     0.043250000       341.90000       2.2101890    0.0080583382
       3281.0000       289.90370       99684.327       8075.1095     -0.46025000       1.6835000     -0.16625000       342.32500       2.5796836    0.0073778122
       3286.0000       289.94642       99681.953       8097.1483     -0.12675000       2.2127500      0.26150000       342.00700       3.7472328    0.0099956747
       3291.0000       290.04402       99698.528       8132.0612     -0.28975000       1.7582500      0.42800000       342.44700       3.7451442     0.010578052
       3296.0000       290.11442       99696.978       8169.6767      0.73325000       2.8905000     -0.27325000       342.42300       3.8014192     0.011919606
       3301.0000       290.17346       99683.044       8226.5661     -0.38250000       1.8715000      0.52175000       344.00100       4.1236174     0.010578619
       3306.0000       290.26499       99684.244       8276.0957      0.17125000       1.4210000      0.50000000       343.04400       3.3903062     0.011008557
       3311.0000       290.36505       99682.355       8312.7060      0.71250000       2.2872500     -0.71075000       341.76200       2.9154988    0.0088033393
       3316.0000       290.46553       99683.125       8368.3739       1.6342500       2.5840000      0.68475000       342.57000       2.9653835     0.010845128
       3321.0000       290.65304       99709.688       8463.4476       1.1067500       2.7792500     -0.14400000       342.81100       3.2817067    0.0099933446
       3326.0000       290.73762       99715.715       8509.3380    0.0022500000       2.7135000     0.096500000       343.69100       3.0961118     0.010853105
       3332.0000       290.77915       99695.101       8583.9429      0.30625000       2.5945000      0.28225000       342.54200       3.8640759    0.0089063248
       3337.0000       290.76343       99693.233       8565.5604      0.50225000       1.4040000     0.037500000       341.68900       2.3549349    0.0084877793
       3342.0000       290.64248       99697.166       8452.2051      0.55150000       2.1900000    0.0097500000       342.34700       3.8394695     0.010981476
       3347.0000       290.57215       99694.166       8372.1477       1.9180000       2.5402500     -0.63875000       341.85900       2.7150059    0.0087296981
       3352.0000       290.45857       99695.903       8229.0647       1.6847500      0.86525010     -0.55750000       341.91400       2.3678114    0.0063044279
       3357.0000       290.41926       99696.182       8156.8205       2.8002500       1.6257500      0.60075000       342.11400       3.5757186     0.011873307
       3362.0000       290.44266       99682.999       8137.7561       1.5577500       2.6510000     0.030250000       342.05400       3.5505901    0.0098035807
       3367.0000       290.44614       99682.874       8100.3853       1.5945000       2.7182500     -0.54175000       341.41100       3.0486475     0.014137224
       3372.0000       290.48192       99704.138       8065.6332      0.19450000       1.1610000      0.68325000       343.66900       2.5092538    0.0076936243
       3377.0000       290.51208       99702.866       8066.5722      0.72425000       1.7257500      0.40825000       342.18400       2.7172290     0.011280212
       3382.0000       290.58882       99683.908       8119.7607      0.25300000       1.5427500      0.24850000       342.41200       2.8353871    0.0068525570
       3387.0000       290.55309       99684.150       8098.6500      0.52275000       1.9720000     -0.11350000       342.02800       2.4494838    0.0098086799
       3392.0000       290.45277       99685.867       8073.1882      0.74350010      0.99100010     0.029000000       342.95900       2.2723860    0.0077425671
       3397.0000       290.37494       99683.652       8035.7354       1.1637500       1.9042500     -0.35500000       341.68300       3.2562276     0.013286280
       3402.0000       290.18046       99695.107       7904.5844      0.21925000       1.1385000      0.13025000       341.90300       3.2666318    0.0094540474
       3407.0000       290.09636       99698.488       7851.7419      0.59225000      0.90550010     0.035250000       342.09900       3.8253085     0.011586083
       3412.0000       290.09211       99682.931       7827.5425       1.0057500      0.99150000     0.063000000       343.09400       3.7328468    0.0085031725
       3417.0000       290.08948       99682.756       7844.3786      0.59200000       1.5235000     -0.15550000       341.24400       3.7127057    0.0076932074
       3423.0000       290.11751       99704.197       7902.0706      0.69050000      0.62625000      0.21600000       341.75300       2.3101653    0.0067209190
       3428.0000       290.17032       99701.333       7990.0301       1.0147500      0.67375000      0.25100000       342.40600       2.4621087     0.011486733
       3433.0000       290.28269       99685.763       8173.2792      0.35800000      0.93125000     -0.10375000       341.57500       3.3250366    0.0078776263
       3438.0000       290.33682       99683.439       8263.4021      0.28775000      0.97375010      0.13825000       342.19100       2.1241551    0.0067484287
       3443.0000       290.42139       99673.182       8357.1520      0.69025000       1.1780000     0.014000000       341.96200       2.4382721     0.011291635
       3448.0000       290.41733       99672.152       8394.0675     -0.37600000      0.57025000     0.070250000       343.61500       2.3628483    0.0079598729
       3453.0000       290.33834       99693.573       8355.5322      0.79875000       1.8187500     -0.75225000       341.09400       2.9680223    0.0099433706
       3458.0000       290.26635       99692.876       8331.8382     -0.19625000       1.4497500      0.18525000       343.29200       2.6546837     0.011890700
       3463.0000       290.11951       99678.229       8277.1575      0.34175000      0.95525000      0.10725000       342.94000       3.7072675    0.0082539880
       3468.0000       290.05234       99672.294       8246.9240      0.13250000      0.37350000      0.51725000       342.95000       2.8454844     0.010032986
       3473.0000       290.00215       99657.464       8211.1132       1.8775000      0.21550000      0.42825000       342.12600       2.5620429    0.0085889604
       3478.0000       289.97447       99658.327       8186.1676      0.78050010       1.2947500     -0.41075000       342.81800       2.6981679    0.0077654273
       3483.0000       290.01138       99676.450       8186.3938       1.4302500       1.5827500    -0.059000000       341.18800       3.1495377     0.010306815
       3488.0000       289.99530       99677.605       8160.9811       1.5895000       1.2420000     -0.28450000       342.67400       2.8720054    0.0076976519
       3493.0000       289.92452       99672.079       8085.4479      0.83425000      0.79850010    -0.032000000       343.02200       2.3889911    0.0082324096
       3498.0000       289.95337       99678.356       8105.8288       1.2572500       1.0735000      0.42725000       342.99200       2.6157189    0.0083763336
       3503.0000       290.01539       99687.142       8180.0625       1.4560000       2.1772500     -0.34525000       341.64700       4.4213489     0.013097202
       3508.0000       290.07723       99684.890       8218.0821      0.29550000       2.6777500      0.52625000       342.54700       2.5925022    0.0094987423
       3514.0000       290.21625       99686.374       8324.7040       2.4772500       3.2435000     -0.78625010       342.02400       2.6356588    0.0075573616
       3519.0000       290.34568       99687.576       8368.1848      0.97825000       3.7980000      0.53425000       341.87700       4.5538944     0.010029421
       3524.0000       290.49469       99670.994       8344.0097       1.9080000       3.2120000      0.19350000       341.66000       2.9597068     0.012607700
       3529.0000       290.56739       99675.055       8379.3138       1.5502500       4.1782500      0.13350000       342.16700       2.8314631    0.0068641907
       3534.0000       290.68435       99705.064       8450.3037       2.7287500       3.7147500     -0.27075000       342.44600       2.6097392    0.0097144871
       3539.0000       290.67296       99703.210       8493.4242       1.2200000       3.8675000     -0.88100000       342.30100       3.1771412     0.010238454
       3544.0000       290.49598       99683.503       8524.3487      0.52600000       2.8550000      0.28200000       342.61700       3.2321278     0.012452904
       3549.0000       290.46368       99685.163       8579.2177       1.8430000       2.0760000      -1.1190000       342.24400       2.6413365    0.0080664285
       3554.0000       290.40200       99681.205       8644.5273       1.7332500       3.2387500    -0.078250010       342.41400       2.8105067    0.0088347280
       3559.0000       290.47647       99685.716       8689.1623       2.6690000       2.9840000     -0.35200000       341.45500       2.2532004    0.0079176014
       3564.0000       290.68720       99716.283       8753.9606       2.9927500       3.6062500     -0.26175000       341.23000       2.1898348    0.0068248214
       3569.0000       290.77889       99712.559       8774.3559       1.0102500       3.8455000     -0.72150000       341.86900       2.6427831    0.0073446254
       3574.0000       290.91376       99682.253       8755.7305      0.72475000       2.7725000     0.055750000       341.25100       2.9279165    0.0070540323
       3579.0000       290.95918       99681.554       8741.7065      0.95325010       1.3735000     -0.58225000       341.85400       2.3309787     0.014756388
       3584.0000       290.90007       99683.729       8716.4731      0.37525000       2.3410000    -0.022250000       341.77100       2.8000597    0.0073239089
       3589.0000       290.90000       99684.424       8686.2492      0.23025000       2.4530000     -0.55275010       342.02700       3.2181442    0.0092442678
       3594.0000       290.92738       99705.169       8636.3606      0.28725000       2.8782500      0.57525000       342.74100       2.9973409    0.0074320070
       3600.0000       290.85651       99699.295       8605.0942       1.4707500       2.9822500      -1.5852500       342.16500       2.4544183    0.0083503040
       3605.0000       290.77351       99671.240       8593.8682       1.3995000       2.8112500     -0.47875000       340.94900       2.6433127    0.0064395854
       3610.0000       290.64847       99674.283       8538.5881       1.1335000       1.8995000     -0.34800000       342.49700       2.7965181    0.0069116022
       3615.0000       290.43940       99684.650       8473.9175       1.4897500       2.4960000     -0.66375010       341.84300       3.1795240    0.0065184186
       3620.0000       290.37415       99701.048       8417.9914      0.81025000       2.7400000   -0.0072500000       342.76700       3.0801023    0.0084335946
       3625.0000       290.25508       99705.214       8343.5978       2.2632500       1.7195000      0.11225000       342.56700       2.6101178     0.014173337
       3630.0000       290.09419       99676.792       8256.0325       1.3295000       2.1625000     -0.55450000       342.29300       2.5428318     0.010558469
       3635.0000       289.99385       99671.029       8199.8031    -0.063250010       1.8282500     -0.41650000       341.74600       3.1490868     0.010705707
       3640.0000       289.90579       99673.877       8149.6199       1.0467500       2.3050000    -0.096500000       341.69800       2.3813578    0.0087566500
       3645.0000       289.76808       99684.233       8070.1428       1.1570000       2.6582500     0.058750000       341.36000       2.6296238    0.0068725597
       3650.0000       289.75548       99687.452       8061.7221      0.36475000       1.2835000     0.064250000       341.55300       4.9532392     0.014121492
       3655.0000       289.84964       99704.784       8108.5534     -0.14400000       2.5400000     -0.17200000       342.20800       3.6754084    0.0074309665
       3660.0000       289.85569       99679.529       8135.0191      0.26300000       1.6022500      0.15700000       342.54300       3.5006146     0.010833274
       3665.0000       289.89464       99671.754       8167.7898     -0.30875000       2.5062500     -0.41525000       341.53900       3.0167608     0.013613553
       3670.0000       289.93106       99673.809       8189.3909      -1.7460000       1.5612500     -0.87475000       341.89400       3.6819737     0.012086135
       3675.0000       289.98855       99673.468       8242.2620     -0.22000000       1.8225000      0.28350000       342.10300       4.0962994    0.0085080388
       3680.0000       290.10029       99690.241       8303.4651      0.30400000       1.8995000     -0.11425000       341.58400       3.2498258    0.0072531239
       3685.0000       290.19959       99693.969       8400.1712      0.41525000      0.98725000      0.64200000       342.91400       2.9837292     0.012745897
       3691.0000       290.33217       99675.885       8604.5897     -0.59550010       2.0312500      0.41450000       343.04400       4.5496426     0.010352324
       3696.0000       290.42086       99673.238       8733.6357     -0.70425000       2.8132500     0.044750000       342.30800       3.6045432    0.0084120048
       3701.0000       290.52695       99673.429       8924.0654     -0.36750000       3.5397500     -0.35350000       341.13300       3.1408986    0.0088774376
       3706.0000       290.57340       99673.717       8994.6087      -1.0925000       2.5707500    0.0040000000       342.61800       2.9566249     0.010739031
       3711.0000       290.54140       99693.034       8933.9615     -0.59200000       3.7190000     -0.34425000       341.63800       3.4600076     0.010497220
       3716.0000       290.55125       99694.350       8913.1604     -0.70900010       2.2155000      0.23175000       342.14800       3.7432363    0.0079571997
       3721.0000       290.54398       99671.103       8844.3493     -0.34125000       1.9205000     -0.44950000       342.20900       3.1207129    0.0098889703
       3726.0000       290.54525       99667.686       8776.4206      0.99925010     0.014750000      0.43125000       342.80100       2.7042220    0.0076728933
       3731.0000       290.59046       99667.428       8727.8252       1.9377500      0.70900010      0.65750000       342.47100       2.5185465    0.0099915634
       3736.0000       290.60895       99667.979       8670.5561       2.1602500       1.5127500     0.018500000       342.94000       2.2044553     0.011304807
       3741.0000       290.59978       99691.715       8572.5047       2.7225000       2.6092500     -0.16925000       341.83500       3.1357854    0.0079794916
       3746.0000       290.59964       99694.604       8501.8343       2.6902500       1.1850000     -0.19200000       341.66000       3.1428518    0.0095124454
       3751.0000       290.58612       99670.664       8436.5573       1.9577500       1.3842500     -0.26100000       341.22600       2.6951104    0.0079827922
       3756.0000       290.59744       99667.037       8405.4209       1.5320000      0.71100000     -0.23125000       341.09000       2.4211652    0.0081286404
       3761.0000       290.60559       99664.993       8379.3291       1.3270000       1.4067500     -0.10500000       341.23300       2.7240713    0.0081293537
       3766.0000       290.64775       99667.836       8396.0355       1.4555000       1.5110000     -0.19450000       341.11100       3.4584375    0.0081109307
       3771.0000       290.78681       99700.441       8523.8063       1.4057500       1.0462500    -0.087500010       341.39100       3.5294840    0.0083226106
       3776.0000       290.82312       99706.408       8556.3683       1.6327500       1.4185000    -0.075500000       341.29700       5.5483740     0.015159853
       3782.0000       290.81581       99687.970       8569.5158      0.47125000       1.8712500     -0.47950000       341.12100       3.2534212     0.010179603
       3787.0000       290.80799       99683.929       8557.9684      0.59475000       1.4960000     -0.12475000       341.10500       3.0152857    0.0075252886
       3792.0000       290.71088       99669.198       8448.7522      0.17375000      0.98850010     -0.25850000       341.46800       2.1897770    0.0074467583
       3797.0000       290.67795       99666.298       8411.7512     -0.30325000      0.93500010     -0.14750000       341.44200       2.1174621    0.0097120211
       3802.0000       290.68756       99684.419       8409.5904     0.033000000       1.1802500      0.33925000       342.25000       2.2862737    0.0073052302
       3807.0000       290.70142       99688.354       8407.8931      0.84000000      0.29000000      0.55250000       343.11400       3.0221977    0.0079683004
       3812.0000       290.72488       99688.453       8443.3139      0.87625000      0.36975000      0.16850000       341.85200       3.0902472     0.010156658
       3817.0000       290.75828       99685.296       8443.9534      0.15875000      0.80875000      0.15650000       342.80000       3.7977701     0.018005066
       3822.0000       290.83251       99669.317       8424.4868       1.2552500      0.92800000     -0.14425000       342.69200       2.2862003    0.0072289656
       3827.0000       290.86864       99667.877       8421.5253      0.91325000      0.92950000     0.077250000       342.01600       2.2310602    0.0070431750
       3832.0000       290.94612       99672.932       8423.4158      0.94275000      0.94000010      0.78400000       342.89300       3.3677394     0.014583288
       3837.0000       290.90712       99675.759       8401.8790      0.17775000       1.5675000      0.36925000       343.37900       3.1676065    0.0087087129
       3842.0000       290.78419       99694.067       8407.9702       1.8082500       1.3405000     -0.21900000       342.52500       3.5827815     0.012487409
       3847.0000       290.66293       99693.545       8352.5674       1.8507500       1.1827500     0.090750000       342.68700       2.5830802    0.0074050631
       3852.0000       290.40412       99671.032       8207.2587       2.3632500       2.4452500    -0.047250000       341.19500       4.4758177     0.010117782
       3857.0000       290.28065       99667.185       8133.4093       1.2862500       1.5242500     -0.28075000       341.17900       2.6676956     0.014046899
       3862.0000       290.20201       99662.490       8037.6455       1.4992500       2.0362500     -0.21300000       341.39100       2.5673517    0.0089198120
       3867.0000       290.16678       99663.323       8002.2342       1.4747500      0.62625000     -0.25200000       342.13500       2.5367333    0.0088391852
       3873.0000       290.22934       99687.643       8040.8732       1.3612500       1.2000000      0.10475000       342.55100       3.0694264     0.017657373
       3878.0000       290.26583       99688.809       8064.0914       1.2737500      0.98600010     -0.10000000       342.15200       3.3972485     0.010818524
       3883.0000       290.32993       99677.475       8106.7812      0.42225000       1.4730000    -0.051500000       343.24600       3.8647706     0.012873960
       3888.0000       290.38044       99672.833       8153.2544      0.65225010       2.0230000     -0.41275000       341.47400       5.2980759     0.010348660
       3893.0000       290.44227       99657.059       8230.8941     0.030250000       1.3157500     -0.23100000       343.18600       2.3156077     0.012455242
       3898.0000       290.47628       99657.666       8254.7514      0.38925000       1.3732500     -0.28150000       341.14200       2.7367293     0.010060830
       3903.0000       290.47649       99674.041       8243.4746     -0.37350000       1.2185000    -0.030250000       341.61500       3.9875048    0.0095521456
       3908.0000       290.52235       99678.417       8272.0129     -0.60925000       1.1735000      0.20525000       341.73900       3.2525306     0.011055380
       3913.0000       290.59403       99689.415       8292.4988     -0.47875000       2.6015000      0.14350000       341.65900       3.6105298     0.010980451
       3918.0000       290.61774       99686.493       8303.1691     -0.52200000       2.4977500     -0.46825000       341.07800       5.9873304     0.011588301
       3923.0000       290.65629       99664.672       8346.9221    -0.055500000       1.0790000     -0.39675000       341.09000       2.5969203    0.0079778494
       3928.0000       290.66416       99662.281       8362.4013     -0.20425000      0.56600000      0.44900000       342.30300       2.4784923    0.0095640867
       3933.0000       290.61177       99662.057       8338.8626     -0.46200000      0.82150010     -0.10800000       342.24100       3.1997207    0.0093304131
       3938.0000       290.58184       99665.501       8321.4504     -0.76350000      0.85125010    -0.063250010       341.37500       2.9493861     0.012525202
       3943.0000       290.56874       99687.820       8317.3837     -0.69500010      0.80425010     -0.38575000       341.05900       2.9897884    0.0090661717
       3948.0000       290.53268       99689.035       8292.3645      -1.0242500      0.89800010     -0.14950000       341.22800       2.9903245    0.0084628226
       3953.0000       290.44782       99678.555       8229.9770     -0.80425010      0.92475000     -0.59700000       341.22500       2.3100535    0.0087930254
       3958.0000       290.43032       99672.317       8198.9049     -0.94425000      0.52825000    -0.093250010       341.60900       2.0277475    0.0093075189
       3964.0000       290.44178       99651.199       8172.9715     -0.71650000      0.69825010     -0.20275000       341.52200       1.9584246    0.0071667044
       3969.0000       290.45065       99653.418       8155.0789     -0.83600000     0.081250000      0.22900000       341.28000       1.9879627    0.0070605239
       3974.0000       290.51122       99669.314       8145.3228     -0.53725000      0.58675000      0.12775000       341.55900       2.0385899     0.011467441
       3979.0000       290.50382       99674.338       8139.2049      0.68350010       1.4222500    -0.067500000       341.30700       1.9848235    0.0073198644
       3984.0000       290.47180       99689.735       8147.2700      0.37375000       1.4895000     -0.13900000       341.44200       2.4735223    0.0091190128
       3989.0000       290.41476       99686.758       8127.6947      0.26925000       1.2430000      0.10250000       342.61100       2.5805907    0.0072621970
       3994.0000       290.30456       99665.146       8098.9475     0.019750000      0.93150000     0.051750000       343.16500       4.7842012     0.010202099
       3999.0000       290.25352       99659.912       8076.0056      0.30900000       1.0737500     0.046250000       341.58800       3.7359748    0.0092866666
       4004.0000       290.18428       99651.041       8016.3361      0.23025000       1.9055000     0.037500000       342.72300       3.0141119    0.0080068543
       4009.0000       290.18117       99655.426       8029.2365      0.38275000       1.9235000     -0.13775000       342.62900       4.6457357     0.012629921
       4014.0000       290.25488       99675.261       8094.2591     0.011250000       2.3045000     -0.15525000       342.43800       2.7999005    0.0098661923
       4019.0000       290.25605       99680.574       8112.1261      0.30975000       1.6870000      0.15650000       342.16900       2.8760565     0.011575763
       4024.0000       290.26460       99689.037       8152.1969       1.2027500       2.4037500     -0.22425000       341.25700       3.7260399     0.013190512
       4029.0000       290.23687       99684.725       8156.7883       1.0255000       2.3447500     -0.11200000       341.87100       3.3540417     0.011885834
       4034.0000       290.15977       99663.428       8120.0771      0.93775000      0.57775000      0.28725000       343.36600       4.5927961     0.012121535
       4039.0000       290.11030       99661.960       8098.7078       1.2060000       2.0215000     -0.22775000       343.22500       4.2409145     0.010518513
       4044.0000       290.05076       99662.245       8078.8467       2.7347500       1.9602500     -0.15775000       342.66000       3.0494749    0.0089700911
       4050.0000       290.01461       99668.118       8050.5146       2.5105000       2.0262500      0.42125000       343.04600       2.9837786     0.012016121
       4055.0000       289.98690       99689.079       8006.7540      0.79550000       2.5447500      0.28625000       341.14500       3.7187406     0.011080476
       4060.0000       289.99974       99687.271       8008.0630      0.98925010       2.0197500     -0.30250000       341.57300       3.0837403     0.015205053
       4065.0000       290.05043       99674.750       8027.0600       1.0350000       2.3577500     -0.34300000       341.35500       4.8873425     0.011168804
       4070.0000       290.08510       99673.899       8072.7529      0.93075010       1.9315000     0.037500000       341.44200       3.4080789     0.011462800
       4075.0000       290.10674       99669.814       8102.1675      0.23325000      0.96650000      0.36350000       342.65700       2.9830240     0.013177006
       4080.0000       290.08513       99666.800       8099.7738     -0.29800000       1.0757500      0.38425000       343.65500       2.8966348     0.011088254
       4085.0000       290.09381       99669.647       8130.6830    -0.010750000       1.7930000      0.17575000       342.18500       3.2342826    0.0084638550
       4090.0000       290.11479       99673.717       8175.2155     -0.40275000       2.5947500    -0.072000000       341.48800       5.7588775     0.011621342
       4095.0000       290.15002       99676.012       8240.4202      0.91900000       2.9945000   -0.0047500000       343.01100       2.7812032     0.010201802
       4100.0000       290.17051       99674.006       8251.5032      0.69850000       3.8527500   -0.0097500000       342.50400       3.0113722     0.013437146
       4105.0000       290.20616       99677.563       8268.7788      0.69800000       2.4577500       1.0367500       342.60400       5.3738017     0.012751754
       4110.0000       290.19956       99660.063       8223.7198       1.3230000       4.3882500     -0.23950000       342.38500       2.7794150    0.0099455004
       4115.0000       290.19934       99652.387       8195.2708      0.36950000       4.4882500     -0.98350010       341.34800       3.1950554     0.013117597
       4120.0000       290.20001       99650.380       8207.0599     -0.50975000       4.2475000     -0.19050000       341.26400       2.6954012     0.011104739
       4125.0000       290.20001       99652.931       8188.4800      0.53600000       2.7102500      0.15175000       342.16000       2.8216659    0.0078154329
       4130.0000       290.18525       99672.308       8128.3700       1.5615000       4.0680000     -0.47525000       341.02100       3.1190520    0.0093934768
       4135.0000       290.19398       99677.776       8097.0726    -0.078500000       2.2382500      0.74975000       342.46400       2.2435461    0.0096889995
       4141.0000       290.21876       99682.039       8027.8248      0.21500000       1.3760000     0.096500000       342.39700       2.4910540    0.0076091767
       4146.0000       290.25020       99678.339       8029.7700     -0.10225000       1.6580000      0.17875000       342.24500       3.7718894    0.0078122871
       4151.0000       290.32329       99648.947       8129.1065      0.58375000      0.28550000      0.76175000       343.87200       2.2730336    0.0074886787
       4156.0000       290.36220       99640.630       8161.4608       1.1660000      0.58125000    -0.078500000       341.88200       2.7816133     0.010174869
       4161.0000       290.37616       99639.354       8182.1446       1.1522500      0.38450000     0.050500000       342.64200       2.8524297    0.0094386056
       4166.0000       290.40631       99643.048       8217.0202       1.6130000      0.63725000   -0.0012500000       342.02700       2.7363525    0.0079529931
       4171.0000       290.42027       99669.064       8204.5588       1.8647500      0.93850000      0.12500000       341.35900       2.6299704    0.0074377362
       4176.0000       290.45150       99679.456       8225.5846       1.5687500      0.54275000     -0.31625000       342.13500       2.8487751    0.0073571977
       4181.0000       290.49500       99688.486       8293.1058       2.7225000      0.67700000     -0.34975000       341.19400       3.4113048    0.0083983166
       4186.0000       290.55670       99688.648       8353.5980       1.8567500      0.30225000     -0.19550000       341.30600       3.5393318    0.0086845951
       4191.0000       290.62978       99671.196       8374.0679       1.2862500      0.80250000      0.61600010       342.97400       4.0061006    0.0086264996
       4196.0000       290.71140       99663.356       8469.4167       1.0470000       1.4360000    -0.081750010       341.23300       4.1951366    0.0089710322
       4201.0000       290.85062       99648.851       8652.8131      0.95650010      0.77250000    -0.011250000       341.87200       5.3999253     0.010435909
       4206.0000       290.92894       99646.512       8783.2650      0.36025000      0.86125000     0.020250000       342.12500       3.1901911     0.012397541
       4211.0000       290.96703       99660.566       9000.6530      0.11250000      0.43900000      0.49600000       343.80900       5.6607680     0.012863767
       4216.0000       291.01528       99666.492       9086.4134      0.49100000       1.4735000      0.37275000       342.09700       4.5571188     0.012569696
       4221.0000       291.04823       99681.840       9041.7294     -0.17125000       1.5667500     -0.29800000       342.11800       3.3284403     0.010135793
       4226.0000       291.05698       99684.210       9019.3796       1.3147500       2.5022500     -0.22500000       341.32000       2.4946996     0.015080175
       4232.0000       291.07196       99671.795       8898.4307       1.5725000       1.6590000     0.084500010       341.97000       3.0829097     0.013119867
       4237.0000       291.05441       99662.952       8837.3370       1.7315000       2.0175000      0.23875000       341.10600       3.1940655     0.014778423
       4242.0000       290.95526       99641.972       8780.1489       1.1530000       1.1532500    -0.091500010       341.23100       3.8307983    0.0081829519
       4247.0000       290.93283       99635.884       8765.7997       1.3902500       1.2780000     0.071750000       341.52400       2.7053902     0.014287176
       4252.0000       290.98261       99635.267       8816.6533       1.4702500       1.5397500      0.18375000       342.03600       3.0771891    0.0088565791
       4257.0000       290.94567       99640.138       8801.8562      0.32300000       2.7787500     -0.63500010       342.54400       2.5722118     0.013719073
       4262.0000       290.89390       99660.763       8807.1998      0.83175000       2.8592500     -0.38075000       341.66800       4.0408754    0.0083425654
       4267.0000       290.83696       99669.931       8760.6961      0.55125000       2.4720000     -0.17750000       342.07900       2.9088290     0.012704746
       4272.0000       290.69087       99681.515       8636.3973      0.47200000       2.9987500      0.44375000       342.03800       4.5426236    0.0098880107
       4277.0000       290.60862       99683.537       8533.6517      0.29000000       2.7360000    -0.098750000       342.44700       2.9534131     0.014655892
       4282.0000       290.54146       99673.836       8384.0635      0.15550000       1.6922500      0.41850000       342.42700       3.9893836    0.0075929854
       4287.0000       290.53275       99668.362       8314.5208     -0.78550000       1.9682500      0.47500000       342.65500       2.8871504    0.0096615317
       4292.0000       290.59501       99653.414       8273.2821      0.42725000       1.9445000      0.47175000       342.69100       3.5514700    0.0087477276
       4297.0000       290.60517       99652.219       8248.8542    -0.040500000       1.3335000      0.39225000       342.93300       2.6285911    0.0078142801
       4302.0000       290.66518       99662.264       8298.6718      0.80250000       2.1247500    -0.093250010       342.70100       3.1744807    0.0070045420
       4307.0000       290.66350       99666.618       8314.2630       1.4315000       1.7400000      0.26200000       342.84700       2.8378973     0.012185605
       4312.0000       290.55437       99678.761       8310.0939       1.3045000       1.7690000    -0.095250000       342.46100       3.2080266     0.010131686
       4317.0000       290.53199       99683.633       8326.5048       1.1265000       2.7632500     -0.40325000       341.63600       2.4759051     0.012441989
       4323.0000       290.58912       99682.748       8389.6747     -0.45175000       3.2202500     -0.33000000       342.14500       2.4373842    0.0095439108
       4328.0000       290.53015       99679.533       8376.9381     -0.27250000       1.3157500      0.91475000       343.04700       2.7417300     0.011385373
       4333.0000       290.40970       99675.299       8315.6898      0.62275000       2.0080000     0.075250010       342.54300       3.4865856    0.0085565351
       4338.0000       290.37629       99666.459       8308.8186      0.40675000       1.6527500     -0.68225000       341.91500       2.8505968    0.0080556734
       4343.0000       290.29890       99645.189       8288.7551      0.83400010       1.6380000    -0.014250000       342.58400       4.5098274     0.012088316
       4348.0000       290.26710       99639.580       8269.5817      0.87100010       2.1250000    -0.079250000       342.34800       2.1468948     0.012326334
       4353.0000       290.34563       99635.665       8293.7868       1.1647500       2.2842500      0.20850000       343.26100       2.6433760    0.0087577541
       4358.0000       290.36927       99640.435       8296.7144       1.9995000      0.52525000      0.28300000       342.64600       3.6446148    0.0087802028
       4363.0000       290.33051       99661.471       8240.0818      0.61150000       2.6555000     -0.88575010       341.68500       4.2878506    0.0091515535
       4368.0000       290.35356       99671.892       8256.4088      0.60050000       2.1777500      0.20675000       343.03900       3.2590814     0.010700310
       4373.0000       290.42988       99687.391       8330.9341       2.0995000       1.7875000      0.76275000       342.47000       2.3040637     0.011377205
       4378.0000       290.48011       99688.585       8377.0671       2.2415000       1.8070000     -0.35825000       341.78100       2.8919755    0.0083857183
       4383.0000       290.57595       99678.482       8453.7684       1.4090000       2.0505000     -0.33350000       341.56400       3.1867888    0.0088281794
       4388.0000       290.56149       99672.252       8481.5362      0.91475000       1.8827500     -0.25050000       341.51700       3.1204112    0.0083922203
       4393.0000       290.48344       99658.495       8488.8910      0.44525000       1.6245000     -0.46725000       342.10800       2.2287119     0.011090282
       4398.0000       290.42098       99649.211       8472.8190      0.38700000       3.2102500     -0.46400000       341.69200       4.5813091     0.024610806
       4403.0000       290.26080       99636.461       8402.9400      0.71575000       2.1717500     -0.33850000       341.71400       3.1990567    0.0087903836
       4408.0000       290.19965       99639.173       8380.8576       1.5130000       2.1240000     -0.59725000       342.33800       5.0120267    0.0099407339
       4414.0000       290.21583       99652.209       8372.0442     -0.38025000       1.8010000      0.25675000       343.14700       3.0725953    0.0086929294
       4419.0000       290.16668       99660.068       8331.5025       1.5947500       2.4930000     -0.24700000       342.83000       3.2429742    0.0083222443
       4424.0000       290.10850       99681.586       8299.9708      0.61275010       2.8652500     -0.44900000       342.05000       3.0957094     0.012451085
       4429.0000       290.06857       99687.290       8252.2305       1.1572500       3.5250000     -0.28750000       341.31600       2.9796288     0.014809747
       4434.0000       289.99359       99682.992       8153.2892       1.4295000       3.0092500      0.36175000       341.86200       2.9997159    0.0099686382
       4439.0000       289.97083       99677.445       8110.0627       1.3767500       2.4827500     0.048500000       342.42900       2.5508421    0.0090673223
       4444.0000       289.99973       99668.298       8099.9172       1.2555000       2.4660000    -0.091500010       342.45200       4.0090064     0.010298027
       4449.0000       289.99962       99658.598       8073.2175       1.1487500       2.8080000     -0.44300000       341.81500       2.5698339     0.015342436
       4454.0000       289.97207       99638.536       8029.0051     -0.27200000       3.4210000      0.16925000       341.98600       2.8425829    0.0085875541
       4459.0000       290.02917       99634.989       8057.3988    -0.085250010       5.0332500      0.71075000       342.29800       2.9256942     0.014191001
       4464.0000       290.15536       99636.488       8127.9577       1.2577500       3.2452500     -0.32550000       341.84300       2.7431621    0.0074953908
       4469.0000       290.17762       99644.002       8163.0671       1.3290000       3.3675000    -0.040000000       342.23500       3.2763079     0.010469934
       4474.0000       290.21659       99665.033       8241.6338       2.0907500       3.1722500     0.066000000       342.80000       3.0966624    0.0082786009
       4479.0000       290.21060       99673.284       8277.4825      0.39375000       2.1440000      0.84000000       342.43300       3.2424134    0.0093974386
       4484.0000       290.09415       99682.829       8260.9353       1.5130000       5.5525000      -1.2565000       341.85900       3.0256311     0.014142165
       4489.0000       290.07212       99682.358       8273.6749       1.6755000       4.7205000     -0.20925000       341.98400       3.8681724     0.013029750
       4494.0000       290.10021       99673.892       8310.6470       1.2777500       4.6890000     -0.41525000       341.88400       2.8494552    0.0090854891
       4499.0000       290.10014       99664.334       8313.0342      0.89125000       3.5900000     -0.45275000       342.11500       2.7626337    0.0085914521
       4505.0000       290.09380       99644.490       8287.1601       1.4955000       4.3457500     -0.54850000       342.61200       2.7321871    0.0075941346
       4510.0000       290.11536       99636.719       8282.7790       1.0997500       3.3390000      0.21825000       342.44500       2.8283618    0.0088914244
       4515.0000       290.15561       99626.674       8275.4469      0.24325000       3.1495000     0.091000010       342.82600       3.3507510     0.012038039
       4520.0000       290.12448       99636.391       8253.8390      0.45250000       2.1285000     -0.61500000       341.70400       2.9022077     0.017983259
       4525.0000       290.14270       99644.132       8258.2873       2.2700000       3.4217500     -0.42800000       342.47400       2.5697840    0.0092256000
       4530.0000       290.17492       99662.001       8277.3077       1.6160000       2.4065000     0.086250010       342.25300       2.8435721    0.0083151940
       4535.0000       290.19345       99672.315       8293.8751       1.4972500       2.8900000    -0.040500000       342.28900       3.2005689    0.0094963982
       4540.0000       290.22426       99678.922       8319.7506       1.1822500       1.7742500      0.67800000       343.12800       2.4920317    0.0083224462
       4545.0000       290.29953       99682.843       8371.5817      0.85850010       2.4177500     -0.74050000       342.51100       2.5654381    0.0083633489
       4550.0000       290.35967       99680.225       8407.8008       1.0507500       3.6127500      0.14950000       342.26800       2.5253948     0.010497760
       4555.0000       290.37668       99672.062       8432.3012     0.054250000       2.4025000      0.63475000       342.32800       2.2186721    0.0098238050
       4560.0000       290.57847       99655.603       8470.8000     -0.19100000       3.9272500     -0.47625000       342.47200       2.7486468    0.0098909879
       4565.0000       290.71111       99644.365       8524.9418      0.37875000       3.0875000      0.80250000       342.82200       2.2345511    0.0074387784
       4570.0000       290.90174       99627.069       8603.2556       1.7362500       5.7185000      -1.5802500       341.61600       2.0648158     0.010453245
       4575.0000       290.98754       99621.445       8667.8440      0.84725000       3.4452500     -0.14750000       341.92000       2.0281760     0.012430052
       4580.0000       290.92481       99629.316       8768.4985      0.75650010       1.9897500     -0.10200000       342.60000       2.0469502    0.0082098771
       4585.0000       290.90615       99634.008       8819.8286       1.3095000       4.4635000     -0.81700000       342.02600       2.0226884    0.0087498369
       4590.0000       290.87520       99641.130       8840.9293       1.3750000       4.6595000      -1.1675000       341.94200       1.9764962    0.0080857797
       4596.0000       290.77565       99657.546       8827.6924      0.83150010       5.2982500     -0.29625000       341.94800       1.9975775    0.0088499471
       4601.0000       290.88199       99665.985       8798.4094       1.2145000       4.3102500     -0.41175000       341.67200       1.9543205    0.0074888236
       4606.0000       290.91095       99671.874       8757.2398      0.48375000       2.9390000     -0.83200000       341.34700       2.0244298     0.011489625
       4611.0000       290.94648       99681.311       8694.0359      0.69025000       2.3082500      0.35850000       342.56600       1.9699251    0.0073690121
       4616.0000       290.96450       99682.953       8641.9093     0.094000000       4.2105000     -0.32425000       341.80900       1.9851551    0.0073789867
       4621.0000       290.90969       99677.571       8574.7417      0.51400000       3.5520000     -0.19750000       341.68500       1.9851399    0.0088410585
       4626.0000       290.89121       99670.174       8518.0225       1.1767500       2.2822500     -0.19625000       342.20700       1.9878997    0.0081129490
       4631.0000       290.89964       99653.674       8465.4668      0.63650000       4.6940000     -0.63800000       341.37000       2.0454816    0.0093579780
       4636.0000       290.89937       99642.808       8430.0975      -1.2140000       3.4245000     -0.13550000       342.64400       1.9558911    0.0077155887
       4641.0000       290.91386       99625.847       8405.8706      -1.2930000       2.2580000      0.59150000       342.19000       1.9825893    0.0073478952
       4646.0000       290.90244       99621.700       8382.9593     -0.46825000       2.1077500     -0.34075000       342.28800       2.0252563    0.0084238213
       4651.0000       290.92178       99630.197       8409.3689      0.46325000       3.3300000      0.18600000       342.35900       2.0099821    0.0082365964
       4656.0000       290.85718       99635.455       8378.6394      0.81325010       2.8560000      0.13075000       342.92600       1.9961950    0.0089934298
       4661.0000       290.68657       99655.199       8302.5196       1.6700000       1.8820000      0.14375000       342.86700       1.9569281    0.0089709717
       4666.0000       290.57742       99659.348       8241.5401     -0.15175000       3.1910000      0.65050010       342.72900       1.9579893    0.0075663262
       4671.0000       290.39118       99644.897       8098.5446     -0.42025000       3.3105000     -0.61500000       342.69100       1.9338999    0.0068744830
       4676.0000       290.30789       99644.166       8061.5058      0.51175000       4.0052500     -0.38625000       341.45500       1.9986711     0.010812266
       4681.0000       290.29871       99640.136       8107.8954      0.12525000       3.8247500     -0.53825000       342.12700       1.9920028    0.0095158341
       4687.0000       290.34711       99644.046       8143.4689      0.88325010       3.8040000     -0.51475000       341.51100       1.9921527     0.010451780
       4692.0000       290.46974       99670.252       8237.0175     -0.81425010       3.6382500    -0.021500000       342.68300       1.9572470    0.0071712240
       4697.0000       290.58777       99675.167       8302.3436      0.57000010       4.3497500      0.26475000       342.69000       2.0040841     0.010394213
       4702.0000       290.77555       99671.557       8309.3264     0.083500010       3.5982500     -0.15125000       341.99500       2.0125568     0.010637613
       4707.0000       290.91255       99664.754       8392.2577   0.00050000000       3.4370000     0.021500000       342.36100       2.0291445     0.012793217
       4712.0000       291.04869       99639.079       8533.7247      0.66225000       1.8342500      0.49225000       343.54100       1.9833519    0.0093725160
       4717.0000       291.15038       99629.673       8658.3043      0.94325010       2.6867500      0.15325000       343.12000       1.9612460    0.0068354011
       4722.0000       291.24185       99625.588       8887.8639       1.4377500       3.8460000     -0.38925000       342.37500       1.9827406    0.0071771009
       4727.0000       291.28055       99622.831       8965.1844     0.068250000       3.9637500   -0.0097500000       342.40800       1.9865884    0.0098094652
       4732.0000       291.24397       99625.896       8952.4852      0.52575000       2.7062500      0.23775000       342.45000       1.9519540    0.0071173675
       4737.0000       291.25420       99631.708       8938.4669      0.13025000       4.7210000      0.26100000       342.20200       1.9455916    0.0068922608
       4742.0000       291.25644       99639.439       8825.9929      0.25475000       3.9157500     -0.89950010       341.43400       2.0415987     0.012472842
       4747.0000       291.24659       99648.287       8745.1887     -0.66825000       2.7380000     -0.32375000       341.69100       2.0038131     0.010271107
       4752.0000       291.23133       99669.157       8637.3859     -0.19300000       2.8787500      0.54025000       342.07200       1.9879935    0.0082910368
       4757.0000       291.25503       99675.177       8602.4604     -0.17700000       1.0095000      0.60750000       342.77000       1.9920671    0.0098404034
       4762.0000       291.25505       99671.708       8577.8139       1.7655000       5.1210000     -0.69125000       341.67100       1.9525213    0.0090554809
       4767.0000       291.30578       99670.999       8592.6887      0.72750000       4.3037500     -0.89100000       341.66700       2.0055986    0.0086078888
       4773.0000       291.51552       99661.645       8754.3386      0.45575000       3.4987500     -0.84350000       341.93100       1.9903504    0.0080195098
       4778.0000       291.53382       99657.256       8771.5790      0.43600000       3.5770000      0.93825010       343.00400       2.0300507     0.010857187
       4783.0000       291.53822       99658.348       8773.2050      0.65875010       5.1627500     -0.83250000       341.57200       2.0053497    0.0080020272
       4788.0000       291.40805       99653.110       8693.3685     -0.38475000       1.9940000     -0.50150000       341.96200       1.9882503    0.0090544973
       4793.0000       291.04571       99642.808       8480.0275     -0.69550000       4.5525000     -0.42925000       341.94100       1.9999138    0.0075403532
       4798.0000       290.88358       99635.805       8369.2048     -0.72050010       3.1855000     -0.52975000       342.04900       2.0180229    0.0079270247
       4803.0000       290.69280       99625.150       8235.6571      0.20050000       2.2450000      0.68750010       342.66500       1.9873794     0.010726486
       4808.0000       290.62696       99622.053       8166.5979     -0.85050000       2.6435000     -0.48600000       342.14500       2.0055169     0.012228483
       4813.0000       290.73007       99622.360       8165.1585      0.89725010       3.2132500     -0.12950000       341.93600       1.9685106    0.0076845595
       4818.0000       290.76701       99626.425       8156.3393      0.53200000       2.8735000      0.13275000       342.80000       1.9867369    0.0095831406
       4823.0000       290.84060       99637.621       8171.0163       1.5362500       3.8010000     -0.51225000       341.78100       1.9409286    0.0069740362
       4828.0000       290.87426       99644.700       8179.8884       1.2727500       2.1237500     -0.86575000       342.39200       1.9706908    0.0090672804
       4833.0000       290.89963       99654.418       8212.9112     0.028500000       1.8022500      0.44075000       342.51500       2.0069744     0.010069953
       4838.0000       290.91358       99659.220       8220.6099     -0.39825000       1.8187500      0.25200000       342.51500       2.0475276     0.012266390
       4843.0000       290.91180       99660.394       8214.8192      0.78825000       1.8930000      -1.2015000       342.15300       2.0149849     0.010371115
       4848.0000       290.89593       99661.840       8211.8333      0.95600000       2.4205000     0.073500000       342.39100       1.9622787    0.0066064848
       4853.0000       290.84689       99660.304       8181.9375      0.60900000       2.0582500      0.18250000       342.38500       1.9533490    0.0070901263
       4858.0000       290.84311       99660.276       8198.5564       1.5072500       2.3225000     -0.88100000       341.76500       2.0168558     0.012547784
       4864.0000       290.87127       99660.474       8258.5250      0.67425000       3.0047500     -0.24250000       342.51200       2.0316019    0.0094545043
       4869.0000       290.82380       99660.533       8270.5313      0.90125010       3.8830000     -0.23825000       341.30100       1.9798859     0.010561000
       4874.0000       290.76492       99661.184       8294.3547      0.33375000       2.4705000      0.74950000       342.74800       1.9765331    0.0070559266
       4879.0000       290.71626       99659.317       8294.6736      0.40100000       3.1090000     -0.19550000       342.24700       1.9996140    0.0090820903
       4884.0000       290.59007       99657.344       8245.5597      0.40175000       1.9472500      0.18175000       342.52100       1.9838498     0.010160011
       4889.0000       290.55578       99651.590       8241.0798       2.0200000       2.0277500     -0.33800000       342.19500       1.9864664    0.0082312204
       4894.0000       290.59151       99641.784       8263.4551       1.0892500       3.0065000    -0.027000000       342.27500       1.9502768    0.0078033700
       4899.0000       290.61033       99634.897       8262.8593       1.0455000       2.3022500      0.50225000       342.95700       1.9550774    0.0081882630
       4904.0000       290.66361       99624.413       8276.0284     0.050750000       1.9867500      0.51500000       343.29500       1.9342753    0.0078398166
       4909.0000       290.64559       99622.170       8240.8424      0.74450000       1.2800000      0.20225000       343.16600       2.0529330     0.011341593
       4914.0000       290.61056       99624.794       8170.3392      0.60475000       2.2082500     -0.74025010       342.36900       2.0170488     0.011269636
       4919.0000       290.58170       99625.723       8126.1328      0.92600010       1.5092500      0.96725000       342.34500       1.9830808    0.0076717421
       4924.0000       290.47580       99628.661       8045.2387      0.51800000       3.1300000     -0.21450000       342.43800       1.9672040    0.0099158761
       4929.0000       290.49072       99633.468       8037.5691      0.39750000       3.3540000     -0.11800000       341.47100       1.9839300    0.0077091221
       4934.0000       290.58371       99638.799       8075.5289       1.1867500       2.9250000     -0.44750000       341.93700       1.9322493    0.0061435306
       4939.0000       290.64214       99644.696       8108.2418       1.2287500       3.4360000     -0.24600000       341.31600       2.0357494     0.012629821
       4944.0000       290.72416       99655.518       8148.0862       2.1862500       2.0852500    -0.049750000       342.64700       2.0406819     0.012341918
       4949.0000       290.82186       99659.765       8252.4282       1.6222500       1.2240000      0.73925010       341.91100       1.9577359    0.0070416295
       4955.0000       290.96115       99661.182       8427.7490      0.90600000       2.3437500     -0.40075000       341.48200       2.0014265     0.010532711
       4960.0000       291.00941       99662.140       8552.7566     0.010500000       1.8740000      0.28900000       342.27500       1.9823130    0.0063706931
       4965.0000       291.09757       99660.319       8766.7673   -0.0095000010       2.2567500     -0.58750000       341.49300       1.9780347    0.0078450055
       4970.0000       290.87733       99660.277       8695.9221     -0.54450010       2.9287500    -0.055500000       341.50500       1.9875615    0.0097259336
       4975.0000       290.74592       99660.277       8629.5301     -0.30950000       1.7950000     -0.77625010       341.63200       2.0174059    0.0087911988
       4980.0000       290.52891       99664.823       8391.7037    -0.011000000       1.7807500      0.12925000       341.97800       1.9987280    0.0085651141
       4985.0000       290.41277       99662.230       8267.2341      0.50475000       2.2187500     -0.23375000       342.15500       1.9549654    0.0083660770
       4990.0000       290.37049       99655.958       8192.7538      0.81925000       2.2050000    -0.030500000       341.33400       2.0132217     0.010960404
       4995.0000       290.44317       99644.223       8174.4673      0.65100000       1.2915000    -0.094500010       341.36400       1.9910237    0.0071784336
       5000.0000       290.45488       99642.437       8133.3449      0.97850010       1.3752500     0.019750000       342.38900       1.9871689    0.0079673464
       5005.0000       290.50535       99639.689       8145.7667      0.50875000       1.6962500     -0.13475000       341.67500       1.9261412    0.0074251187
       5010.0000       290.51454       99642.586       8074.9736      0.76850000       1.2715000     0.015500000       343.24600       1.9675577    0.0086336005
       5015.0000       290.50577       99641.927       8022.2532       1.1927500      0.93425010      0.14250000       342.76900       1.9508916    0.0070488319
       5020.0000       290.46992       99630.247       7985.8825       1.9507500       1.1122500     -0.28000000       342.28800       2.0077545     0.012835812
       5025.0000       290.45012       99624.086       7942.3424       2.1812500      0.90650000     -0.22725000       341.15400       1.9806863    0.0076211650
       5030.0000       290.41497       99621.747       7884.8366       1.6590000       1.0515000     0.085750010       341.47600       2.0219364     0.010600969
       5035.0000       290.39381       99619.607       7851.9643       2.1672500       1.3280000     -0.12875000       341.19900       2.0199376     0.012721273
       5040.0000       290.38494       99618.689       7830.1358       2.9717500       1.9392500     -0.46200000       341.25700       2.0356700     0.013789293
       5046.0000       290.40011       99620.043       7806.9327       2.5097500       2.7210000      0.63325010       341.77500       1.9984660    0.0094803411
       5051.0000       290.35803       99620.775       7802.0726       2.1042500       1.6387500     -0.37750000       341.36500       2.0034138    0.0078424446
       5056.0000       290.39213       99625.034       7852.7644       1.2060000       1.1455000     -0.27475000       341.44100       1.9920334    0.0097646972
       5061.0000       290.50408       99636.167       7994.4199       1.0860000      0.28325000    -0.051750000       341.41900       1.9557889    0.0071323761
       5066.0000       290.56487       99642.126       8064.8484      0.59825000    -0.070000000     -0.25925000       341.76200       1.9766310    0.0069780090
       5071.0000       290.67128       99648.323       8139.0518      0.22700000     -0.14375000     -0.24875000       341.81900       2.0409116     0.014955467
       5076.0000       290.72690       99651.980       8203.7011     0.032000000       1.7957500      0.30425000       342.70400       2.0030133    0.0079383166
       5081.0000       290.70013       99648.917       8204.9427      0.16275000       1.9020000     -0.45175000       341.87400       2.0306835     0.011135388
       5086.0000       290.70013       99650.089       8221.7998       1.0577500      0.89175000      0.41450000       342.56400       1.9924990     0.010019021
       5091.0000       290.71346       99653.563       8271.4566      0.27400000       1.0497500     0.095250000       342.94000       2.0051575    0.0080405541
       5096.0000       290.70171       99655.502       8292.9261       1.8547500       2.0117500     -0.34375000       342.55000       1.9652936    0.0070125911
       5101.0000       290.63699       99659.387       8257.2732       1.2127500       1.0807500      0.22875000       343.42600       2.0261985     0.010324731
       5106.0000       290.63900       99661.300       8270.9475       2.4647500       1.4562500      0.19100000       342.83300       2.0475486     0.012420923
       5111.0000       290.66333       99661.887       8304.8147     -0.22900000       2.6950000      0.17175000       342.88500       1.9654949    0.0078071780
       5116.0000       290.69550       99660.804       8344.5389      -1.2012500       3.2230000      0.64375000       343.12600       2.0072231     0.014511676
       5121.0000       290.81443       99656.877       8459.8555      0.19825000       3.8385000    -0.042500000       341.73200       2.0009143     0.010072258
       5126.0000       290.87159       99654.901       8497.1106      0.43900000       2.4565000     -0.41125000       342.01900       2.0330314    0.0098492455
       5131.0000       290.89000       99651.264       8490.3629      0.88225010       3.1885000     -0.60925000       341.43600       2.0003700    0.0088410491
       5137.0000       290.91084       99649.183       8475.4832      0.56900000       1.1392500     -0.15525000       342.23400       2.0479373     0.010528732
       5142.0000       290.89975       99652.829       8395.1318      0.54300000       2.3900000      0.13325000       342.09300       2.0292932     0.010659089
       5147.0000       290.89959       99650.063       8359.4950    0.0022500000       2.4677500      0.15725000       342.49400       1.9959699    0.0090275577
       5152.0000       290.91290       99642.432       8355.2380     -0.36675000       2.4335000    -0.044750000       341.25800       2.0246274    0.0095934712
       5157.0000       290.89932       99638.367       8328.3130      0.58050000       2.2962500     -0.42625000       341.11900       2.0260625    0.0082695429
       5162.0000       290.87471       99632.534       8294.6146      0.34775000       1.1617500     -0.48475000       341.24800       2.0150057    0.0067442419
       5167.0000       290.84104       99627.888       8271.3808     -0.75250010     0.091250000    -0.021000000       341.40400       1.9658289    0.0067274386
       5172.0000       290.80782       99629.316       8255.8559     -0.84575000      0.30975000     -0.16025000       341.46200       1.9334270    0.0071463848
       5177.0000       290.72977       99624.526       8217.0048     0.075750000     -0.23900000    -0.096000000       341.24400       1.9925388    0.0087252821
       5182.0000       290.59115       99610.732       8181.2019     -0.19375000      0.10325000      0.18900000       342.02400       2.0254606     0.011441522
       5187.0000       290.51460       99607.911       8131.3320     -0.25300000       1.6655000     -0.29050000       341.70500       1.9966010    0.0074238694
       5192.0000       290.41414       99608.993       8016.6686     -0.18150000       1.2932500     -0.21675000       341.93900       1.9420489    0.0084317768
       5197.0000       290.36482       99609.722       7980.9247       1.0192500       1.6430000    -0.073500000       341.54600       1.9879411    0.0069951011
       5202.0000       290.36104       99619.269       7972.0102      0.76400010       1.1662500     -0.16125000       341.85900       1.9773762    0.0077912237
       5207.0000       290.40214       99622.473       7993.3021      0.17500000       1.2337500      0.18075000       342.47000       2.0009288    0.0082933246
       5212.0000       290.53937       99620.380       8101.5757      0.48300000      0.60025000     0.071250010       342.46500       2.0082843    0.0069482205
       5217.0000       290.57147       99620.421       8148.3673      0.56450000       1.0302500      0.19450000       343.79300       2.0151604    0.0094594211
       5222.0000       290.59708       99620.236       8190.2717     0.026000000      0.64500000     0.059250000       342.45200       2.0241141     0.011535596
       5228.0000       290.62060       99620.185       8223.4214     0.016000000       1.1202500      0.23800000       341.78800       1.9819167    0.0068753920
       5233.0000       290.55539       99619.225       8204.3545     -0.41775000      0.91100010      0.44350000       342.69500       1.9623932    0.0072069319
       5238.0000       290.53130       99620.915       8224.8334      -1.1732500       2.5835000     -0.49975000       341.30000       1.9994005    0.0090929229
       5243.0000       290.56817       99624.737       8287.8357     -0.95900010       2.0967500     0.056750000       342.43200       1.9984400    0.0073208786
       5248.0000       290.54609       99626.800       8285.3659      -1.4922500       1.5787500     -0.23475000       341.49100       2.0128883    0.0087962379
       5253.0000       290.48062       99627.867       8283.4261     -0.58300000       1.7797500     0.060500000       341.22500       1.9550238    0.0072292160
       5258.0000       290.41479       99632.439       8224.9296     -0.51450000       1.9455000     -0.18100000       341.69200       1.9759533    0.0076731860
       5263.0000       290.31819       99642.102       8067.2547     -0.49950000       1.1937500     0.052250000       341.69400       1.9591183    0.0076726042
       5268.0000       290.26440       99641.187       7998.1268     -0.82900010       1.5257500    -0.021750000       342.75100       1.9708707    0.0081638159
       5273.0000       290.19129       99636.367       7915.4309      0.17500000       1.9815000     -0.36400000       341.86900       2.0535537     0.015215837
       5278.0000       290.18024       99634.797       7900.5670      0.14525000       2.5130000     -0.20600000       341.38600       1.9142197    0.0066177440
       5283.0000       290.24257       99624.546       7975.1663      0.49700000      0.92225000     -0.10875000       341.27700       2.0008355     0.010192273
       5288.0000       290.26251       99622.345       7994.2629    -0.085500000      0.16200000     -0.22775000       341.37500       1.9971287    0.0076457937
       5293.0000       290.29941       99628.037       8036.0134     -0.20875000    0.0042500000     -0.14150000       342.27200       2.0556529     0.013353669
       5298.0000       290.31288       99632.635       8033.7618    -0.028000000     -0.31400000      0.19375000       341.38700       1.9759676    0.0094601098
       5303.0000       290.29975       99638.663       7972.9408      0.11650000    -0.070000000     -0.15000000       341.51200       1.9753332    0.0095548530
       5308.0000       290.29981       99642.633       7966.8543      0.25850000     -0.50175010      0.15000000       342.85300       2.0058247    0.0090054243
       5314.0000       290.29073       99650.672       7952.1852      0.21850000     -0.33425000   -0.0097500000       342.75200       2.0226975    0.0088163485
       5319.0000       290.30982       99652.817       7991.6073     -0.20150000     -0.37975000      0.36050000       342.82100       1.9312620    0.0071463490
       5324.0000       290.36394       99650.473       8116.6699      0.53250000     -0.68200000      0.50250000       341.79900       1.9717071    0.0070241411
       5329.0000       290.34659       99650.532       8114.5180      0.71975000     -0.44475000      0.25350000       341.60000       2.0048066     0.011001229
       5334.0000       290.31024       99650.356       8081.6223      0.27425000     0.057750000      0.43100000       343.12000       1.9870009    0.0070344003
       5339.0000       290.28179       99650.369       8045.3012     -0.35500000      0.50500000      0.13825000       342.51200       1.9847831    0.0090573661
       5344.0000       290.19401       99650.277       7921.6496      -1.1325000      0.90375010     -0.47800000       341.81700       1.9746940    0.0084729049
       5349.0000       290.17167       99650.277       7879.6548     -0.55050000      0.81700000     -0.14825000       341.82800       1.9934125    0.0087742836
       5354.0000       290.19981       99650.245       7890.2715     -0.62400000       1.5265000     0.028000000       341.88500       1.9640057    0.0082376224
       5359.0000       290.19969       99650.245       7866.5133     -0.10250000       1.4660000     -0.15975000       342.46700       1.9573321    0.0082172017
       5364.0000       290.19165       99650.473       7828.2490     -0.98950000       2.8172500     0.040250000       341.77500       1.9507131    0.0065113496
       5369.0000       290.21086       99650.533       7828.9500      -1.8642500       1.8527500      -1.0607500       341.77400       1.9878032    0.0084954989
       5374.0000       290.26430       99650.277       7853.6037     -0.76275000      0.78950010     -0.24825000       342.52700       2.0277043    0.0098726154
       5379.0000       290.24681       99650.277       7846.0402      -1.3595000       2.8097500     -0.16200000       342.21400       1.9493302    0.0078692357
       5384.0000       290.21121       99650.308       7853.1477     -0.47525000       2.3852500      0.36250000       343.04400       1.9500279    0.0079215370
       5389.0000       290.18276       99650.308       7839.5901     -0.37950000       1.8235000   -0.0067500000       342.90800       1.9815060    0.0088286520
       5394.0000       290.09470       99650.277       7788.2233     -0.36075000       2.6602500    0.0057500000       342.90800       1.9517792    0.0080721645
       5399.0000       290.07228       99650.277       7762.2773     -0.83850000       2.3015000    -0.058750000       341.14000       2.0128888     0.012463282
       5405.0000       290.08036       99650.245       7737.5546     -0.79650000       1.9877500     -0.12975000       341.25900       1.9273106    0.0066759558
       5410.0000       290.14497       99650.245       7747.3824     -0.60000000       1.1702500    -0.025250000       341.63400       1.9692602    0.0077185125
       5415.0000       290.25045       99650.485       7765.7721     -0.44600000       1.4082500     0.031500000       342.15000       1.9424225    0.0070256990
       5420.0000       290.34002       99650.277       7789.3141     -0.28975000      0.86375000      0.27725000       341.88500       1.9625000    0.0084073687
