MIRICO/SHELL project - Processed LDS file generated on
Thu Jul 06 05:24:54 2017
Time stamp for record start
05/10/2017  13:24:10.0000
Nb of points in the record
        1073
Beam position index
       3.0000000
Beam angle (degrees)
     -0.92900000
Open Path length (m)
       44.550000
****************** Temporal data record ************************
Elapsedtime_sec Temp_K Press_Pa Humidity_ppmv WindX_m/s WindY_m/s WindZ_m/s Speedofsound_m/s CH4vmr_ppmv CH4vmrerror_ppmv  
      0.00000000       289.12534       99791.169       7619.4382       3.1815000       1.6215000     -0.12250000       342.10000       1.9214052     0.010141399
       5.0000131       289.18384       99801.528       7647.3029       2.5805000       2.6475000      0.10850000       341.39700       1.9818000    0.0093558684
       9.9999860       289.08634       99806.288       7579.9713       1.8020000       2.9197500     -0.16900000       341.17300       1.9617764    0.0075691998
       14.999999       288.88873       99805.383       7455.7635       1.4157500       1.9057500     -0.14000000       341.31600       1.9000925     0.013690241
       20.000012       288.77587       99810.313       7373.4877      0.66750000       1.3217500     -0.16050000       341.26000       1.9164308     0.010366804
       24.999985       288.71841       99811.633       7319.1484      0.57225000       1.6702500    -0.034250000       341.49100       1.8736831     0.013322639
       29.999998       288.81537       99810.222       7328.2817    -0.062750000       1.3732500    -0.049250000       341.92200       1.8932364     0.012211128
       35.000011       288.85622       99806.447       7318.6761     -0.22125000       2.5157500      0.58150010       342.26600       1.9210109    0.0077128928
       41.000019       288.89076       99796.090       7303.9093       1.0467500       2.8445000     -0.53275000       341.28300       1.9298136     0.013167659
       45.999992       288.90940       99789.085       7295.7785      0.97975000       1.9575000     -0.41050000       341.30100       1.9266374    0.0083526640
       51.000005       288.91430       99778.811       7285.2999      0.55250000       1.8157500      0.11625000       341.84000       1.9240208     0.011655114
       56.000018       288.90299       99773.016       7277.7197      0.43625000       1.4327500      0.29975000       341.79100       1.9858773    0.0085413443
       60.999991       288.86534       99769.664       7274.4829      0.48375000       1.9695000      0.12350000       342.21100       1.9188309    0.0081869417
       66.000004       288.84516       99768.845       7274.4259       1.3112500       2.3735000     0.084500010       342.23100       1.8995948    0.0092951917
       71.000017       288.79528       99770.942       7267.9619       1.5217500       2.8615000     0.031500000       341.18700       1.8839380    0.0095468253
       75.999990       288.78817       99775.207       7276.6176       1.3342500       3.3900000    -0.056750000       340.69500       1.9508537    0.0089323776
       81.000003       288.83390       99784.707       7273.7453       1.0135000       2.7505000     -0.47950000       340.79800       1.9271417     0.011368666
       86.000016       288.85369       99791.661       7315.6734      0.44075000       1.8440000     -0.30675000       340.94600       1.9421371    0.0077920636
       90.999989       288.84647       99803.291       7377.8876     -0.33675000       1.0375000      0.25325000       341.81800       1.9093648     0.010046559
       96.000002       288.89919       99807.958       7471.9146     -0.42975000       1.8690000    -0.066750000       340.48200       1.9911258    0.0083926817
       101.00002       289.00181       99805.849       7684.1070     -0.64675000       2.7075000     -0.30200000       341.10200       1.9165106     0.011648998
       105.99999       289.06202       99805.748       7780.0067      0.62725000       2.5385000    -0.064000000       340.85900       1.9570842     0.011415234
       111.00000       289.18450       99805.453       7845.2426       1.6035000       1.9507500     -0.20650000       341.64800       1.9774576     0.010876088
       116.00001       289.23040       99800.204       7874.0979       1.1625000       1.8872500     -0.20325000       341.41900       1.9048865     0.011151953
       120.99999       289.18009       99792.771       7793.3927      0.16925000       2.3325000     -0.49800000       341.00000       1.9444779    0.0082906134
       126.00000       289.14904       99784.552       7740.1593     -0.59025000       1.7800000     0.053750000       341.47200       1.8823460     0.011678951
       132.00001       289.06832       99764.573       7664.1906     0.066250000       2.3867500     -0.27575000       340.92500       1.9359990     0.011908482
       136.99998       289.03241       99755.842       7617.6929     -0.27425000       2.1450000     -0.27125000       341.02500       1.9620178    0.0075756374
       141.99999       289.00538       99747.380       7561.1717      0.66975000       1.5230000     -0.33625000       341.34200       2.0088279    0.0087363104
       147.00001       288.98905       99748.235       7530.8453       1.5242500       2.3245000     -0.61525010       341.32500       1.8953991     0.012439481
       151.99998       288.96131       99759.438       7503.6109      0.46875000       1.4217500     0.053000000       341.71000       1.8914784    0.0097182810
       156.99999       289.00213       99768.264       7526.7150      0.52825000       1.7112500      0.43500000       342.11200       1.9561156     0.011004779
       162.00001       289.08921       99785.305       7587.8073     -0.18625000       1.6052500     -0.15800000       341.55800       1.9694397    0.0075215602
       167.00002       289.17638       99795.479       7657.1842     -0.29075000       1.1242500      0.73725000       342.09000       1.9365027    0.0072573561
       171.99999       289.33473       99804.360       7784.9948     -0.31025000       1.0967500      0.15500000       341.53500       1.9476744    0.0078729078
       177.00001       289.45017       99808.247       7886.3908     -0.56050000       2.1717500     -0.19450000       341.19500       1.9143920    0.0081479786
       182.00002       289.57780       99808.973       7994.9607     -0.98250010       3.2970000     -0.78550000       341.74900       1.9788865    0.0090031766
       186.99999       289.63646       99805.893       8078.4981     -0.27925000       3.6555000     -0.35900000       341.30800       1.9412711     0.012732472
       192.00000       289.66402       99794.701       8171.4493      0.41350000       1.5620000      0.46375000       342.21300       1.9352598     0.012365422
       197.00002       289.66308       99787.731       8211.4776     0.055000000       1.8087500      0.17200000       342.47400       1.9722397    0.0080892722
       201.99999       289.56634       99779.836       8205.5581      0.36775000       1.4155000      0.13600000       342.03200       1.9410111     0.013513130
       207.00000       289.52968       99771.782       8192.1621      0.52700000       3.1322500     -0.50000000       341.12800       1.9391298     0.011871753
       212.00002       289.51786       99760.551       8133.9452       1.7102500       1.6040000      0.41625000       341.76700       1.9054221     0.012493145
       216.99999       289.48812       99757.682       8091.6616      0.87700000       1.8567500      0.14300000       342.19500       1.9346932    0.0079913478
       223.00000       289.47079       99757.575       8036.9073       1.9922500       2.2747500     -0.24325000       340.89000       1.9327987     0.010874676
       228.00001       289.43426       99760.545       7988.1060       2.0577500       2.7612500      0.33900000       341.16100       1.9626105    0.0087791766
       232.99998       289.34769       99770.935       7917.9855      0.22600000       2.5550000     -0.13225000       341.39800       1.9410698     0.012289969
       238.00000       289.32998       99780.608       7894.8309      0.82550000       3.0935000      0.14900000       341.75400       1.9494792    0.0090808269
       243.00001       289.34283       99794.266       7901.4073       1.1827500      0.90875010      0.40325000       342.55300       1.9736797    0.0070836927
       247.99998       289.34892       99800.096       7884.8448       1.9325000       2.1615000     -0.81100000       341.72100       1.8993752     0.012751339
       253.00000       289.38785       99805.761       7879.4961     -0.39250000       1.5517500      0.14775000       342.41800       1.9092878    0.0094437029
       258.00001       289.41731       99807.761       7884.2491     -0.34400000       3.3122500     -0.80325000       341.72500       1.9679688    0.0079269419
       262.99998       289.47585       99803.976       7877.8804       1.3447500       3.2850000     -0.17125000       340.51300       1.8918887     0.011112094
       267.99999       289.44777       99797.901       7876.8097      0.49650000       2.5865000      0.93350010       342.03900       1.9883757    0.0079200915
       273.00001       289.37618       99790.145       7910.5878      0.82575010       2.6297500      0.31875000       342.13100       1.9113157    0.0092686613
       277.99998       289.32959       99780.773       7912.3348      0.70425000       2.5445000      0.38100000       342.15100       1.9712124    0.0070817566
       282.99999       289.20385       99760.060       7878.3863    -0.062250000       4.3727500     -0.43300000       340.81200       1.9530820     0.011660959
       288.00001       289.16208       99755.117       7872.4193     -0.87550000       2.0007500    -0.019750000       341.72600       1.9561364    0.0072176328
       292.99998       289.22198       99755.709       7882.3106     0.020000000       2.7755000     -0.27175000       341.18000       1.9675117    0.0071606626
       297.99999       289.18967       99761.833       7875.5322      0.40200000       2.8657500     -0.19925000       340.91400       1.9979610    0.0079169378
       303.00001       289.14950       99781.702       7883.5072     -0.72500000       2.6955000     0.013250000       342.28800       1.9355241     0.012505466
       308.00002       289.06145       99792.047       7851.5642      0.17625000       2.7442500     -0.36375000       340.46400       1.9738709     0.011580519
       313.99999       288.85888       99806.632       7773.6892     -0.74075000       1.9452500      0.10425000       341.31800       1.9030433     0.014022801
       319.00000       288.77643       99810.027       7727.8169     -0.21475000       2.0075000     -0.31100000       340.55600       1.9124891     0.012101895
       324.00001       288.69223       99807.582       7661.9779     -0.24500000       1.3312500    -0.076750000       340.54700       1.9923092    0.0074378716
       328.99999       288.65843       99802.893       7628.0513     -0.49500000       1.4202500     0.045000000       340.68400       2.0049171    0.0071493752
       334.00000       288.69984       99791.416       7616.1214     0.094250000       1.0012500      0.25325000       341.21100       1.9812459    0.0074684970
       339.00001       288.69991       99784.416       7603.3967      0.57450000       1.6470000    -0.041500000       341.35500       1.9550028    0.0082460484
       343.99998       288.69078       99776.988       7595.9729    -0.072250000      0.52400000      0.33800000       340.94400       1.9526812    0.0085547425
       349.00000       288.70928       99769.106       7598.3087      0.77000000      0.97775010      0.44150000       341.21600       1.9638147    0.0087803208
       354.00001       288.72761       99758.988       7595.3058      0.67475000       1.1195000     0.028000000       341.25600       1.9605373     0.011714666
       358.99998       288.78435       99757.562       7643.0959    -0.065750000      0.53575000      0.23350000       341.75900       1.9498020    0.0084044251
       364.00000       288.88398       99755.786       7732.9075      0.18725000       1.0647500     0.043500000       341.98200       1.9538723     0.013087918
       369.00001       288.95451       99763.214       7787.9209      0.38975000       1.0792500    -0.047500000       341.85500       1.9138051     0.013637915
       373.99998       289.05065       99784.499       7872.1495      0.39125000      0.76475010    -0.091750000       341.02400       1.9538480     0.012252712
       379.00000       289.09341       99792.776       7918.1606     -0.13550000      0.65525000     -0.57150000       340.70500       2.0035463    0.0092721757
       384.00001       289.12123       99802.801       7936.9947     -0.41900000      0.87150000      0.14600000       341.38600       1.9274784    0.0082634554
       388.99998       289.09542       99802.424       7929.6338     0.063250010      0.86725000     -0.23325000       341.42800       1.9420417     0.013068895
       394.00000       289.00768       99792.274       7906.5969      0.78700010       1.2515000     -0.33100000       341.05400       1.9359032     0.011616827
       399.00001       288.96787       99786.518       7877.5092      0.84650000       1.8122500    -0.092250000       341.58300       1.9374627    0.0078939558
       405.00002       288.87412       99775.366       7787.8135     0.050000000       1.9047500     -0.58175000       340.86800       1.9600772     0.010991233
       409.99999       288.90012       99767.248       7775.5554      0.47825000       1.7712500      0.30700000       341.82300       1.9833797     0.010467449
       415.00000       289.00680       99759.776       7800.2063      0.58750000       2.7162500    -0.047250000       341.58400       1.9662702    0.0094998385
       420.00002       289.04006       99745.965       7785.9942      0.53825000       2.6555000     -0.43900000       341.92400       1.9219238    0.0093944182
       424.99999       289.06290       99746.024       7764.3232      0.87075010       2.0280000     -0.11825000       341.43800       1.9046623     0.013861660
       430.00000       289.01428       99765.386       7690.0758      0.40375000       1.5565000    -0.088250000       340.82100       1.9699829    0.0075478408
       435.00001       288.99320       99775.282       7648.9866      0.36500000       1.0307500     -0.14025000       342.01900       1.9305807     0.011030043
       439.99999       288.99966       99795.836       7607.7281     0.017000000       1.9302500     -0.40750000       341.08700       1.9437882    0.0099728150
       445.00000       288.99940       99804.690       7604.0876     -0.23975000       2.6060000      0.15150000       341.55400       1.9652479    0.0076573137
       450.00001       288.99909       99804.934       7628.1245      0.54825000       2.6625000    -0.064250000       340.84300       1.9488071    0.0088499536
       454.99999       288.98039       99790.941       7674.1598      0.69250010       1.5637500      0.17925000       341.82800       1.9594185     0.012275750
       460.00000       289.04499       99784.670       7760.1468      0.64125000       1.8857500     0.045000000       341.92900       1.9524317    0.0073592212
       465.00001       289.13133       99771.949       7888.5608      0.65475000       1.0522500      0.20000000       341.67900       1.9638487    0.0078272994
       469.99999       289.31648       99783.882       8047.9681      0.63700000       1.8070000     -0.25950000       341.12400       1.9713631    0.0086802402
       475.00000       289.45893       99786.090       8188.1929      0.61450000       1.3715000     -0.12375000       341.30100       1.9512408     0.010923765
       480.00001       289.63069       99786.878       8384.2832      0.55300000       1.6142500     0.079750000       341.28600       1.9644330     0.015042597
       484.99998       289.72450       99790.988       8486.8766      0.59200000       1.0425000      0.16200000       341.37000       1.9640028    0.0086697170
       490.00000       289.76903       99793.861       8534.9215      0.57825010      0.74300000      0.36350000       342.76600       1.9630742    0.0095752855
       496.00001       289.76415       99789.085       8537.7509       1.5965000      0.86075000     -0.16250000       341.32800       1.9335431     0.012342025
       501.00002       289.71029       99801.127       8431.2488       1.3432500       1.1490000     0.090000000       341.50700       1.9411799     0.010093449
       505.99999       289.69157       99802.658       8358.2544     -0.39975000      0.55750000      0.00000000       341.81300       1.9832285    0.0075534919
       511.00000       289.71425       99794.724       8275.3685      0.16900000       1.1157500     0.093000000       342.53700       1.9202464    0.0076684904
       516.00002       289.70313       99789.536       8201.2797      0.18950000      0.75700000    -0.021750000       341.35800       1.9013259     0.014654643
       520.99999       289.63711       99781.456       8120.4171     -0.59275000      0.59825000      0.32325000       342.65100       1.9883660    0.0072283604
       526.00000       289.63969       99773.494       8061.7512    -0.099500010       1.4527500      0.10475000       341.65400       1.9451320     0.010954916
       531.00002       289.66365       99760.317       8010.5415     -0.42050000       1.8800000      0.18500000       341.88400       1.9789349    0.0089838892
       535.99999       289.69566       99757.848       7978.1912     -0.57050000       2.4865000     -0.61150000       341.97100       1.9756344    0.0079382896
       541.00000       289.87264       99759.341       8008.2758      0.16500000       1.8375000     -0.58025000       341.98900       1.9315976     0.012678578
       546.00002       289.88478       99763.897       7975.1575      0.18150000       1.8325000     0.023750000       342.66100       1.9953025    0.0080559831
       550.99999       289.78243       99786.770       7916.3710      0.33875000       1.2842500      0.73425000       343.35500       1.9101769     0.010669329
       556.00000       289.69871       99794.208       7860.1408      0.67825000       1.8697500     -0.10100000       342.18700       1.9219450    0.0096937238
       561.00001       289.47016       99791.465       7735.2470       1.5487500       1.9512500     -0.10900000       341.30400       1.9372772     0.012994902
       565.99999       289.35374       99791.232       7670.2665     -0.29000000       1.3995000     -0.59100000       340.91200       1.9652364    0.0068125645
       571.00000       289.31936       99786.386       7656.7546      0.19050000       2.2512500     -0.46975000       341.22300       2.0109373    0.0084026291
       576.00001       289.28212       99779.285       7629.2609      0.20450000       2.1292500      0.11050000       342.61300       1.9124265     0.010450637
       580.99999       289.31463       99770.317       7627.2274     -0.40000000       1.5705000      0.59300010       343.19200       1.9687996    0.0094792851
       586.99999       289.29942       99763.135       7606.8542      0.21500000       1.6007500      0.51650000       342.68200       1.9783295     0.010784294
       592.00001       289.27459       99748.275       7565.4639      0.45725000       1.6670000     -0.13425000       342.85300       1.9720817    0.0079111919
       596.99998       289.24069       99747.690       7550.2851       1.4570000       2.4412500     -0.40825000       340.62700       1.9005219     0.014469605
       601.99999       289.19137       99759.438       7559.4686       1.7220000       1.5942500     -0.23600000       341.35000       1.9171236    0.0081739055
       607.00001       289.12748       99768.264       7542.6471       1.7067500       1.1370000     -0.22175000       341.11500       1.9559921    0.0082122375
       611.99998       289.01541       99789.167       7504.0197       1.9745000       1.6772500     -0.30575000       341.47100       1.9099389    0.0082993249
       616.99999       288.97352       99795.229       7505.0999       1.3577500       1.8417500      0.44700000       342.49300       1.9778060    0.0072165447
       622.00001       288.90913       99795.389       7478.5462      0.53775000       1.3882500      0.46250000       342.68400       1.9450055     0.012513686
       627.00002       288.93717       99790.504       7521.7691      0.60850000       1.8887500    -0.031000000       342.76200       1.9854116    0.0078141230
       631.99999       289.07890       99770.133       7677.4982      0.61650000       2.3412500    -0.097000000       341.50500       1.9209380     0.010116281
       637.00000       289.18289       99760.884       7746.1404      0.20450000       1.6995000     0.056500000       342.12900       1.9704515    0.0088597128
       642.00002       289.30841       99748.310       7782.5199      0.67400000      0.85750000     0.027750000       342.83000       1.9628091    0.0073095770
       646.99999       289.45333       99747.665       7860.5785      0.57700000      0.85100000      0.61150000       342.95400       1.9910192    0.0085818666
       652.00000       289.65752       99761.813       7919.4590      0.65950000       1.7080000      0.28800000       342.26900       3.1935688    0.0083832097
       657.00002       289.75739       99767.813       7985.2644       1.0675000       2.8012500     -0.30575000       340.97600       2.5562653     0.014471043
       661.99999       289.85555       99778.887       8151.5871       2.3192500       1.7380000     -0.25225000       341.39200       3.1170700    0.0083549516
       667.00000       289.88663       99783.770       8194.1283       2.0452500       1.5215000       1.6545000       341.55500       2.7564333    0.0083725506
       673.00001       289.75974       99783.913       8130.4302       2.3280000       1.5877500      0.25400000       342.69900       2.4756411    0.0076059480
       677.99998       289.72618       99779.016       8102.0511       1.5860000       1.0722500     0.049000000       341.70500       2.0000042    0.0075863371
       683.00000       289.72286       99767.735       8032.5643       2.2847500       2.6610000      0.39075000       341.65800       2.9872923    0.0082687752
       688.00001       289.67608       99761.778       7975.9704       1.5575000       2.6665000     -0.10275000       341.25700       2.8213494    0.0073849892
       692.99998       289.60352       99748.190       7923.2106      0.50625000       1.7482500      0.27925000       342.34000       2.1480737    0.0075133106
       698.00000       289.57978       99747.291       7888.3336      0.64900000       1.7890000     -0.15525000       340.77500       1.9822555    0.0085690355
       703.00001       289.50972       99755.398       7814.1057     -0.10675000       2.2480000    -0.048000000       341.35500       5.5841315     0.010264706
       707.99998       289.55098       99764.243       7831.1953     -0.13700000       1.3260000      0.21050000       341.81200       3.1335359    0.0079917465
       713.00000       289.72515       99784.867       7943.4177      0.79150000       2.0552500   -0.0062500000       341.48200       3.0140178     0.012625336
       718.00001       289.79849       99790.348       7984.2378       1.7305000       2.2835000     -0.19200000       340.96200       3.2685021    0.0096492329
       722.99998       289.92120       99795.398       8062.2590      0.82450000       1.4425000      0.13200000       341.83200       3.7411935    0.0098671934
       727.99999       289.92953       99790.598       8076.1289      0.82650010       1.5490000     -0.22600000       342.87100       3.4199768     0.012285578
       733.00001       289.83781       99769.035       8029.0230       1.7457500       1.8115000      0.11825000       341.28100       2.2067809    0.0084520165
       737.99998       289.76493       99758.593       7982.2354      0.67025010      0.98400000      0.48875000       342.17700       3.5386054    0.0096860566
       742.99999       289.66059       99742.633       7910.1588      0.18275000       1.0130000      0.26950000       343.45600       6.8310838     0.015520099
       748.00001       289.52836       99741.204       7848.7477       1.5152500      0.86150000      0.18875000       341.81500       4.0632992     0.015187941
       753.00002       289.33330       99749.701       7763.2847      0.37300000      0.47950000     0.064750000       342.55200       2.0213649     0.012738480
       757.99999       289.22670       99759.177       7702.8135       1.6120000      0.49600000     0.067500000       341.87600       6.0096384     0.012900909
       764.00000       289.10729       99786.776       7646.8471      0.35575000       1.3555000      0.42525000       343.84500       2.3651719    0.0087325474
       769.00001       289.02534       99792.371       7608.2475       1.6180000       1.6077500    -0.044000000       342.65200       3.5515684     0.012205115
       773.99999       289.00761       99794.614       7575.4281       1.0050000       1.7095000    -0.033250000       341.49700       4.3659840    0.0093652760
       779.00000       288.96740       99788.397       7550.0162       1.1205000       1.5335000    0.0070000000       341.80700       3.1770498     0.013447821
       784.00001       288.87577       99765.356       7515.7199      0.95425000       1.4347500     -0.22100000       341.63400       1.9488497     0.022703356
       788.99999       288.89069       99757.046       7546.3009       1.5342500       1.0715000      0.33550000       341.45500       1.9279920     0.011840800
       794.00000       288.95717       99746.724       7599.8946      0.92000000       1.4555000      0.25175000       342.48700       1.9867424     0.011643715
       799.00001       289.07163       99749.049       7687.8004       1.3195000       1.3742500     -0.31450000       341.45900       1.9777732     0.014389076
       803.99998       289.29813       99764.194       7863.1130      0.71300010       1.4930000     -0.19575000       341.52800       2.0132831     0.011037941
       809.00000       289.38147       99770.179       7951.7475      0.58100000       1.5350000     0.027500000       342.72500       2.0331703    0.0083880841
       814.00001       289.45784       99784.085       8014.6781       1.0035000      0.91900000      0.31825000       343.60800       2.1265193    0.0095164146
       818.99998       289.50142       99781.797       8102.4832      0.63300000      0.65250000      0.22450000       342.34100       3.5578880    0.0093694964
       824.00000       289.45193       99767.576       8171.0557     0.059500000      0.49600000    -0.021750000       341.72300       1.9920655    0.0083750281
       829.00001       289.44169       99759.770       8238.4561     -0.31400000      0.27800000    0.0045000000       341.27400       2.3399411     0.012588182
       833.99998       289.44749       99743.596       8349.1768      0.31250000       1.5635000      0.36125000       343.10500       2.2942029     0.010449291
       839.00000       289.45747       99739.947       8378.0303      0.16775000       1.1182500     -0.30550000       340.58200       2.0387206    0.0077368353
       844.00001       289.43412       99742.014       8364.5411     0.020750000      0.57375000     0.016750000       340.60800       2.7686092    0.0070886767
       848.99998       289.46132       99748.472       8312.6378      0.41625000       1.0020000     0.040750000       341.31900       4.4956372     0.010874049
       854.99999       289.58164       99765.720       8192.4355      0.65450000       1.3455000     0.026000000       341.81000       6.5377657     0.013011781
       860.00000       289.52413       99772.652       8090.4773       1.3115000      0.60300000    -0.042750000       342.99300       12.545073     0.021813805
       865.00002       289.40547       99782.783       7940.6051       1.7242500       1.2292500     -0.26525000       341.98200       4.6494160    0.0096370788
       869.99999       289.25904       99781.526       7850.0613       2.3295000     -0.20025000     -0.17375000       341.80400       3.2509868    0.0098615067
       875.00000       289.17303       99776.873       7788.3244       1.2747500      0.72000000      0.36175000       341.13700       3.0390907    0.0086625829
       880.00001       289.21491       99758.242       7781.5159       1.4260000      0.32925000  -0.00075000000       341.63700       6.6023120     0.016963066
       884.99999       289.20599       99752.877       7756.3893       1.7017500      0.54750000     0.066500000       342.23700       7.5302888     0.011805625
       890.00000       289.17006       99749.318       7749.0650       1.1600000      0.97900000      0.20275000       341.90000       2.6116401    0.0089473791
       895.00001       289.15027       99751.552       7728.9537      0.15725000       4.2710000    -0.021500000       341.39000       2.0162823    0.0078042166
       899.99999       289.13048       99761.175       7699.2074       1.3502500       3.0072500     -0.17600000       341.02000       6.8371433     0.011770804
       905.00000       289.10123       99789.223       7642.9805       1.2957500       2.2202500      0.86725000       343.68900       2.2179361    0.0082527699
       910.00001       289.07141       99791.572       7635.3584      0.30125000       2.0447500      0.45775000       342.40400       2.0195160    0.0085901828
       914.99999       289.03227       99788.864       7627.6059       1.0857500       1.8910000     0.024250000       343.08700       2.4964451    0.0089407517
       920.00000       289.10634       99764.032       7732.0920     0.053000000       1.6170000     -0.22425000       341.65500       1.9371443    0.0078738727
       925.00001       289.14537       99752.281       7786.1097     -0.85350010       2.8230000     -0.67875000       341.70500       1.9630771    0.0080681197
       929.99998       289.25580       99743.331       7822.3813     -0.35425000       3.3862500     -0.19050000       341.37300       1.9601551    0.0081641836
       935.00000       289.31898       99741.677       7877.1841     -0.56850000       2.6395000     -0.95975010       340.76500       1.9414265    0.0080919546
       940.00001       289.34530       99747.399       7926.7611    -0.076250000       1.6527500      0.46650000       341.29500       1.9596845    0.0080589109
       946.00002       289.29688       99767.370       7947.6827     -0.92000000       2.5025000     -0.65275000       341.15700       1.9291075    0.0076123800
       950.99999       289.33380       99776.508       8037.1504     -0.40950000       3.5845000      0.20350000       342.44400       2.0134155     0.012502212
       956.00000       289.35367       99777.798       8101.1391     0.087750000       3.0142500     0.063750010       340.71600       1.9740273    0.0079986424
       961.00002       289.33414       99764.304       8153.8727      0.55400000       2.6625000     -0.39350000       340.65900       1.9737127     0.011055735
       965.99999       289.39768       99758.394       8200.6631       1.1037500       2.5922500    -0.057250000       341.15900       1.9441242    0.0081052882
       971.00000       289.50879       99747.873       8264.5613      0.82525000       3.1632500     0.021500000       340.92200       2.7723814    0.0089838118
       976.00002       289.61063       99747.517       8280.2991       1.4245000       3.2652500     -0.35450000       341.29400       3.1850192    0.0087130924
       980.99999       289.85732       99760.703       8291.1444       1.0377500       1.8765000     -0.43975000       341.25700       3.2183256    0.0083048851
       986.00000       289.94944       99766.747       8240.3747       1.0340000       1.7072500    -0.095000010       341.63900       2.6733702     0.012807425
       991.00002       289.90008       99781.855       8064.5249       1.6272500       2.5852500    -0.059000000       341.95500       6.5535123     0.012012234
       995.99999       289.90900       99784.093       7982.6123       2.2285000       4.2380000     -0.33675000       342.23100       4.6459679     0.014982702
       1001.0000       289.86822       99771.546       7897.3305      0.96525010       3.5090000     -0.38225000       340.72100       2.7272747    0.0094270987
       1006.0000       289.83896       99764.419       7849.3741      0.22400000       3.3557500     -0.18750000       340.98800       1.9693686     0.014660815
       1011.0000       289.84120       99745.597       7911.1656      0.96025000       3.2080000     -0.39925000       342.20300       3.1016953    0.0085102821
       1016.0000       289.85090       99741.236       7913.1887      0.67775010       3.0125000     -0.42000000       341.62600       2.0018213     0.017278500
       1021.0000       289.84377       99750.089       7892.9259       1.7740000       3.8492500     -0.70750000       341.07500       2.0201331     0.010583855
       1026.0000       289.84493       99755.265       7866.1673     -0.38125000       3.6185000      0.10850000       340.90700       2.0659951    0.0081095887
       1031.0000       289.87582       99772.213       7801.9255     -0.18900000       1.9690000    -0.015750000       341.29100       2.0166541    0.0087424363
       1037.0000       289.91193       99779.328       7755.9439      0.49750000       1.6235000     -0.10625000       341.64700       2.0499857    0.0092169967
       1042.0000       289.97600       99779.704       7712.5831      0.94000010       2.7392500     -0.10875000       341.50300       1.9666676    0.0076679990
       1047.0000       289.95422       99775.117       7697.7964       1.4632500       1.9932500      0.51350000       342.40300       3.8079681    0.0089516025
       1052.0000       289.89178       99755.234       7735.8426      0.51175000       2.8055000     -0.74875000       341.07000       2.8622692     0.012006419
       1057.0000       289.83426       99751.650       7720.7050       1.5405000       3.2250000     -0.73150000       340.94100       2.0516620     0.014519189
       1062.0000       289.67613       99757.205       7687.6209      0.53475000       3.2587500     -0.12700000       340.63500       2.0066332    0.0089196753
       1067.0000       289.60831       99754.260       7663.4708    -0.078250010       2.8782500    -0.089500000       341.87200       1.9595285    0.0072374652
       1072.0000       289.59223       99753.649       7589.5169      0.11525000       2.5097500     0.087250000       340.94100       1.9673405    0.0071716714
       1077.0000       289.58961       99756.690       7571.3891    -0.039250000       3.0105000     -0.91025010       340.96000       1.9843994    0.0095796199
       1082.0000       289.63711       99755.661       7584.5138      0.62100010       2.8277500     -0.34675000       340.99700       2.0832614    0.0080975885
       1087.0000       289.65717       99754.079       7616.3300     -0.99725000       2.0082500     -0.34575000       341.51200       1.9724371    0.0093356294
       1092.0000       289.71951       99758.405       7706.0148     -0.37125000       1.6995000    -0.099000010       341.63500       1.9943471    0.0077769139
       1097.0000       289.70810       99762.048       7741.9756     0.019250000       2.0490000    -0.032500000       341.49200       1.9910553    0.0078576215
       1102.0000       289.63566       99757.711       7787.6215     0.044500000       3.5222500     0.093500000       341.27600       2.0007593    0.0090666520
       1107.0000       289.58179       99759.815       7792.0418      0.99650010       1.7172500      0.26700000       342.33700       2.1883697    0.0085896426
       1112.0000       289.47181       99776.945       7736.9691       1.5212500       1.8592500      0.16650000       341.50600       3.1963461    0.0086605695
       1117.0000       289.41969       99777.996       7699.8004      0.60650000       1.2475000      0.41100000       341.45300       3.4198423    0.0084287675
       1122.0000       289.37762       99770.062       7609.9193      0.46925000       1.2865000      0.61725000       341.85200       4.3911468     0.020540602
       1128.0000       289.39595       99762.805       7610.7022      0.97725000       2.0247500     -0.23850000       341.52900       6.9377658     0.012443306
       1133.0000       289.47312       99743.210       7632.6940       1.4890000       2.0302500     -0.18325000       340.88300       2.4834663    0.0071711578
       1138.0000       289.52968       99742.059       7713.9024       1.8667500       1.8370000     -0.45675000       340.55900       4.4506619     0.010571799
       1143.0000       289.62050       99751.916       7915.1989       1.1795000      0.61100000      0.81150000       341.84300       3.5112224    0.0090205406
       1148.0000       289.70077       99758.060       8022.2918       1.6272500       1.3522500     -0.33850000       340.64000       3.2728590    0.0092964204
       1153.0000       289.75000       99777.602       8113.2389      0.39150000      0.91700010     0.029750000       340.88300       2.3175651    0.0086997601
       1158.0000       289.85165       99778.757       8211.6294       1.0280000      0.27100000      0.35350000       341.46000       6.1325214     0.016607630
       1163.0000       290.04626       99768.911       8323.4492      0.19075000      0.82950000      0.24125000       342.10900       5.4302969     0.010940984
       1168.0000       290.10095       99762.748       8334.5275       1.7412500       1.5527500     -0.34125000       342.18300       4.9113273     0.010568787
       1173.0000       290.09220       99741.888       8305.9224      0.77900000       2.0197500     -0.52425000       342.29500       2.9785410    0.0098391688
       1178.0000       290.12578       99742.361       8275.4122      0.98425010      0.91075000     -0.35550000       340.78900       2.0412104    0.0080558550
       1183.0000       290.07528       99757.104       8132.6668      0.65225010       1.0650000     -0.19850000       341.10300       2.7305165     0.013053877
       1188.0000       290.10398       99763.728       8076.6757      0.83050010      0.74825000      0.33000000       342.58300       2.4366109    0.0092555880
       1193.0000       290.26461       99784.725       8087.5370      0.47425000      0.55075000     -0.17850000       341.35000       2.0716757    0.0080002088
       1198.0000       290.28061       99783.891       8064.8424       1.1822500      0.46200000      0.20300000       341.35100       2.8670245    0.0080751978
       1203.0000       290.22621       99763.361       8039.7956      0.68450000       1.0137500      0.20825000       343.24600       2.9152857     0.011996637
       1208.0000       290.18396       99755.376       8004.7850      0.61850010       1.5165000     -0.43250000       341.25700       3.4581457     0.013241126
       1214.0000       290.05795       99735.354       7950.5933     -0.22950000      0.82225010     -0.20050000       341.21400       2.0614560     0.013093068
       1219.0000       289.99656       99738.621       7928.6934     -0.30525000       1.4000000      0.29700000       341.81400       2.0255931    0.0082857674
       1224.0000       289.97784       99759.755       7910.7690     -0.20100000       2.5842500      0.30475000       342.74100       2.0189635    0.0090410744
       1229.0000       289.88985       99765.951       7885.8531     -0.68250000       1.0917500      0.26200000       342.16100       2.0228791    0.0094628256
       1234.0000       289.75579       99779.534       7883.8052      0.15125000       1.5112500     0.099250000       342.53700       1.9517213     0.012771656
       1239.0000       289.68452       99776.414       7850.3755     -0.51775000       1.9715000    -0.090000000       341.59900       2.0116828    0.0079917456
       1244.0000       289.59942       99755.158       7785.8482     -0.76950000       1.4462500     -0.26725000       342.70800       2.0246181    0.0089330925
       1249.0000       289.54748       99749.943       7744.2840     -0.60125010       1.0637500     -0.23225000       342.41400       2.0445009     0.014720088
       1254.0000       289.50851       99741.136       7679.2145      -1.0187500       1.8512500     0.023500000       340.99700       2.0009565    0.0083878271
       1259.0000       289.58100       99745.251       7693.1601     -0.70275000       2.1547500    -0.092750010       340.54800       1.9281475     0.014850702
       1264.0000       289.73136       99765.067       7755.2994      -1.1225000       1.1270000     -0.48400000       341.58400       1.9932063    0.0074235804
       1269.0000       289.80186       99770.368       7787.3660      -1.3462500       1.2032500     -0.59675000       341.45800       2.0009739    0.0089877528
       1274.0000       289.96729       99779.211       7861.7587      -1.2552500       1.7380000     0.031250000       341.55200       2.0190545    0.0077732749
       1279.0000       290.00458       99775.069       7906.3437     -0.62350000       1.2842500     -0.27600000       341.42000       2.0460556    0.0080372235
       1284.0000       289.89710       99753.327       7909.4743      -1.2780000      0.95150010    -0.068750000       341.29000       2.0794516    0.0090196048
       1289.0000       289.88574       99751.771       7946.0037      -1.4152500      0.78575000     -0.15750000       340.78500       2.0536658    0.0085782653
       1294.0000       289.91777       99753.199       8025.4336      -1.2907500       1.0632500      0.33350000       342.14600       1.9759610    0.0086814932
       1299.0000       289.88062       99755.819       8038.1824      -1.6602500      0.87450000    -0.057250000       340.81600       2.0581234    0.0090011795
       1305.0000       289.80799       99774.023       8023.0750      -1.1992500      0.90175000     0.031250000       340.58000       1.9982405    0.0069662728
       1310.0000       289.74602       99770.101       7997.8926      -1.0812500      0.90075000    -0.065250000       340.54900       2.0486122    0.0083372990
       1315.0000       289.63251       99754.853       7935.6596      -1.0405000      0.75600000    -0.079750000       340.58200       2.0426030    0.0087352327
       1320.0000       289.66035       99743.246       7922.1307     -0.60050000      0.59400000     -0.17600000       340.68600       2.0559989    0.0089246410
       1325.0000       289.65057       99741.370       7885.5845     -0.16075000       1.0337500    -0.050000000       340.85000       2.0986581     0.011763475
       1330.0000       289.68526       99762.372       7834.7578      0.36625000       1.0387500      0.16975000       341.64000       2.7767530    0.0073374248
       1335.0000       289.66875       99767.761       7787.0378      0.52800000      0.60600000     -0.11025000       341.17500       2.0504285     0.013464700
       1340.0000       289.57013       99771.232       7713.4210      0.26625000      0.61125000     -0.56375000       340.72200       2.0161949    0.0073447459
       1345.0000       289.50080       99769.022       7657.7137      0.10275000      0.22250000     -0.24750000       341.95800       1.9930900    0.0067980930
       1350.0000       289.43148       99759.410       7612.1728      0.24675000      0.37450000     -0.10025000       341.54500       2.0408056    0.0073252219
       1355.0000       289.33881       99731.634       7580.3892     -0.16625000     0.093250010      0.18550000       342.50300       1.9700221     0.010225100
       1360.0000       289.30138       99729.394       7546.5102    -0.032750000      0.25875000    -0.071250010       341.76200       2.0960460    0.0080945071
       1365.0000       289.28236       99732.531       7508.3450      0.44650000      0.26525000      0.22475000       342.41000       5.9278299    0.0095400043
       1370.0000       289.34598       99756.170       7521.2778      0.96625010      0.59700000     0.068750000       342.14100       12.196350     0.027419923
       1375.0000       289.39494       99764.037       7546.2427      0.61425000       1.1022500    -0.071500000       340.58200       2.6744882    0.0083373451
       1380.0000       289.50065       99756.774       7634.0651      0.40775000       1.0307500      0.21025000       341.44700       5.6297739     0.011495521
       1385.0000       289.56257       99755.882       7692.5879      0.23150000      0.59225000     0.060750000       341.30800       8.7441470     0.012773273
       1390.0000       289.59990       99753.768       7741.6704      0.43500000       1.5815000     -0.19925000       340.65700       2.5316800    0.0087253411
       1396.0000       289.61323       99742.322       7795.3759      0.16075000       1.3772500     0.034250000       341.00000       3.6370233    0.0095509890
       1401.0000       289.58011       99758.867       7796.8964      0.37150000       1.5877500     0.069250000       342.51700       2.0991422    0.0069826447
       1406.0000       289.54867       99762.476       7787.2840      0.33550000       1.5465000      0.46875000       341.98900       2.3243514    0.0067506207
       1411.0000       289.44649       99765.536       7725.0690       1.2042500       1.0470000     -0.44575000       341.23300       2.0714461    0.0085504444
       1416.0000       289.42959       99761.884       7703.0621       1.2210000       1.1060000     0.046000000       341.84600       8.3645391     0.011816195
       1421.0000       289.49245       99734.818       7690.9787       1.8462500      0.73400000      0.17825000       341.54300       4.3315192     0.011368696
       1426.0000       289.50252       99730.825       7686.5499      0.88600000       1.1772500      0.21850000       342.38400       3.5348704    0.0083903859
       1431.0000       289.54639       99740.175       7734.6299       1.2207500       1.7820000      0.18150000       342.58300       3.5010428    0.0086014437
       1436.0000       289.56374       99744.482       7734.6998       2.0250000       1.2685000    -0.087500010       341.72800       3.1708940     0.010369800
       1441.0000       289.49573       99772.961       7690.1973       3.2935000       1.7292500      0.12775000       341.61200       2.6522188    0.0070674075
       1446.0000       289.48871       99776.733       7677.8866       2.3272500       1.6330000     0.096250010       340.86600       8.0513407     0.011447325
       1451.0000       289.54778       99749.032       7671.4327       1.7662500      0.34800000     0.081000000       341.55700       7.2909070     0.011813811
       1456.0000       289.55651       99742.344       7646.0660       1.0505000      0.80375000     -0.17175000       342.62100       6.6483551     0.011269506
       1461.0000       289.54159       99732.745       7623.6858       1.6907500       2.8105000     0.026250000       341.87300       2.2499048    0.0067461309
       1466.0000       289.55155       99731.531       7611.2172       1.2872500       1.2645000      0.51825000       342.80400       3.4446445    0.0083439145
       1471.0000       289.52938       99758.486       7556.1704      0.53725000       1.8657500    -0.076250000       341.67000       2.5227294    0.0076995917
       1476.0000       289.54171       99764.649       7550.1952       1.2710000       2.6087500     -0.25550000       340.98000       3.0312963    0.0082339230
       1481.0000       289.60954       99758.478       7590.2612      0.78625010       1.4310000      0.21675000       341.87600       4.3297359    0.0074294849
       1487.0000       289.66977       99755.482       7644.2554      0.83650000      0.72225000      0.11800000       342.24300       3.6226396    0.0079397148
       1492.0000       289.70768       99738.014       7692.1158    -0.024500000       1.0025000      0.35450000       342.63700       2.0660957    0.0090686175
       1497.0000       289.77203       99737.270       7787.5991     -0.80300000       1.6775000     -0.28225000       340.95600       2.0410801    0.0078635760
       1502.0000       289.89831       99755.756       7988.9828     -0.33925000       1.1915000     -0.38000000       340.86100       2.0397884    0.0061280383
       1507.0000       289.92751       99757.683       8054.6967     -0.54100000       1.4090000     -0.14075000       341.26400       2.1153113    0.0082232926
       1512.0000       289.91445       99760.016       8092.1400     -0.29275000       1.6222500      0.67125000       342.89400       2.0527312    0.0074014700
       1517.0000       289.90696       99756.099       8097.8869     -0.45900000       2.0910000     0.059750000       341.97000       2.0318513    0.0069194134
       1522.0000       289.81019       99727.813       7965.1131      0.33575000       2.9935000     -0.17425000       340.64600       1.9903662    0.0069113706
       1527.0000       289.77770       99725.811       7910.6437     0.098250000       2.0680000    0.0050000000       342.44700       2.1039099     0.010013797
       1532.0000       289.75995       99743.919       7867.8906     -0.32650000       2.6177500     -0.47825000       341.64500       2.0282056    0.0074069367
       1537.0000       289.80155       99746.586       7870.3762      0.33600000       2.1300000     -0.13750000       341.03000       1.9536554     0.010455781
       1542.0000       289.90059       99758.687       7918.9381      0.33325000       2.0642500     -0.16350000       340.91900       2.0122906    0.0058602806
       1547.0000       289.97444       99758.142       7942.7027    -0.037250000      0.88800010     -0.32175000       341.46100       2.0290889    0.0068546078
       1552.0000       290.17579       99727.448       8042.2027      0.24775000       1.4442500    -0.019000000       341.38100       2.0845681    0.0095603266
       1557.0000       290.19127       99725.208       8038.9711      0.58200000      0.69200000      0.42775000       342.20500       2.0347272    0.0068198577
       1562.0000       290.04276       99743.148       7933.1321      0.32150000       1.1260000    -0.092750010       342.00000       2.0842594    0.0074552767
       1567.0000       289.97946       99747.219       7884.7792     -0.29100000       1.2437500    -0.079000000       342.67800       2.0565990    0.0079826431
       1572.0000       289.80587       99764.302       7778.1798     -0.75400000       2.1315000      0.36975000       341.99500       2.0253262    0.0073431233
       1578.0000       289.75296       99762.793       7757.9731      0.46650000       1.0047500      0.42275000       342.78500       2.0410921    0.0055055651
       1583.0000       289.84169       99734.623       7824.2111     0.025500000      0.99275000      0.33375000       342.31600       2.0928424    0.0067229084
       1588.0000       289.86155       99730.780       7853.7021     -0.62975000       1.1045000      0.37175000       341.98500       2.0251094    0.0062305988
       1593.0000       289.94413       99733.257       7919.7171      0.39325000       1.4365000     0.015250000       342.41900       2.1642698    0.0064022409
       1598.0000       289.89331       99735.150       7943.8111      0.43525000       1.9140000     -0.12325000       340.94300       2.7249286    0.0066608593
       1603.0000       289.74199       99754.742       7947.2248      0.42700000       1.5702500     -0.23550000       340.86700       2.3213752     0.010283059
       1608.0000       289.64627       99752.367       7932.5830      0.40325000       1.6635000     -0.42200000       341.13600       2.1720234    0.0071952327
       1613.0000       289.43921       99728.997       7880.2883      0.29550000       1.1900000     -0.44050000       341.07500       3.7684891    0.0079565179
       1618.0000       289.39654       99727.471       7864.4596     -0.24250000       1.0352500      0.42350000       342.04200       2.0358326    0.0064065185
       1623.0000       289.47123       99726.899       7840.5238      0.20675000       1.1375000     -0.23575000       341.49100       2.0747470    0.0090024596
       1628.0000       289.51425       99729.471       7836.5812     -0.41225000       1.0490000     -0.28075000       342.11800       2.0273886    0.0068626859
       1633.0000       289.65049       99753.205       7873.0003     -0.32975000      0.71975000     -0.22900000       342.67100       2.1052113     0.010485165
       1638.0000       289.68215       99753.880       7876.3879      -1.0165000       1.1055000    0.0030000000       341.11100       2.0551972     0.010037185
       1643.0000       289.65651       99735.140       7850.0213     0.042250000       1.1395000      0.13050000       342.18600       2.0688573    0.0075179713
       1648.0000       289.65029       99732.338       7867.1257    -0.060250000       1.7045000     -0.30575000       341.14600       2.0690318     0.012016795
       1653.0000       289.60078       99727.864       7891.4235      0.41475000       1.6565000      0.10275000       341.75800       2.4352644    0.0066812210
       1658.0000       289.58709       99729.400       7931.8400      0.19350000       1.3317500     0.012750000       341.17800       3.3691291     0.017224075
       1663.0000       289.58838       99744.475       7995.8828      0.80275010      0.70775000     0.048500000       342.23900       2.7365107    0.0076636619
       1669.0000       289.60967       99749.926       8098.5241      0.93975000       2.5600000    -0.038500000       341.29600       2.6997761    0.0067397724
       1674.0000       289.67199       99750.592       8233.1429       1.7537500       1.4757500     -0.19175000       341.20100       3.2655642     0.012977757
       1679.0000       289.63518       99751.717       8265.1510       1.0170000       1.7002500     -0.14625000       341.08300       5.9209044     0.019698722
       1684.0000       289.56227       99750.379       8296.9282       1.0917500      0.83900000     0.068500000       340.74200       2.4563110     0.010026945
       1689.0000       289.51350       99750.438       8258.8908      0.72625010      0.49675000     -0.40675000       340.91100       2.6670012    0.0079004414
       1694.0000       289.37216       99753.966       8083.4417      0.74000000       1.7847500     -0.25125000       341.27500       3.0083260    0.0074200271
       1699.0000       289.37588       99746.532       8053.8465      0.95300010       1.8595000      0.13425000       341.79500       9.4874930     0.013079405
       1704.0000       289.51025       99728.297       8071.8574      0.46525000       2.6820000     -0.12800000       341.34400       8.4023258     0.011513303
       1709.0000       289.51312       99727.758       8057.8855       1.1122500       3.1607500     -0.23500000       341.46400       5.2231136    0.0085262271
       1714.0000       289.51607       99727.198       8097.8975     -0.66900000       3.9542500     0.021500000       342.42400       2.2830486    0.0086938779
       1719.0000       289.49810       99730.783       8076.0271     -0.48650000      0.77050010      0.26050000       342.28100       2.0850658    0.0078829083
       1724.0000       289.36860       99753.879       7965.7089     -0.37900000       1.3457500      0.38175000       343.05200       2.0649699    0.0070837548
       1729.0000       289.40220       99752.735       7992.7580      -1.2275000       2.8272500     -0.40450000       340.89600       2.0697825    0.0095526961
       1734.0000       289.54036       99733.605       8079.1023     -0.59325000       2.1020000     -0.43125000       340.68600       2.0778381    0.0082523178
       1739.0000       289.60044       99733.237       8142.5271     -0.80675010       1.5220000     0.094000000       341.69200       2.0244424    0.0059053891
       1744.0000       289.71822       99733.069       8302.7809     -0.36925000       2.3817500    -0.032000000       341.00100       2.1143382    0.0092045040
       1749.0000       289.73314       99735.584       8319.4153   -0.0015000000       1.5735000     -0.23950000       341.69700       2.1313599    0.0096161191
       1755.0000       289.65710       99754.838       8246.1941    0.0085000000       1.7387500      0.20275000       341.45800       2.0856396     0.011555170
       1760.0000       289.61503       99748.753       8199.5406    -0.043500000       1.7480000    -0.059250000       341.87100       2.0648825    0.0069189347
       1765.0000       289.55006       99728.077       8103.1549    -0.038000000       1.9332500      0.40150000       341.66400       2.0512932    0.0066814308
       1770.0000       289.48452       99728.504       8057.1432   -0.0075000000       1.1317500      0.24350000       342.52800       2.0785938    0.0092462974
       1775.0000       289.44287       99728.006       8015.0092     -0.11525000      0.69325010      0.29675000       343.25400       2.1383585     0.022203357
       1780.0000       289.41454       99748.962       7984.5238     -0.31550000      0.52375000      0.42575000       343.13300       2.0703536    0.0089016305
       1785.0000       289.39355       99754.715       7944.2571     -0.25950000      0.54950000    -0.043750000       341.49000       2.0876101    0.0090220569
       1790.0000       289.36981       99736.721       7875.6400    -0.064000000      0.92050000     -0.15825000       341.38700       2.0754911     0.011811169
       1795.0000       289.38686       99733.299       7850.2497     -0.30675000       1.4097500     0.077000010       341.75500       2.0470473    0.0087853322
       1800.0000       289.42850       99733.557       7843.8288      0.52025000       1.4177500    -0.021500000       340.97200       2.0455320    0.0076816719
       1805.0000       289.49849       99733.807       7853.7967      0.20850000       1.7515000     -0.22075000       341.84300       2.0497122    0.0084300237
       1810.0000       289.53903       99735.139       7839.8601     -0.27850000      0.60650000      0.51900010       343.70300       2.0665963     0.010061229
       1815.0000       289.62378       99748.109       7857.1770     -0.80725000      0.46900000     0.055000000       342.29700       2.0212436    0.0068313259
       1820.0000       289.52412       99728.292       7775.6776     -0.33525000      0.28400000     -0.22125000       342.39600       2.0648902     0.014804684
       1825.0000       289.49217       99726.375       7739.2205     -0.10175000       1.3267500     0.071500000       342.97800       2.0174688    0.0074459328
       1830.0000       289.47451       99745.770       7737.2210     -0.21100000       1.1572500     -0.13025000       341.97600       2.0524192    0.0070627973
       1835.0000       289.44338       99747.077       7728.9216     -0.15950000       1.8530000    -0.028250000       342.96000       2.0616092    0.0082114042
       1840.0000       289.42454       99744.676       7729.3254      0.10800000       2.1195000      0.33650000       341.79800       2.0774821     0.010652038
       1846.0000       289.45926       99747.568       7757.4390      0.73550000       1.2132500      0.24525000       342.12700       2.9909077    0.0074592051
       1851.0000       289.37586       99730.777       7732.8088      0.63250010       1.1585000    -0.066250000       340.75000       8.4655251     0.014971030
       1856.0000       289.33685       99726.534       7728.8755       1.0215000       1.1730000     -0.16750000       340.74600       6.4553911     0.010832380
       1861.0000       289.30976       99747.414       7739.1863       1.1302500      0.87500010    -0.024500000       341.24400       4.7487659    0.0098748869
       1866.0000       289.29090       99748.708       7734.5403      0.74250000       1.3145000      0.53050010       342.53400       5.2671214    0.0098730550
       1871.0000       289.25727       99730.020       7709.9957      0.63750000      0.42575000     -0.21950000       340.83300       2.6671585    0.0077558455
       1876.0000       289.29103       99728.459       7722.6589      0.60975000      0.24400000     -0.35475000       340.89600       2.1882494     0.010525480
       1881.0000       289.40203       99727.783       7754.2482      0.64325000      0.64625000     0.015750000       341.19400       2.2002728     0.013495252
       1886.0000       289.46149       99728.217       7773.3096      0.40225000      0.83650000     -0.22175000       341.62600       3.5253815    0.0092321332
       1891.0000       289.57067       99752.228       7800.3710      0.96150000       1.0492500      0.34100000       342.01800       3.2275737    0.0088009406
       1896.0000       289.62673       99755.144       7852.0055      0.61775000       1.0847500     -0.23050000       341.19600       6.4809716     0.012143741
       1901.0000       289.54404       99731.226       7884.8963     -0.21550000       1.1667500      0.14075000       341.99300       3.0608991    0.0082552842
       1906.0000       289.58938       99727.813       7954.4947     0.046750000      0.78850000    0.0057500000       341.96700       2.0179648    0.0070274290
       1911.0000       289.72477       99732.261       8095.7536      0.27975000       1.0842500     -0.12550000       342.99400       2.7987278    0.0075531124
       1916.0000       289.81682       99729.424       8207.1644     -0.11800000      0.73800000      0.42000000       343.21700       2.5884027     0.012486271
       1921.0000       289.93838       99736.132       8354.1288      0.79425000       2.0707500    -0.070500000       341.08500       2.0978629    0.0093319954
       1926.0000       290.07700       99737.576       8432.2594       1.1047500      0.63800000      0.23625000       341.72600       8.8915303     0.013194519
       1931.0000       290.20883       99718.684       8454.4359     -0.19500000       1.2320000     -0.31625000       341.42900       2.1904725    0.0081037536
       1937.0000       290.34095       99717.008       8484.9828    -0.068750000       1.2677500      0.42275000       341.45100       2.3485565     0.015652714
       1942.0000       290.54202       99736.714       8476.2171      0.15575000      0.61000000     -0.63075000       341.47000       2.5768080    0.0079841294
       1947.0000       290.59951       99737.145       8442.5653     -0.95275000       1.0030000     -0.19650000       342.03400       2.0643633    0.0079186451
       1952.0000       290.53047       99728.164       8402.2964     -0.64675000       1.4995000      0.26475000       341.45000       2.0631169    0.0078815692
       1957.0000       290.49299       99730.461       8347.3849     -0.62875000      0.65275000      0.53250000       343.73800       2.0275298     0.010524947
       1962.0000       290.37115       99728.761       8224.0141      -2.3250000      0.37475000     -0.44400000       342.29300       2.1067177     0.013666522
       1967.0000       290.31931       99728.925       8159.5241      -2.0645000       1.5332500    -0.015500000       342.15900       2.0552054    0.0077139115
       1972.0000       290.29172       99748.281       8128.8435      -2.7987500       1.5667500     -0.39950000       340.62200       2.1005453     0.018472249
       1977.0000       290.28903       99748.672       8087.6947      -2.5407500       1.2875000     -0.41300000       341.40500       2.0626615    0.0073163845
       1982.0000       290.35043       99724.209       8067.0481      -1.4287500       2.5297500     -0.43125000       341.36400       2.0164459    0.0074244200
       1987.0000       290.35665       99722.088       8033.0825      -1.1452500       1.9675000    -0.074250010       342.63000       2.0118560    0.0071951739
       1992.0000       290.36962       99730.993       7988.7342      -1.6217500       1.4787500     -0.79425000       342.34000       2.1045293     0.018728540
       1997.0000       290.35233       99729.966       7947.4651      -2.0957500       1.9715000     -0.35350000       341.39700       2.0139663    0.0067560735
       2002.0000       290.27871       99736.698       7887.1019      -2.4910000       1.3100000     -0.32000000       340.82400       2.0989924     0.010434549
       2007.0000       290.22839       99737.252       7866.6360      -1.3557500       1.3995000     -0.17475000       341.16000       2.0618320     0.013642411
       2012.0000       290.19278       99717.892       7885.2749      -1.9270000       1.3057500     -0.14175000       342.24200       2.0473939     0.013382752
       2017.0000       290.12953       99717.155       7867.9581      -2.7612500       1.7975000      0.22900000       341.63200       1.9529642    0.0091666733
       2022.0000       290.01725       99737.017       7848.4061      -1.5362500       2.0232500      0.18075000       341.84800       1.9735662    0.0079394399
       2028.0000       289.96971       99737.039       7844.2534     -0.53100000       1.5795000     -0.37150000       342.19300       2.0263351     0.010086947
       2033.0000       289.93331       99728.905       7811.4585     -0.21300000       1.4290000     -0.31625000       342.20600       2.0902862     0.010131665
       2038.0000       289.94212       99731.672       7816.8563     -0.91425000       2.1705000     0.015750000       342.51600       1.9594701    0.0084677848
       2043.0000       290.04227       99730.734       7874.8559    -0.051000000       2.0455000     -0.18825000       341.11700       2.0403500     0.013196330
       2048.0000       290.07606       99728.303       7897.9885     0.017250000       2.0925000    -0.039750000       341.62700       2.0605999    0.0090489676
       2053.0000       290.11092       99737.508       7895.4071      0.42825000       1.6582500      0.52050000       342.83200       2.0135025    0.0089403993
       2058.0000       290.10835       99737.028       7933.1528     -0.23150000       1.8532500    -0.025750000       341.68800       2.0490509     0.015988791
       2063.0000       290.08102       99717.191       8010.0538      0.25775000       1.2492500     -0.18950000       342.38300       2.0402671    0.0084485622
       2068.0000       290.02925       99717.888       8025.8452     -0.20050000       1.6037500     -0.19825000       342.02200       2.0566571    0.0096305711
       2073.0000       289.90716       99737.174       8043.6918    0.0065000000       1.0352500      0.21375000       343.22500       2.0121221     0.010254849
       2078.0000       289.86964       99736.633       8033.7664      0.26900000       1.9775000     -0.46600000       341.13900       2.0359618    0.0074250547
       2083.0000       289.77870       99729.924       7917.2836     -0.31275000       1.7352500     -0.34075000       342.30000       2.0239186     0.011275871
       2088.0000       289.86912       99731.034       7941.0464     -0.64825000       1.3967500     -0.86225000       341.68600       2.0187607    0.0079476699
       2093.0000       290.13337       99725.395       8033.5721     0.084000010       2.5430000     -0.36725000       341.60800       2.0406307    0.0082210041
       2098.0000       290.30000       99722.550       8118.6773     0.066000000       2.4462500    -0.054750000       342.75600       2.0000617    0.0060775928
       2103.0000       290.54650       99729.554       8290.4739     -0.10325000       3.2660000     -0.23475000       341.73100       1.9920128    0.0071673647
       2108.0000       290.71649       99732.922       8396.6876      0.56925000       2.5040000     0.024500000       343.07200       2.0375939    0.0098196877
       2113.0000       290.85754       99727.623       8498.9755      0.44500000       1.9520000     -0.12275000       342.84100       2.0467852    0.0077332253
       2119.0000       290.89572       99731.701       8540.3512      0.53650000       1.4620000     -0.22025000       341.65100       2.0567441     0.010443654
       2124.0000       290.88718       99748.869       8535.8070    0.0055000000       1.3982500      0.42425000       342.12200       2.0690997    0.0094784237
       2129.0000       290.82316       99745.602       8513.5832     -0.48300000       1.3027500      0.35250000       343.89600       2.0960416     0.011370160
       2134.0000       290.60512       99728.179       8432.9788     -0.37075000       1.4987500      0.25150000       341.81500       1.9817760    0.0076938103
       2139.0000       290.51250       99728.731       8365.4719      -1.3097500       2.2792500     -0.52675000       343.07100       2.0949615     0.013062383
       2144.0000       290.46554       99730.144       8306.4915     -0.29875000       2.2307500      0.69750010       343.05400       2.0342278    0.0079658012
       2149.0000       290.38625       99728.040       8205.4559     -0.28675000       1.0940000      0.46400000       343.43100       2.0177620    0.0070250241
       2154.0000       290.29630       99738.554       8044.0614      -1.0990000       3.9952500     -0.44750000       341.68300       2.0115809    0.0080643948
       2159.0000       290.26370       99735.232       7965.3607      -1.1132500       3.6795000     -0.57225000       341.89100       1.9894730    0.0092459609
       2164.0000       290.24923       99711.403       7897.4776     -0.19425000       2.2627500      0.25975000       342.06100       2.0238054    0.0083443362
       2169.0000       290.22834       99713.715       7843.5806     -0.71475010       2.7650000      0.37600000       342.50200       2.0747269     0.011791474
       2174.0000       290.24786       99731.931       7826.1977     -0.36450000       4.1472500      -1.0815000       341.89300       2.0663936     0.013245277
       2179.0000       290.25818       99731.288       7827.6176      0.28600000       3.5320000      0.90750000       341.97000       2.0147869     0.011153682
       2184.0000       290.24338       99729.192       7840.9562     -0.81450000       2.6605000     -0.18300000       342.31300       2.0902504     0.018715693
       2189.0000       290.25197       99733.155       7842.9494      0.10350000       2.2965000     0.013000000       341.75800       2.0444595    0.0096542167
       2194.0000       290.29441       99730.165       7889.3329       1.2567500       4.5162500     -0.84400000       342.06100       2.0228832    0.0064780481
       2199.0000       290.32427       99728.052       7883.0764      0.80975000       4.7110000     -0.87600000       342.08800       2.0420081    0.0088818181
       2204.0000       290.34482       99737.925       7821.4946     -0.20100000       5.3775000      0.35150000       340.82200       2.0011609    0.0072560985
       2210.0000       290.36894       99735.362       7807.2904      -1.3530000       3.7277500     -0.11450000       342.51400       2.0140844    0.0062953511
       2215.0000       290.39485       99717.212       7796.3252     -0.99650010       4.2642500      0.44725000       341.55200       2.0318201    0.0074296139
       2220.0000       290.47590       99730.801       7851.2969     -0.88175000       3.4497500     -0.12000000       341.76600       2.0438297     0.015591272
       2225.0000       290.50763       99732.245       7903.4459      -1.0047500       3.7580000     -0.35000000       340.89100       2.0975828     0.021205962
       2230.0000       290.52573       99722.352       8000.2875      0.63175000       4.5082500     -0.29150000       341.06900       2.0621928     0.010114719
       2235.0000       290.55665       99724.131       8072.6408     -0.60100000       3.3262500     -0.22850000       341.57500       2.0806707     0.013781039
       2240.0000       290.56054       99732.745       8153.0443       1.0315000       4.4382500     -0.30925000       341.79000       2.0713990     0.019178395
       2245.0000       290.55084       99730.856       8191.2260     -0.25975000       2.5447500      0.47575000       341.22500       2.0553698    0.0069518784
       2250.0000       290.54119       99727.744       8202.0931     -0.82825010       1.2825000     -0.81925000       340.89700       2.0790013    0.0074349908
       2255.0000       290.58429       99731.411       8192.4090     0.063250010       1.7405000      0.30975000       342.06900       2.0001146    0.0059890494
       2260.0000       290.48698       99733.319       8154.2580    -0.082000000       2.0147500      0.66400000       342.89200       2.0506359     0.010082604
       2265.0000       290.30050       99724.100       8070.8658     -0.22850000       2.8740000    -0.088250000       342.63700       2.0781377    0.0071220941
       2270.0000       290.12974       99731.160       7989.7606      0.13075000       1.5952500     -0.80275010       342.12800       1.9942730    0.0071826023
       2275.0000       290.02319       99732.720       7933.0831      0.13675000       2.0722500     -0.28700000       342.17300       2.0502982     0.011340650
       2280.0000       290.04474       99715.818       7913.6150     -0.31350000       1.7392500     0.082000000       342.15600       2.0388461    0.0093131105
       2285.0000       290.00617       99712.300       7861.6428    -0.064750000       2.1060000     -0.45850000       342.26300       2.2376341    0.0088268380
       2290.0000       289.95526       99714.950       7800.8219      0.56675000       3.3275000      0.17225000       342.08400       2.1151800     0.013364091
       2295.0000       289.91469       99727.660       7744.8403      0.54000000       2.1502500      0.44500000       342.59300       2.0650009     0.021971983
       2301.0000       289.72411       99713.210       7612.9418       1.9257500       2.9967500     -0.15100000       340.89400       2.0620996     0.011727078
       2306.0000       289.66913       99714.511       7559.8191       1.7615000       2.7785000     -0.49600000       341.41500       3.0028970     0.012759236
       2311.0000       289.68812       99719.322       7555.7508      0.42075000       1.0822500      0.11375000       342.29100       4.6622797     0.025148663
       2316.0000       289.69045       99714.318       7545.8938      0.50100000       1.4537500      0.47275000       343.23300       2.0515236    0.0086432444
       2321.0000       289.80940       99711.317       7580.9699       1.0725000       2.4732500     -0.32925000       341.53700       2.0388283     0.013615273
       2326.0000       289.82366       99716.236       7589.1082     0.013250000       1.9287500     0.015750000       341.36800       7.2803206     0.011606711
       2331.0000       289.74635       99716.627       7575.1971      0.65200000       1.9997500     -0.44125000       341.62300       2.4243900     0.013408138
       2336.0000       289.69561       99713.940       7572.3937     0.034750000       1.1782500     0.023750000       341.93900       2.9713259    0.0098603937
       2341.0000       289.58646       99721.013       7564.6568      0.37975000       1.4787500     -0.17175000       341.33500       2.0740181    0.0069865977
       2346.0000       289.52900       99727.723       7564.0002     -0.21900000       1.5342500    -0.083250000       341.52400       2.0193008    0.0068677382
       2351.0000       289.51048       99726.202       7557.6311      0.34575000       2.0055000      0.70550000       343.73600       1.9792155    0.0067050028
       2356.0000       289.49163       99724.186       7578.1796      0.20825000       1.7675000     -0.29875000       341.08700       2.1420216     0.013476317
       2361.0000       289.47190       99731.808       7611.2919      0.15400000       1.4035000      0.44475000       342.19200       2.0120787    0.0098078051
       2366.0000       289.49419       99732.355       7658.7748    -0.070250000       1.0087500     -0.44425000       342.66700       2.0276814    0.0084188569
       2371.0000       289.53940       99714.552       7768.0831      0.12125000      0.84075000    -0.036250000       341.46700       1.9618017    0.0059007483
       2376.0000       289.60126       99712.191       7820.3734    -0.076500010      0.68775000    -0.095500010       341.18000       1.9787129    0.0068690607
       2381.0000       289.74741       99728.546       7838.6543    -0.061500000      0.48500000     -0.23575000       341.15700       2.0075683    0.0080915038
       2387.0000       289.83712       99726.013       7878.2922    -0.033250000      0.27250000    -0.057250000       341.23000       2.1446983     0.012865905
       2392.0000       289.87673       99713.272       7863.6204      0.33850000      0.19175000      0.21425000       342.20700       1.9611781    0.0065942053
       2397.0000       289.92342       99715.069       7900.5422      0.27375000      0.95950010    0.0080000000       341.59500       2.1030937     0.012768651
       2402.0000       289.96456       99718.329       8028.9977     0.031750000       1.5585000     -0.25175000       341.64600       2.6083361     0.011469475
       2407.0000       289.95742       99713.305       8051.9705      0.33900000      0.94000010     0.014500000       341.92800       2.4396397     0.011129302
       2412.0000       289.91872       99712.301       8029.2532    -0.083000000      0.87775000     0.034500000       341.03600       3.0808114    0.0090180948
       2417.0000       289.89486       99717.220       8013.3178     -0.14175000      0.53950000     -0.26350000       341.28100       2.2026746     0.012689035
       2422.0000       289.78432       99718.323       7898.4268     -0.51925000      0.26175000     -0.20425000       341.58700       2.1097075     0.010164327
       2427.0000       289.77911       99713.386       7879.3502     -0.65550010      0.23600000    -0.096250010       341.39800       2.0105365     0.010418119
       2432.0000       289.83357       99712.486       7909.7854      -1.6090000      0.85425000     0.052500000       340.71700       2.0515002    0.0078384569
       2437.0000       289.91508       99717.434       7959.6224     -0.94550000       1.0165000     -0.38725000       342.11300       2.0384086    0.0084398286
       2442.0000       290.06431       99715.793       8057.7097      -1.2200000      0.93275000      0.62550000       342.95400       1.9958801    0.0074799050
       2447.0000       290.19888       99713.463       8153.6508      -1.8977500      0.67775010   -0.0062500000       341.02500       2.0624546     0.010578682
       2452.0000       290.41400       99724.885       8315.8594      -1.4725000      0.95375010     -0.40275000       340.99100       2.0184672     0.011830925
       2457.0000       290.51041       99728.440       8393.1227     -0.64950000      0.62475000     -0.28625000       340.70700       2.0688343     0.011594320
       2462.0000       290.54702       99715.724       8436.2087     -0.19275000      0.42675000    -0.012250000       340.92600       2.0941017     0.014485163
       2467.0000       290.57543       99712.892       8464.8233     -0.31675000      0.34300000      0.40200000       342.48800       2.0182499    0.0095846715
       2472.0000       290.50483       99721.139       8403.4979      -1.2100000     -0.10075000      0.25600000       343.27400       2.0618577     0.011658154
       2478.0000       290.48693       99721.065       8412.3685      -1.7815000     0.013500000     -0.28625000       340.89000       2.0599422     0.011045674
       2483.0000       290.53280       99715.087       8484.0263      -1.4622500     -0.20175000      0.11525000       341.27200       2.0737148     0.012265285
       2488.0000       290.48348       99714.788       8464.3993      -1.5387500    -0.049000000      0.11325000       341.83200       2.0417041    0.0086975712
       2493.0000       290.34950       99717.907       8395.2376      -1.5832500     -0.29425000    -0.012500000       341.88900       2.0536281     0.011505486
       2498.0000       290.32163       99713.642       8384.9544      -1.5037500      0.77475010      0.46850000       342.88000       2.0506826    0.0096991415
       2503.0000       290.33054       99702.125       8385.1166      -2.0580000       1.0910000      0.34700000       342.40400       2.0665754     0.012213832
       2508.0000       290.26467       99705.686       8314.4649      -1.7662500       1.3455000     -0.20925000       340.95400       2.0155940    0.0080176218
       2513.0000       290.23104       99717.142       8263.3104      -1.1217500     -0.25025000      0.28150000       342.22400       2.0593862     0.012172241
       2518.0000       290.17927       99714.891       8180.2062      -1.0280000      0.67300000      0.46050000       342.88200       2.0142435    0.0079899652
       2523.0000       289.99162       99713.485       7963.9030     -0.77550010      0.16875000      0.17775000       341.83500       2.0661058     0.011216210
       2528.0000       289.95344       99718.410       7877.1816     -0.71800010      0.65450000     0.013750000       341.04200       2.0545189     0.010607209
       2533.0000       290.05292       99717.330       7852.5251     -0.12675000      0.71425000      0.14275000       341.93900       2.0328588     0.010218764
       2538.0000       290.05670       99712.261       7848.8006    -0.088250000      0.24600000     -0.24100000       342.11400       1.9481863    0.0084094318
       2543.0000       290.04608       99712.905       7903.9900     -0.37600000      0.21675000     -0.17875000       342.75700       2.0114286     0.010533675
       2548.0000       290.05614       99717.802       7923.6985      -1.2255000    -0.062250000    -0.030750000       342.68000       2.0713451     0.014350726
       2553.0000       290.00865       99717.339       7948.3511     -0.60875000      0.38750000    -0.061250000       342.58400       1.9966953     0.012573366
       2558.0000       290.06293       99712.421       7995.1540     -0.62500000      0.30900000    -0.089000000       342.31200       2.0486243    0.0090071434
       2563.0000       290.21168       99713.620       8045.0395      -1.0535000     -0.25700000    -0.035750000       342.45900       1.9838832    0.0082476140
       2569.0000       290.32049       99719.624       8092.9376     -0.56150000      0.28825000      0.28575000       342.92100       1.9765566    0.0072831598
       2574.0000       290.43747       99716.273       8160.9988     -0.75425000      0.45475000      0.56725000       343.71900       2.0605876     0.011615087
       2579.0000       290.52969       99711.210       8209.8329     -0.86975000      0.63475000     -0.14725000       341.73200       2.0144916     0.011554133
       2584.0000       290.61449       99713.893       8233.4225     -0.43625000       1.1092500     -0.18200000       341.61400       2.0159393     0.010817111
       2589.0000       290.62830       99718.837       8254.9410     -0.69175000     0.087750000      0.23100000       342.72600       2.0410945     0.013610563
       2594.0000       290.60530       99716.298       8286.0342     -0.44475000      0.58000000     0.082500000       341.61800       2.0902149     0.017800259
       2599.0000       290.60648       99711.368       8305.4636     -0.93025000      0.83875010     -0.28450000       343.13200       2.0570327     0.012928730
       2604.0000       290.53986       99714.183       8295.1707      -1.4087500      0.42050000    -0.064750000       342.47400       1.9765726    0.0083359628
       2609.0000       290.53699       99719.148       8306.1169     -0.72200010      0.49350000      0.36575000       340.94600       2.0319732     0.010885012
       2614.0000       290.61282       99715.854       8353.8950     -0.74350010      0.83075000      0.32775000       342.35900       2.0149253    0.0099031682
       2619.0000       290.60522       99710.845       8331.2711     -0.78575000       1.2322500     -0.27450000       341.49900       2.0710359     0.015263910
       2624.0000       290.55413       99714.355       8267.1708      -1.2115000       1.2367500     -0.29525000       341.15300       2.0703536     0.015118323
       2629.0000       290.53417       99719.544       8234.1904     -0.54550000       1.6367500     -0.14575000       341.88900       2.0630061     0.011338688
       2634.0000       290.51528       99716.450       8185.5818     -0.36300000      0.63625000      0.18375000       342.44700       2.0449785     0.013970005
       2639.0000       290.46676       99711.402       8128.1809     0.059250000       1.6447500     -0.33225000       342.22900       2.0334746     0.014157443
       2644.0000       290.42550       99714.223       8091.2633     -0.56950000       1.1705000     -0.30800000       341.63800       1.9708213    0.0093562512
       2649.0000       290.34847       99719.188       8023.9301    -0.082750010       2.3790000     -0.15600000       341.64900       2.0834678     0.011602783
       2654.0000       290.18491       99715.813       7893.6343       1.1037500       3.0285000     -0.70125000       341.31400       1.9755041    0.0093934001
       2660.0000       290.16175       99709.815       7851.6080      0.28200000       2.7027500     -0.81250010       342.44800       2.0205322     0.024866450
       2665.0000       290.18890       99715.432       7847.6823       3.1860000       2.4455000     -0.61375000       342.81500       1.9825650     0.010353616
       2670.0000       290.22637       99720.221       7873.3457       1.0450000       3.4442500    -0.046750000       342.50600       2.0262740    0.0077487035
       2675.0000       290.29535       99715.212       7913.7613      0.99975000       2.7465000    -0.016500000       342.23700       2.0233422     0.013935693
       2680.0000       290.40604       99713.410       7997.7790      0.16100000       2.7045000     -0.20025000       341.36800       2.1307369     0.015410400
       2685.0000       290.45672       99716.608       8041.8232     -0.28950000       2.6760000      0.17975000       342.41000       2.0318591     0.010538783
       2690.0000       290.54023       99711.181       8071.3930       1.0545000       3.2572500    -0.029250000       342.96900       2.0162886     0.010395395
       2695.0000       290.57531       99703.938       8112.3667     -0.54400000       2.2952500      0.85050000       342.97800       1.9909526    0.0095063501
       2700.0000       290.56117       99699.139       8145.2212     -0.29075000       2.0525000     0.080000010       342.58800       2.0362407     0.013762540
       2705.0000       290.45076       99704.167       8146.2692      0.28475000       1.8870000      0.32075000       343.73200       2.0068007     0.013842311
       2710.0000       290.40007       99711.447       8157.9396       1.5050000       1.6187500      0.12375000       341.82700       1.9862467    0.0094384373
       2715.0000       290.34440       99716.404       8199.4551      0.92650000       1.5767500      0.35625000       342.69900       2.0161036     0.019929037
       2720.0000       290.25532       99709.970       8109.2131      0.60450010       1.8835000    -0.021500000       341.79700       1.9428645    0.0085888504
       2725.0000       290.26761       99714.835       8086.1664      0.65500000       4.3492500     -0.84250000       342.07300       4.3668699     0.018164172
       2730.0000       290.42065       99720.293       8084.3046    -0.051250000       2.3080000      0.46725000       342.72000       2.1352137     0.010396425
       2735.0000       290.50007       99715.351       8089.2933       1.5447500       2.3467500      0.48225000       343.73700       2.0119346     0.010038545
       2740.0000       290.57955       99710.422       8119.0910       1.0495000       1.5762500      0.67475000       343.14100       2.0284182     0.013141597
       2745.0000       290.71889       99717.120       8211.1591      0.59900000       1.7242500      0.12875000       342.88300       2.0177063    0.0094429781
       2751.0000       290.69208       99709.725       8235.1314      0.86850010       1.8417500       1.3230000       343.74200       1.9455421    0.0081414628
       2756.0000       290.74641       99702.902       8268.7964      0.67450000       3.7370000     -0.57350000       341.09200       2.1688818     0.016396664
       2761.0000       290.90894       99699.935       8317.5359       1.3457500       1.8882500     -0.37875000       342.30000       2.6461733     0.023316808
       2766.0000       290.97744       99705.096       8347.7272     -0.15975000       1.5525000      0.44700000       342.81500       2.0378000     0.012180302
       2771.0000       291.08044       99717.388       8384.6054      -1.2100000       1.8985000      0.85975000       343.06800       1.9999991     0.011581320
       2776.0000       291.08229       99716.163       8400.7535   -0.0017500000       1.9022500      0.43750000       342.68200       2.0811675     0.013508378
       2781.0000       290.90793       99711.239       8379.6326     -0.40300000       2.6157500     -0.60400000       342.69700       2.0777554     0.017455953
       2786.0000       290.82977       99716.157       8376.0868      0.44375000       3.2050000     -0.36300000       341.34900       2.3656539     0.012299303
       2791.0000       290.71502       99719.196       8367.6151     0.047750000       3.1632500      0.46200000       342.80000       2.3898205    0.0083980909
       2796.0000       290.67038       99714.225       8366.6566      0.55675000       3.2050000      0.16800000       342.03100       1.9779986    0.0084217033
       2801.0000       290.77648       99714.026       8401.6699       1.2265000       2.1652500     -0.51325010       340.94900       2.4622159     0.012344695
       2806.0000       290.76279       99716.872       8392.0825     -0.44100000       1.6332500      0.32650000       342.51600       2.0934693     0.014024887
       2811.0000       290.72897       99709.579       8385.8906     -0.56600000       2.0722500      0.35075000       342.46200       2.0841962     0.016071014
       2816.0000       290.65436       99702.739       8327.3051     -0.68150000       2.5862500     -0.53250000       341.20700       2.0294524     0.011168410
       2821.0000       290.41242       99702.964       8164.2009      -1.2252500      0.52325000     -0.25025000       342.17600       2.0400952    0.0094857867
       2826.0000       290.30842       99705.965       8081.4793      -1.0550000       1.0677500     -0.18450000       341.17300       2.0477464     0.012609345
       2831.0000       290.20338       99707.704       7969.3480     -0.33325000       1.0387500      0.21675000       342.14500       2.0090162    0.0081368577
       2836.0000       290.21330       99704.774       7934.1218     -0.49775000       1.5180000     -0.36550000       341.59800       1.9847199    0.0095481039
       2842.0000       290.51022       99704.754       8038.8326     -0.48225000       1.9080000      0.14300000       342.23300       2.0423229     0.014403298
       2847.0000       290.53713       99706.435       8053.4414     -0.53425000       1.6277500     -0.91625010       342.29300       2.0172577     0.011212611
       2852.0000       290.48718       99699.438       8065.9941      -1.2545000       2.8197500     -0.20225000       341.07400       2.0128054    0.0078999099
       2857.0000       290.45215       99698.550       8063.7852      -1.2922500       2.2920000     -0.42425000       341.16400       2.0224369     0.010636081
       2862.0000       290.21103       99713.264       7976.6762     -0.42700000       2.6105000     -0.39600000       340.77100       2.0125200    0.0082033330
       2867.0000       290.14493       99712.351       7974.9184     -0.38800000       2.0112500      0.20925000       342.30100       1.9800640    0.0090203256
       2872.0000       290.21207       99697.617       8021.5932     0.079000000       1.2022500     -0.32950000       340.97700       2.2693573     0.014629796
       2877.0000       290.25915       99693.003       8065.3243      0.18700000      0.96575000      0.10625000       340.89900       2.1426269    0.0097437096
       2882.0000       290.39601       99687.070       8175.3466      0.32625000       1.1667500     -0.93200000       341.12600       2.3864455     0.013125853
       2887.0000       290.42445       99682.947       8219.1963     -0.33500000      0.55925000      0.32050000       341.45900       2.1483228     0.011582662
       2892.0000       290.40028       99680.889       8225.5873     -0.28425000       1.1262500     -0.13075000       341.35000       2.0991784     0.012931218
       2897.0000       290.40684       99686.098       8243.9808     -0.43425000      0.95725010     -0.10300000       342.23700       2.0055056    0.0092309211
       2902.0000       290.31016       99700.081       8217.3616      -1.1762500      0.76350000     -0.20825000       342.19200       2.0587204    0.0083375112
       2907.0000       290.33834       99702.385       8236.4462     -0.12175000       1.0502500     -0.19575000       340.96200       2.0432932    0.0096554249
       2912.0000       290.52269       99703.184       8306.3285      -1.1150000      0.50850000     -0.47600000       340.97900       1.9689068    0.0097075745
       2917.0000       290.58484       99707.848       8336.3841     -0.24475000      0.82700000      0.42700000       342.52300       2.0641119     0.014834079
       2922.0000       290.63493       99708.330       8376.3836    -0.083750000       1.1307500      0.21800000       343.06300       2.0032880    0.0071396589
       2927.0000       290.67707       99703.946       8386.6263     -0.32500000       1.3960000    -0.090250010       341.42600       2.0970700     0.016264417
       2933.0000       290.63221       99698.717       8335.7181      0.12750000      0.75900010     -0.10775000       342.17700       1.9956066    0.0072092745
       2938.0000       290.65483       99701.397       8342.7464      0.64425000      0.77125000     -0.19275000       342.37100       3.8112103     0.010561934
       2943.0000       290.77577       99701.974       8384.1304      0.56575000       2.1797500     0.011750000       341.83100       2.3684094     0.015541978
       2948.0000       290.76126       99697.981       8378.1868       1.6155000       3.6830000      0.17025000       342.19600       3.6114668     0.010428802
       2953.0000       290.66182       99698.741       8364.4308       2.2257500       1.6987500     -0.13550000       342.43100       4.6319122     0.013406264
       2958.0000       290.63201       99702.667       8367.1747       1.7960000       1.8777500      0.25925000       342.03100       4.0425338     0.010479985
       2963.0000       290.55567       99702.076       8345.7353       2.1075000       2.6235000     -0.66825000       340.98200       9.0116109     0.014210595
       2968.0000       290.51837       99698.165       8330.5832       1.1525000       1.9647500     -0.28125000       341.17300       9.2052994     0.034292086
       2973.0000       290.58192       99699.932       8362.0588       1.4265000       1.9790000    -0.051000000       342.01200       9.9731459     0.012764318
       2978.0000       290.54282       99702.227       8338.4381       1.2952500       2.2162500     -0.73050000       341.45200       2.3387983     0.013990380
       2983.0000       290.45102       99695.630       8270.0189       2.1945000       1.2802500     0.072750000       342.75100       2.1819347     0.010986989
       2988.0000       290.34828       99692.809       8210.6503       2.4500000       1.3120000      0.25950000       341.78600       4.0566363     0.017333218
       2993.0000       290.17275       99701.319       8125.6678       1.9837500       2.5852500     -0.70900010       341.11900       2.7560518    0.0080848348
       2998.0000       290.08451       99701.411       8076.7969       1.7312500       1.7810000     0.091000010       343.24800       4.8254569     0.021921951
       3003.0000       289.96864       99688.297       8017.5102       1.6197500       2.0925000    -0.028750000       342.25700       2.2977517     0.014851597
       3008.0000       289.97622       99688.841       8008.0327      0.94900010       2.4830000      0.10350000       341.58000       3.0051780    0.0087153375
       3013.0000       290.13518       99702.023       8059.8943      0.93275000       1.9085000      0.29375000       342.92700       3.3829089     0.014266760
       3019.0000       290.18630       99700.419       8069.1007       1.4920000       3.1387500     0.043250000       341.21600       2.1207126     0.013096998
       3024.0000       290.27027       99693.482       8093.6155      0.85275010       3.2450000     0.051250000       341.55800       2.8793225     0.017314778
       3029.0000       290.26501       99697.235       8083.8285       1.4015000       2.4595000     -0.25350000       341.86600       2.7544439     0.010817219
       3034.0000       290.14094       99701.625       8031.4727       1.2067500       3.0340000     -0.61125000       341.33200       2.3640488     0.013730143
       3039.0000       290.12829       99698.761       8017.8393       1.2235000       4.0117500     -0.40850000       342.32400       8.4893163     0.013320288
       3044.0000       290.11680       99699.527       8004.5597       1.4415000       4.0080000     -0.34925000       341.46600       3.8655465     0.010245406
       3049.0000       290.18172       99703.451       8014.8902      0.35250000       3.1372500     -0.94050000       342.21700       2.0800196     0.012648873
       3054.0000       290.31346       99700.490       8024.8410      0.65825000       2.1657500     0.046500000       342.20400       2.0554423     0.010145605
       3059.0000       290.43983       99698.485       8099.1916      0.45875000       1.8715000      0.39775000       341.68400       4.2003361     0.016937517
       3064.0000       290.62471       99706.077       8218.4761       1.0480000       3.1287500    -0.020250000       342.43800       4.1392136     0.015758937
       3069.0000       290.75644       99708.241       8330.9509      0.69000010       2.5827500      0.34800000       341.75100       2.0853874    0.0096864989
       3074.0000       290.90803       99700.289       8518.2223     -0.30250000       2.9315000     0.052000000       341.42500       2.1227367     0.012490698
       3079.0000       290.96354       99697.047       8600.2615       1.0422500       3.4127500      0.37400000       343.23300       2.0903436     0.014460487
       3084.0000       290.99574       99701.646       8655.9319     0.022500000       2.4095000      0.24575000       341.72900       2.0756156     0.010459990
       3089.0000       290.92425       99699.967       8641.1582       1.2145000       2.7385000     -0.16600000       341.85300       2.0779837     0.010129135
       3094.0000       290.73125       99687.120       8547.8097      0.96300010       3.7380000     -0.28200000       341.20200       3.3920379     0.018162185
       3099.0000       290.60364       99690.457       8477.6123       1.1055000       4.2342500     -0.23875000       341.61900       2.3032154    0.0067162684
       3104.0000       290.37854       99709.648       8345.4767      0.28900000       3.1377500    0.0080000000       342.32300       2.2152311    0.0080203668
       3110.0000       290.33167       99702.338       8277.3614      0.81875000       1.2705000      0.45025000       343.14900       4.5811279     0.013716927
       3115.0000       290.38221       99688.748       8246.0900      0.63800000       1.6402500      0.19350000       342.33000       4.1696430     0.018212295
       3120.0000       290.45716       99693.532       8208.6657       1.0077500       3.1602500     -0.43475000       342.10900       3.7614091     0.010509283
       3125.0000       290.54650       99689.371       8209.0113     -0.13675000       2.4415000     -0.22525000       341.99200       2.2423118     0.017337804
       3130.0000       290.66178       99694.955       8207.6586      0.33575000       3.0047500     -0.44450000       341.24000       2.0780006     0.013861136
       3135.0000       290.75125       99702.253       8262.1014      0.96625010       1.2367500      0.54200010       342.89000       2.0769678     0.018991931
       3140.0000       290.91524       99698.217       8449.9233      0.21850000       2.6087500     -0.37275000       340.90800       2.3527105     0.026992620
       3145.0000       290.98131       99693.937       8549.1174      0.24575000       1.6165000     -0.46375000       342.32800       1.9996604    0.0089323936
       3150.0000       290.98588       99692.101       8622.7537      0.10875000       1.3390000      0.21050000       342.43900       2.1760674     0.021798831
       3155.0000       290.92149       99702.401       8708.6389      0.35075000       1.5495000     0.090000000       343.30600       2.0155255     0.011612650
       3160.0000       290.84670       99700.999       8722.7406      0.50325000       1.5182500      0.18975000       341.55400       2.0566003     0.010068121
       3165.0000       290.71186       99687.916       8665.4681      0.52325000       1.9687500     -0.50525000       342.11300       2.0928659    0.0092997941
       3170.0000       290.52251       99700.715       8555.9861      0.87925000       1.7647500   -0.0070000000       341.43600       2.1081516     0.015982319
       3175.0000       290.38961       99702.145       8468.0111     -0.44225000      0.74850000     0.059750000       341.79300       2.1171033     0.015689033
       3180.0000       290.24415       99692.230       8310.9884    -0.010500000       1.1745000      0.56750010       341.58700       1.9973330    0.0098927659
       3185.0000       290.13156       99693.895       8205.0626     -0.48300000       1.0715000      0.35550000       341.78500       2.1191863     0.017844721
       3190.0000       290.05591       99698.005       8131.2239     -0.70075010       1.3257500     0.045500000       342.04500       2.0365526    0.0088717731
       3195.0000       290.05102       99700.856       8106.1321     -0.60000000       1.3525000     -0.17550000       340.88100       1.9852722    0.0074542256
       3201.0000       289.96219       99698.454       8056.4025     -0.44550000      0.83925000     -0.36775000       341.00000       2.0004199    0.0077063524
       3206.0000       289.93479       99701.445       8019.4322    -0.075750000      0.81550000     -0.12450000       341.66900       2.0634712     0.012355407
       3211.0000       289.95865       99697.507       7977.6093      0.10025000      0.55525000     0.057000000       342.00000       2.0322000    0.0092871348
       3216.0000       289.94892       99693.833       7950.2156     -0.31775000      0.73850010     -0.19550000       341.29300       2.1955190     0.011303434
       3221.0000       289.94240       99701.915       7924.1462    -0.090000000      0.51675000     0.050500000       342.05500       2.1288104     0.021066848
       3226.0000       289.95247       99702.312       7923.3565     -0.43625000    -0.021750000    -0.078750010       341.49600       2.0046970    0.0073341147
       3231.0000       289.92902       99684.664       7961.2386     -0.14600000     0.084750000     -0.13475000       340.97500       2.0022951    0.0091143755
       3236.0000       289.94089       99682.314       7973.8424      0.23000000     -0.22300000      0.17700000       342.25000       2.0425447     0.013693977
       3241.0000       290.03833       99698.541       7978.7779      0.39250000     -0.11900000      0.36825000       342.79900       2.0589840     0.011500088
       3246.0000       290.06583       99697.010       8004.5839      0.58550000     -0.43125000     -0.32200000       341.62100       2.0092505    0.0080963712
       3251.0000       290.07009       99683.373       8041.5237      0.88325010      -1.0290000     -0.11150000       342.34300       2.0020178    0.0097098336
       3256.0000       290.05780       99684.750       8055.6585       2.9140000     -0.13300000     -0.12700000       341.72200       2.0447195    0.0076960450
       3261.0000       289.97551       99685.127       8081.2950      0.76450000      0.24600000     -0.21375000       344.57000       2.0732049     0.011704548
       3266.0000       289.93633       99683.433       8096.7494     -0.20025000       1.6515000      0.15375000       342.97000       2.0084017    0.0097912618
       3271.0000       289.89548       99700.008       8067.8648    -0.053750000      0.70400010    -0.072500010       342.21200       2.0417221     0.012850305
       3276.0000       289.88813       99704.178       8065.4128      0.32000000       1.6377500     0.033000000       342.06000       2.0555511     0.013349776
       3281.0000       289.90370       99684.327       8075.1095     -0.66300000       1.8247500     0.052250000       342.72200       2.0421027     0.013782354
       3286.0000       289.94642       99681.953       8097.1483      0.33975000       1.8487500      0.15450000       342.59800       2.0523354     0.011613473
       3292.0000       290.05810       99698.618       8138.9462     -0.63550000       2.1937500    -0.038000000       341.87600       2.0218452     0.011223514
       3297.0000       290.12851       99696.068       8178.1612      0.74075000       2.4505000     -0.84000000       342.36100       2.0128174    0.0099793351
       3302.0000       290.19080       99683.073       8236.5703     -0.47225000       1.7265000      0.11925000       343.86600       2.3060430     0.017903468
       3307.0000       290.28474       99684.801       8285.8525    -0.010000000       1.3352500    -0.033750000       342.86400       2.0356186     0.011744970
       3312.0000       290.38416       99682.018       8323.1346       1.2217500       2.6197500     -0.27050000       341.72700       2.0622026     0.014320106
       3317.0000       290.48710       99684.015       8380.5710     0.078500000       2.8562500     0.076750000       343.38200       2.0768988     0.013200626
       3322.0000       290.67390       99711.681       8474.0644      0.53500000       4.0725000      0.56675000       343.34000       2.3404780     0.015416973
       3327.0000       290.74862       99715.738       8516.3487      0.21725000       2.0380000      0.37275000       343.07400       2.0405800     0.011850644
       3332.0000       290.77915       99695.101       8583.9429     0.093750010       3.4702500     -0.14325000       341.78700       2.0987981     0.017356793
       3337.0000       290.76343       99693.233       8565.5604      0.43500000       1.3845000    -0.064500000       342.03000       2.0184507     0.010704031
       3342.0000       290.64248       99697.166       8452.2051       1.0570000       1.2450000      0.51775000       343.27500       3.6525942     0.017712327
       3347.0000       290.57215       99694.166       8372.1477       2.0147500       2.2365000     -0.18325000       342.01900       2.2403467     0.013313890
       3352.0000       290.45857       99695.903       8229.0647       3.0970000      0.67200010       1.0932500       342.53500       4.3479661     0.014518402
       3357.0000       290.41926       99696.182       8156.8205       2.5610000       2.3602500     -0.10800000       341.91300       3.9330535    0.0095470633
       3362.0000       290.44266       99682.999       8137.7561       1.9320000       2.1700000     -0.34950000       341.20400       3.6970641     0.022146714
       3367.0000       290.44614       99682.874       8100.3853       1.3945000       3.3377500    -0.073500000       341.83400       5.3324195    0.0097614365
       3372.0000       290.48192       99704.138       8065.6332      0.37300000       1.4527500      0.17500000       342.88700       2.4447470    0.0081882210
       3377.0000       290.51208       99702.866       8066.5722     -0.17675000       2.7585000     -0.11175000       341.69200       2.1062173     0.014257199
       3383.0000       290.58569       99683.653       8117.2244      0.11075000       1.5927500     0.088250000       342.28100       2.0327314     0.013966020
       3388.0000       290.53993       99684.654       8091.9057      0.62900000       2.0420000     -0.71450000       341.85300       2.0164648    0.0090639340
       3393.0000       290.43912       99685.229       8067.6959      0.64875000       1.4962500      0.40200000       342.53400       1.9982114    0.0083156829
       3398.0000       290.35650       99683.502       8025.2619       1.1192500       1.5665000     -0.21225000       341.68000       2.1279531     0.017869649
       3403.0000       290.15971       99696.178       7891.5868      0.64950000       1.3272500    -0.058250000       342.62300       4.4946320     0.013887313
       3408.0000       290.08545       99698.573       7844.7967      0.67700000       1.2450000      0.28575000       341.87300       5.0267993     0.014559587
       3413.0000       290.08962       99682.405       7828.2223       1.2752500      0.70300000      0.34625000       343.13800       4.3382850     0.015725681
       3418.0000       290.09191       99683.458       7851.7805      0.32250000       1.5045000     -0.48025000       341.05100       3.9266058     0.011670011
       3423.0000       290.11751       99704.197       7902.0706      0.73400000      0.55625000      0.31350000       341.85500       3.7378503     0.011958260
       3428.0000       290.17032       99701.333       7990.0301      0.80875000      0.80025010      0.54400000       342.87500       4.5793093     0.012918411
       3433.0000       290.28269       99685.763       8173.2792      0.14050000      0.64400010     0.055750000       341.57600       2.1007567     0.013241058
       3438.0000       290.33682       99683.439       8263.4021      0.28400000       1.2327500    -0.086000000       341.95000       2.0377522    0.0097134136
       3443.0000       290.42139       99673.182       8357.1520       1.0610000      0.83100000    -0.044500000       342.87800       2.0248132    0.0083298796
       3448.0000       290.41733       99672.152       8394.0675     0.048000000      0.83875010      0.78225000       343.85400       2.0545580     0.015486382
       3453.0000       290.33834       99693.573       8355.5322       1.0797500       1.6047500     -0.51200000       341.11000       2.0548082     0.014049841
       3458.0000       290.26635       99692.876       8331.8382     -0.42125000       1.1555000      0.71575000       343.23900       2.1287500     0.012894864
       3463.0000       290.11951       99678.229       8277.1575      0.56650000      0.69750010      0.33725000       342.82000       2.0623619     0.013685993
       3468.0000       290.05234       99672.294       8246.9240      0.11975000      0.14075000      0.38525000       342.97700       1.9637036    0.0086025200
       3474.0000       289.99461       99657.033       8205.5080       1.4597500      0.64825000      0.49575000       343.12400       2.0626278     0.011296255
       3479.0000       289.97195       99659.405       8182.0995      0.74525000       1.0415000    -0.046000000       342.69300       3.8871595     0.010693555
       3484.0000       290.00917       99676.990       8181.9933       1.4337500       1.7062500     -0.12750000       341.16600       4.5689550     0.016399395
       3489.0000       289.99058       99677.372       8154.8783       1.3602500       1.4070000     -0.10450000       341.83800       3.4835384     0.010351861
       3494.0000       289.92733       99673.138       8086.4730       1.5017500       1.1020000   -0.0072500000       342.31900       3.3621202     0.015387315
       3499.0000       289.96357       99679.906       8114.4925       1.5942500       1.1892500      0.24225000       343.40900       17.363325     0.065577606
       3504.0000       290.02579       99686.889       8186.9907       1.2725000       2.2167500     0.094250000       342.45600       4.0561010     0.021526060
       3509.0000       290.09256       99684.143       8226.7038     -0.38625000       3.2780000      0.37075000       342.47900       2.5084883     0.010031074
       3514.0000       290.21625       99686.374       8324.7040       1.5455000       2.1035000      0.78300010       341.72700       2.3820871     0.013570179
       3519.0000       290.34568       99687.576       8368.1848       1.7005000       3.5805000     -0.18275000       341.46600       2.3426653    0.0087143111
       3524.0000       290.49469       99670.994       8344.0097       1.7005000       4.4645000    -0.081000000       341.64200       2.0684514     0.013325677
       3529.0000       290.56739       99675.055       8379.3138       2.4602500       3.5720000     -0.39425000       342.71900       3.1189473     0.013057973
       3534.0000       290.68435       99705.064       8450.3037       2.0187500       3.5560000      0.40875000       341.78800       4.2143854     0.012596923
       3539.0000       290.67296       99703.210       8493.4242       2.8187500       1.9990000     -0.17075000       342.31500       2.5929571     0.012301280
       3544.0000       290.49598       99683.503       8524.3487       1.2570000       2.4800000      0.40125000       342.77100       2.2695974     0.014069128
       3549.0000       290.46368       99685.163       8579.2177       1.3047500       2.6092500     -0.82150010       342.47600       2.1054810    0.0075692907
       3554.0000       290.40200       99681.205       8644.5273       1.4700000       4.2507500      -1.0232500       341.89700       1.9965673    0.0065674170
       3559.0000       290.47647       99685.716       8689.1623       1.9170000       3.1065000     -0.45275000       340.96700       3.6314452     0.018227812
       3565.0000       290.70654       99716.542       8759.9540       2.8027500       3.3002500     -0.42350000       341.22000       2.7729813    0.0094808510
       3570.0000       290.84088       99687.464       8759.4093       1.6155000       3.3825000     -0.54300000       341.87900       2.1313308     0.011538411
       3575.0000       290.92690       99681.596       8753.7536      0.75250010       2.0932500      0.19150000       341.84000       2.3572080    0.0075751827
       3580.0000       290.90009       99685.833       8734.8864       1.2345000       2.3885000     -0.44050000       342.05600       2.1738330    0.0079705093
       3585.0000       290.90006       99683.573       8711.0689      0.58050000       3.1780000     -0.20725000       342.40600       2.8351373     0.018695138
       3590.0000       290.94513       99701.208       8662.1949       1.0347500       2.4685000      0.53825000       341.89000       2.1821950     0.018304624
       3595.0000       290.91926       99705.175       8630.5270      0.28650000       2.8352500    -0.075000000       342.61300       2.0977618     0.015329491
       3600.0000       290.85651       99699.295       8605.0942       2.1170000       3.1340000     -0.80350010       342.04300       2.0994844    0.0099669510
       3605.0000       290.77351       99671.240       8593.8682       1.5935000       2.3555000     -0.55625000       341.03900       2.1042684     0.015835124
       3610.0000       290.64847       99674.283       8538.5881       1.7872500       1.6645000     -0.29650000       342.25600       2.0069339    0.0088573789
       3615.0000       290.43940       99684.650       8473.9175       1.8077500       2.3640000     -0.17350000       342.02400       1.9914192    0.0075310918
       3620.0000       290.37415       99701.048       8417.9914      0.78200010       2.2817500      0.40200000       342.77200       2.0720328     0.011711653
       3625.0000       290.25508       99705.214       8343.5978       1.7782500      0.89450000      0.69400000       341.90900       2.2746660     0.011171113
       3630.0000       290.09419       99676.792       8256.0325      0.63650000       2.4050000     -0.51200000       342.27100       2.0359287    0.0080345149
       3635.0000       289.99385       99671.029       8199.8031      0.17175000       2.3190000     -0.51575010       341.39800       2.2340031     0.013070538
       3640.0000       289.90579       99673.877       8149.6199       1.3357500       1.8592500     -0.28675000       340.95900       2.1991124     0.011333443
       3645.0000       289.76808       99684.233       8070.1428       1.4927500       2.4522500     -0.33575000       341.29100       2.6202307     0.010248756
       3651.0000       289.83374       99702.475       8095.7596      0.64350000       1.3200000     0.011750000       342.10000       2.6744680    0.0097395415
       3656.0000       289.85361       99704.357       8112.5623     -0.57575010       2.0217500    -0.040750000       342.73600       2.0620307     0.011598009
       3661.0000       289.86249       99677.460       8141.1023     -0.13575000       1.9502500     -0.24475000       341.72300       2.0131654    0.0091112589
       3666.0000       289.90392       99670.971       8175.0531     -0.38575000       3.0300000   -0.0062500000       342.01500       2.0217095     0.011317620
       3671.0000       289.94059       99673.447       8198.3601      -1.5950000       1.9305000      0.72250000       342.29100       2.0285605    0.0087323136
       3676.0000       290.00300       99673.842       8255.2573     -0.11100000       2.7520000     -0.19125000       341.56700       1.9920123    0.0083999944
       3681.0000       290.12015       99691.577       8320.3584    -0.079250000       2.5005000     -0.59700000       341.46500       2.0631723     0.014133356
       3686.0000       290.21945       99693.829       8423.2078      0.55525000       1.3550000      0.78450010       342.93600       1.9449376    0.0081437154
       3691.0000       290.33217       99675.885       8604.5897      -1.4127500       2.0017500      0.26025000       342.59300       2.0934794     0.013796885
       3696.0000       290.42086       99673.238       8733.6357     -0.86925010       2.5247500      0.34650000       342.97000       2.0151212    0.0087859917
       3701.0000       290.52695       99673.429       8924.0654     -0.47350000       3.8732500     -0.47100000       341.58000       2.0374214     0.011600132
       3706.0000       290.57340       99673.717       8994.6087     -0.67075000       2.9922500     -0.19725000       341.04600       2.0838823     0.011123381
       3711.0000       290.54140       99693.034       8933.9615      -1.2230000       3.3487500     -0.15825000       341.74600       2.0787075    0.0099101571
       3716.0000       290.55125       99694.350       8913.1604     -0.92775010       2.2592500      0.22475000       342.05800       2.0036589    0.0086886201
       3721.0000       290.54398       99671.103       8844.3493     -0.55150000       1.5525000      0.55025010       342.30000       2.0207325    0.0076353747
       3726.0000       290.54525       99667.686       8776.4206       1.1347500     -0.37125000      0.20500000       343.01500       2.1083019     0.016425518
       3731.0000       290.59046       99667.428       8727.8252       1.2602500      0.73650000      0.29175000       342.63600       2.2324349     0.012061523
       3736.0000       290.60895       99667.979       8670.5561       2.0337500       1.4977500     0.017000000       342.59700       2.4525685     0.011341858
       3742.0000       290.59976       99693.096       8557.2831       2.5712500       2.8757500     -0.37175000       341.27500       5.1652927     0.012320102
       3747.0000       290.59960       99693.976       8489.3308       2.3010000       1.7235000     -0.34325000       341.91500       5.2664834     0.014831848
       3752.0000       290.58737       99669.526       8428.5635       1.8742500       1.3105000    -0.066000000       341.55900       6.0191175     0.017653773
       3757.0000       290.60122       99666.930       8401.8422       1.5090000      0.51425000     -0.23650000       341.08800       2.6996828     0.014361688
       3762.0000       290.61205       99664.971       8379.8654       1.3652500       1.3360000     -0.42650000       341.22700       5.0311987     0.016856756
       3767.0000       290.65913       99669.290       8403.5948       1.3930000       1.5027500     -0.42150000       341.09500       8.2039260     0.014843824
       3772.0000       290.79702       99702.520       8532.6462       1.5117500       1.3962500      0.23400000       341.98800       10.813839     0.020526738
       3777.0000       290.82596       99706.273       8559.3799       1.5517500       1.3627500     0.011250000       341.10600       7.7136549     0.016525066
       3782.0000       290.81581       99687.970       8569.5158      0.43075000       1.7262500     -0.27650000       341.12900       9.7261487     0.015292213
       3787.0000       290.80799       99683.929       8557.9684      0.36625000       1.3540000     -0.19325000       341.11100       4.4894312     0.017087314
       3792.0000       290.71088       99669.198       8448.7522   -0.0075000000      0.98775010     -0.35225000       341.51300       2.2444477     0.010744054
       3797.0000       290.67795       99666.298       8411.7512     -0.41100000      0.86575000    -0.017250000       341.76600       7.1005360     0.018270886
       3802.0000       290.68756       99684.419       8409.5904      0.14175000       1.0030000      0.21750000       342.49500       3.2372301     0.011461839
       3807.0000       290.70142       99688.354       8407.8931       1.0462500      0.57825010      0.51200000       342.11000       4.0636208     0.013923585
       3812.0000       290.72488       99688.453       8443.3139      0.84900000      0.50475000     0.033500000       341.88300       2.1918001     0.011626812
       3817.0000       290.75828       99685.296       8443.9534      0.16475000      0.80925010      0.40600000       343.05900       2.2816230     0.019000502
       3822.0000       290.83251       99669.317       8424.4868      0.89900000      0.94650010      0.53975000       343.69900       2.1538166     0.015719830
       3827.0000       290.86864       99667.877       8421.5253       1.0612500      0.80250000    -0.038750000       342.83800       4.4244670     0.016795599
       3833.0000       290.94332       99673.297       8419.7159       1.1962500      0.97750000      0.44225000       342.37900       3.2641877     0.016381982
       3838.0000       290.89181       99676.627       8396.6606      0.38725000       1.3935000      0.41050000       343.57200       2.4189036     0.014037204
       3843.0000       290.76286       99694.670       8399.8375       1.2572500       1.7850000      0.20300000       342.35900       5.9860123     0.014413546
       3848.0000       290.63430       99692.381       8337.0964       1.7415000       1.8992500     -0.68975000       342.03900       3.0314431     0.014231285
       3853.0000       290.37548       99669.968       8191.3916       2.4672500       2.1427500     -0.48425000       340.99100       4.4341433     0.017931997
       3858.0000       290.26187       99666.857       8120.2721       1.4662500       1.5887500     -0.20350000       341.05400       6.2219995     0.016099031
       3863.0000       290.19103       99662.165       8027.4067       1.3830000       1.7067500     -0.36425000       341.41600       5.5929179     0.017215434
       3868.0000       290.16563       99664.226       7999.8722       1.1375000      0.23775000     -0.18550000       342.51100       10.386214     0.030070572
       3873.0000       290.22934       99687.643       8040.8732       1.4487500      0.88750000     -0.32650000       342.51200       2.0958969     0.010515396
       3878.0000       290.26583       99688.809       8064.0914      0.97475000      0.93325010     0.096750010       343.05400       5.9565964     0.015319607
       3883.0000       290.32993       99677.475       8106.7812      0.20525000       1.3930000     -0.15875000       342.79300       2.1082578     0.031165031
       3888.0000       290.38044       99672.833       8153.2544      0.44925000       1.8965000     -0.43925000       341.43200       2.0257318     0.014792891
       3893.0000       290.44227       99657.059       8230.8941     0.046250000       1.6237500    -0.041750000       343.41500       2.0096153     0.012691130
       3898.0000       290.47628       99657.666       8254.7514    0.0025000000       1.1567500     0.060750000       342.07700       2.0028856    0.0095864885
       3903.0000       290.47649       99674.041       8243.4746     -0.65650000       1.3215000     -0.26150000       342.50500       2.1978777    0.0093380078
       3908.0000       290.52235       99678.417       8272.0129    -0.046500000       1.4505000      0.32100000       341.88300       2.0581978     0.015474196
       3913.0000       290.59403       99689.415       8292.4988     -0.59275000       2.6907500      0.28975000       341.95600       2.0472821     0.018702477
       3918.0000       290.61774       99686.493       8303.1691     -0.35375000       2.3715000     -0.58225000       341.03200       2.0285688     0.015428607
       3924.0000       290.65986       99663.793       8351.3173   -0.0032500000       1.0822500     -0.14200000       341.09000       2.0329750     0.013749962
       3929.0000       290.66274       99662.405       8363.5453     -0.14650000      0.52925000      0.13725000       342.53200       1.9791511    0.0084292140
       3934.0000       290.60577       99662.348       8335.6169     -0.44675000      0.93300000     -0.28900000       342.05000       2.0020191     0.011649480
       3939.0000       290.57587       99666.786       8317.6137     -0.42300000       1.2320000    -0.055750000       341.79500       1.9946589     0.011294389
       3944.0000       290.56252       99688.654       8313.4445     -0.65475000       1.1117500     -0.23625000       341.08200       2.0114723     0.011052718
       3949.0000       290.52399       99688.391       8285.7679      -1.1792500      0.76325010     -0.14325000       341.14900       1.9886918    0.0081612553
       3954.0000       290.44235       99677.504       8223.1067     -0.78625010      0.68850000     -0.48325000       341.42600       2.0372730     0.010160233
       3959.0000       290.42977       99670.775       8193.6693      -1.1357500      0.27625000   -0.0077500000       341.65700       2.0770640     0.018574930
       3964.0000       290.44178       99651.199       8172.9715      -1.0305000      0.44750000      0.22525000       341.41900       1.9792580     0.011276251
       3969.0000       290.45065       99653.418       8155.0789     -0.99225000      0.60375010    -0.060250000       341.62500       2.0226527     0.013626577
       3974.0000       290.51122       99669.314       8145.3228    -0.064000000      0.50475000     0.043000000       341.77500       1.9892371     0.012012016
       3979.0000       290.50382       99674.338       8139.2049      0.75875000       1.1122500     0.042000000       342.24500       1.9239395    0.0093716756
       3984.0000       290.47180       99689.735       8147.2700      0.82800010       1.5822500     -0.11400000       341.44200       4.6940462     0.022980372
       3989.0000       290.41476       99686.758       8127.6947    -0.064000000       1.3077500     -0.10875000       342.74100       5.7761504     0.017570435
       3994.0000       290.30456       99665.146       8098.9475     -0.22500000      0.67950000     -0.10825000       341.87700       2.0374796     0.014743996
       3999.0000       290.25352       99659.912       8076.0056      0.45625000       1.0867500      0.26275000       341.93800       2.0391051     0.016883130
       4004.0000       290.18428       99651.041       8016.3361      0.35425000       1.6870000      0.34875000       342.99700       2.1015449    0.0092999745
       4009.0000       290.18117       99655.426       8029.2365    -0.021750000       1.8590000      0.26275000       343.06600       1.9264038     0.011761266
       4015.0000       290.25611       99676.521       8098.1343      0.22850000       2.0150000    -0.041000000       342.80200       2.2067346     0.011217606
       4020.0000       290.26882       99687.046       8134.0928     0.086000000       1.4812500      0.62100010       342.96100       1.9749780    0.0087526274
       4025.0000       290.26105       99688.779       8154.7197      0.74475000       2.7627500     -0.51000010       342.35200       1.9934221     0.019017272
       4030.0000       290.19939       99668.153       8135.1790       1.0095000       2.1340000     -0.16825000       341.91000       2.1630175     0.016178891
       4035.0000       290.14988       99662.740       8116.0241       1.8475000     -0.18175000     0.013250000       342.96300       2.5673950     0.011249496
       4040.0000       290.08469       99662.252       8094.8076       1.3022500       2.0317500    -0.038750000       343.78800       2.2758491     0.011853454
       4045.0000       290.04351       99662.734       8074.4897       2.7552500       2.7000000      0.43550000       342.39300       4.4243418     0.013469478
       4050.0000       290.01461       99668.118       8050.5146       2.1842500       3.1632500     0.019750000       341.37700       2.8564543     0.012254470
       4055.0000       289.98690       99689.079       8006.7540      0.72200010       2.6907500     -0.29300000       341.08800       2.6289658     0.014429940
       4060.0000       289.99974       99687.271       8008.0630      0.46900000       1.7245000     -0.28125000       341.78100       4.5967661     0.015121727
       4065.0000       290.05043       99674.750       8027.0600       1.3490000       2.4810000    -0.090500000       341.31300       2.2761005     0.016648447
       4070.0000       290.08510       99673.899       8072.7529       1.0747500       1.9377500      0.11525000       341.58500       2.0073012    0.0095534840
       4075.0000       290.10674       99669.814       8102.1675      0.27600000       1.5535000     0.025000000       342.61500       2.0067637     0.016881950
       4080.0000       290.08513       99666.800       8099.7738     -0.83975010      0.52800000      0.39875000       342.54300       2.0232078     0.016225485
       4085.0000       290.09381       99669.647       8130.6830     -0.38550000       1.7590000    -0.024750000       342.70300       2.0436294     0.017810084
       4090.0000       290.11479       99673.717       8175.2155     -0.15350000       2.3567500     -0.57075000       341.50700       1.9220671     0.010569903
       4095.0000       290.15002       99676.012       8240.4202      0.92925010       3.2515000     -0.61075000       342.60700       1.9833833     0.012586948
       4100.0000       290.17051       99674.006       8251.5032     0.049750000       4.3082500     -0.12675000       342.61700       4.8809897     0.014154153
       4106.0000       290.20895       99676.862       8268.8276     -0.65125000       2.7692500      0.38375000       342.78100       1.9782193     0.015099569
       4111.0000       290.19951       99658.121       8217.2513       1.0512500       5.0242500     -0.15950000       342.06800       2.0488884     0.014651711
       4116.0000       290.19931       99651.461       8190.7493      0.40100000       4.2585000     -0.80400000       341.65100       1.9819757     0.012631137
       4121.0000       290.20001       99650.497       8204.5471     -0.64425000       4.3322500     -0.17975000       341.96700       1.9592453     0.011763900
       4126.0000       290.20001       99654.032       8182.9594      0.97000000       1.9560000      0.38350000       342.81800       2.0185560     0.012179633
       4131.0000       290.18601       99673.795       8121.5683       1.6275000       3.5395000     -0.40025000       341.02300       1.9916699     0.012381925
       4136.0000       290.19720       99678.279       8091.6231     -0.21400000       2.2392500      0.11750000       342.98400       2.0786311     0.025486345
       4141.0000       290.21876       99682.039       8027.8248      0.28325000       1.6055000     -0.17725000       342.54200       2.0381173     0.019677885
       4146.0000       290.25020       99678.339       8029.7700      0.16150000       1.5952500      0.16975000       342.56800       2.0300029     0.012823520
       4151.0000       290.32329       99648.947       8129.1065      0.52925000      0.60325000      0.22575000       343.64200       2.0155595     0.015366906
       4156.0000       290.36220       99640.630       8161.4608      0.96950010      0.70850000    -0.093250010       342.28800       3.7273052     0.010835491
       4161.0000       290.37616       99639.354       8182.1446       1.4630000      0.54225000      0.11700000       342.21600       1.9790047    0.0099242175
       4166.0000       290.40631       99643.048       8217.0202      0.78775010      0.77600000      0.40025000       342.34100       2.8816031     0.018130020
       4171.0000       290.42027       99669.064       8204.5588       1.5410000       1.1362500     0.011500000       341.29900       2.4413534     0.012670006
       4176.0000       290.45150       99679.456       8225.5846       1.9542500      0.96975000     0.081750010       342.99600       5.4757183     0.015677917
       4181.0000       290.49500       99688.486       8293.1058       2.7352500      0.60300000     -0.51050000       341.51200       5.8410171     0.012745027
       4186.0000       290.55670       99688.648       8353.5980       2.0305000      0.35150000      0.47375000       342.34700       9.3621301     0.023485346
       4191.0000       290.62978       99671.196       8374.0679       1.8445000      0.53800000    -0.078500000       342.71000       8.1268627     0.019526666
       4197.0000       290.72924       99661.944       8493.3870       1.2482500       1.2572500     -0.33025000       341.36100       10.046011     0.030303100
       4202.0000       290.86837       99647.777       8679.0610      0.73475000      0.67800000     -0.15650000       341.27300       6.9688664     0.012629703
       4207.0000       290.94149       99646.955       8809.0999      0.39400000      0.46525000     0.031750000       342.18300       7.7067067     0.015344519
       4212.0000       290.97766       99661.751       9023.8768      0.30000000       1.3175000      0.14825000       342.70300       6.3472331     0.015823535
       4217.0000       291.02345       99667.677       9094.4257      0.79700010       1.3190000     -0.12200000       342.16700       2.4885960     0.024319530
       4222.0000       291.05096       99682.904       9039.6278      0.49150000       1.4542500     0.086500000       342.68100       2.2889276     0.013471120
       4227.0000       291.05725       99683.800       9011.3583       1.3727500       2.2065000     -0.25925000       341.36800       3.4041593     0.015764693
       4232.0000       291.07196       99671.795       8898.4307       1.3327500       1.6170000      0.14400000       342.44800       3.3450481     0.012191420
       4237.0000       291.05441       99662.952       8837.3370       1.5095000       1.8170000     -0.10600000       341.22900       4.9151455     0.010850057
       4242.0000       290.95526       99641.972       8780.1489       1.2450000       1.2542500     -0.31725000       341.24800       2.1600715     0.022015286
       4247.0000       290.93283       99635.884       8765.7997       1.4047500       1.4247500    -0.078000000       341.65200       3.8407307     0.014655997
       4252.0000       290.98261       99635.267       8816.6533       1.5245000       1.8980000      0.19025000       342.09700       1.9635806     0.010054258
       4257.0000       290.94567       99640.138       8801.8562      0.34325000       3.1212500     -0.10625000       342.74400       2.0297053     0.014261813
       4262.0000       290.89390       99660.763       8807.1998      0.72025000       2.4100000     -0.24100000       342.10700       2.0948012     0.013490755
       4267.0000       290.83696       99669.931       8760.6961     -0.34250000       1.9902500     -0.18225000       342.36400       2.0950096     0.013933870
       4272.0000       290.69087       99681.515       8636.3973      0.42575000       3.0595000     -0.17200000       341.61000       2.0458560    0.0086176578
       4277.0000       290.60862       99683.537       8533.6517      0.12825000       2.3500000     -0.39700000       342.82000       1.9854969     0.010196515
       4283.0000       290.53671       99672.843       8367.5236     -0.15425000       1.4265000      0.40825000       342.78100       2.6431700     0.012419749
       4288.0000       290.53551       99667.113       8304.5397      0.32875000       2.8457500     -0.41650000       342.84500       2.0135334     0.011997628
       4293.0000       290.59709       99652.666       8265.9785    -0.098000000       2.7342500   -0.0042500000       342.35400       1.9926120     0.013465852
       4298.0000       290.60714       99652.743       8247.5981      0.15175000       1.7537500     -0.35925000       342.29300       1.9994348     0.014929417
       4303.0000       290.66780       99663.037       8302.1542      0.47175000       1.5915000      0.10700000       342.87600       1.9895498     0.012173157
       4308.0000       290.65874       99667.635       8316.8300      0.53950000       1.6427500      0.51525000       342.95500       2.0708568    0.0094214066
       4313.0000       290.54792       99680.030       8312.7115      0.88700000       2.0302500     0.086500000       342.60400       2.5534663     0.010910647
       4318.0000       290.53048       99684.164       8330.7882       1.1420000       3.2702500     -0.19650000       342.17500       2.2308503    0.0096032638
       4323.0000       290.58912       99682.748       8389.6747     -0.84100000       2.9447500     -0.32950000       341.98100       2.0781533     0.016655227
       4328.0000       290.53015       99679.533       8376.9381      0.12550000       2.0537500      0.16750000       342.65800       1.9825260    0.0093438317
       4333.0000       290.40970       99675.299       8315.6898      0.22675000       2.5450000     -0.51450000       341.84800       2.0921132     0.014548845
       4338.0000       290.37629       99666.459       8308.8186      0.83175000       1.7950000     -0.19250000       341.94900       2.2105683     0.014731372
       4343.0000       290.29890       99645.189       8288.7551      0.77000000       1.4295000      0.46325000       342.99100       2.0078412     0.013241980
       4348.0000       290.26710       99639.580       8269.5817      0.83475010       2.2480000     0.077500000       342.95600       2.2478902    0.0097364542
       4353.0000       290.34563       99635.665       8293.7868       1.9275000       2.7222500    -0.029250000       342.02900       4.8810347     0.011708307
       4358.0000       290.36927       99640.435       8296.7144      0.81750010       2.7227500     -0.63925000       341.93200       4.1536051     0.012064916
       4363.0000       290.33051       99661.471       8240.0818      0.39700000       1.8675000      0.30200000       342.26400       3.6479220     0.012142643
       4368.0000       290.35356       99671.892       8256.4088      0.44550000       2.2997500      0.71950000       342.83700       2.1050483     0.014151911
       4374.0000       290.43993       99688.232       8339.8922       1.4975000       2.0942500      0.28575000       341.99300       1.9630712     0.011790611
       4379.0000       290.49016       99687.920       8386.6979       1.6682500       1.4905000     0.040250000       341.58600       2.9798291     0.010450480
       4384.0000       290.57711       99677.430       8461.0991       1.4045000       1.9725000     -0.53025000       341.50500       4.9228853     0.015528016
       4389.0000       290.55252       99670.714       8484.4130       1.0342500       2.1877500     -0.19525000       341.48200       2.4648634     0.013634111
       4394.0000       290.47292       99656.540       8487.5481      0.50150000       1.4990000      0.33325000       342.06800       3.3679320     0.012126110
       4399.0000       290.40553       99647.503       8466.8050     0.069500010       3.4595000     -0.20800000       341.81300       2.3249603    0.0088997718
       4404.0000       290.24562       99636.414       8397.7722      0.66125010       1.8915000    -0.085000000       341.79200       4.6644992     0.015184984
       4409.0000       290.19184       99640.601       8377.5678      0.83150010       1.9607500     0.011250000       342.62300       2.0884393     0.011395508
       4414.0000       290.21583       99652.209       8372.0442     -0.14325000       1.8875000      0.75025000       343.72400       2.2122513     0.012044171
       4419.0000       290.16668       99660.068       8331.5025      0.49900000       2.5677500     -0.50300000       342.38800       2.0463421     0.014885631
       4424.0000       290.10850       99681.586       8299.9708     -0.10900000       2.3505000      0.22325000       342.47700       2.0730637     0.015091617
       4429.0000       290.06857       99687.290       8252.2305       1.9215000       3.9045000     -0.47575000       342.02500       2.0656833     0.010949968
       4434.0000       289.99359       99682.992       8153.2892       1.7557500       3.7525000      0.13800000       341.53000       2.4012222     0.021566639
       4439.0000       289.97083       99677.445       8110.0627      0.11775000       2.6415000     -0.57625000       341.85800       3.2337307     0.013991908
       4444.0000       289.99973       99668.298       8099.9172       1.1780000       2.4415000      0.21475000       342.96600       2.5251918     0.018257961
       4449.0000       289.99962       99658.598       8073.2175       1.2492500       3.4307500     -0.12225000       342.42700       3.6805148     0.011123554
       4454.0000       289.97207       99638.536       8029.0051      0.27500000       3.0352500      0.59200000       342.00500       2.6269754    0.0093904420
       4459.0000       290.02917       99634.989       8057.3988       1.4667500       5.8330000     -0.93525000       341.58600       1.9928027     0.013510332
       4465.0000       290.16181       99637.488       8134.6677       1.0330000       3.5175000     -0.10825000       341.81500       1.9886583     0.013861185
       4470.0000       290.19440       99656.521       8198.6845      0.83150010       2.5587500     -0.31375000       342.47500       3.2834427     0.015643972
       4475.0000       290.21839       99666.895       8250.3974       1.3065000       2.9205000     -0.57450000       342.34700       1.9922241     0.015412878
       4480.0000       290.12947       99678.775       8253.4242     -0.24875000       3.6117500      0.31700000       342.39500       1.9644201     0.012702087
       4485.0000       290.08778       99683.227       8263.1822       1.4930000       4.1815000      0.62825000       342.48300       2.4717620     0.017447751
       4490.0000       290.10022       99678.859       8298.4710       1.4790000       4.6425000     -0.20650000       342.15600       2.1716375     0.016724202
       4495.0000       290.10020       99672.278       8312.2652       1.3382500       4.6050000      0.34925000       341.90100       2.3894874     0.012395779
       4500.0000       290.10012       99661.976       8311.8004       1.1632500       3.1315000    0.0030000000       342.44200       2.3011915    0.0099219480
       4505.0000       290.09380       99644.490       8287.1601     -0.21700000       3.6645000   -0.0047500000       342.70700       2.3841004     0.011150490
       4510.0000       290.11536       99636.719       8282.7790      0.50700000       3.9545000    -0.050500000       342.48900       1.9510490     0.010696293
       4515.0000       290.15561       99626.674       8275.4469      0.20325000       2.9605000      -1.0627500       342.49700       1.8957141    0.0093990563
       4520.0000       290.12448       99636.391       8253.8390      0.65075000       2.4575000     0.044750000       342.20800       2.2246754     0.014539888
       4525.0000       290.14270       99644.132       8258.2873       1.2982500       2.9587500     -0.33000000       342.29000       2.6335626     0.013209963
       4530.0000       290.17492       99662.001       8277.3077       1.5645000       2.7457500     -0.32700000       341.71500       2.4407621     0.014834265
       4535.0000       290.19345       99672.315       8293.8751      0.74950000       2.5767500      0.30825000       342.43500       2.1601251     0.013865342
       4540.0000       290.22426       99678.922       8319.7506       1.7640000       1.1977500      0.38875000       343.10400       1.9869828     0.011446039
       4545.0000       290.29953       99682.843       8371.5817      0.39525000       2.1580000     -0.10250000       342.93900       1.9933318     0.017184073
       4550.0000       290.35967       99680.225       8407.8008       1.0172500       3.7720000     -0.70625000       342.44400       2.0113470     0.010555537
       4556.0000       290.39785       99670.276       8440.2022      0.28925000       2.5145000     -0.23675000       342.84000       1.9690746     0.010213036
       4561.0000       290.60614       99653.248       8480.7668     -0.34325000       4.2382500      -1.1635000       342.20100       1.9303714    0.0094722572
       4566.0000       290.73593       99642.278       8537.0767      0.63250010       5.1955000     -0.82700000       342.01000       1.9904138     0.012141962
       4571.0000       290.92480       99625.354       8616.1550       1.3762500       4.8102500      0.24100000       342.31000       2.0788632     0.019120293
       4576.0000       290.99583       99621.205       8680.7798       1.5490000       2.9930000     -0.24725000       341.99300       2.0159434     0.014892731
       4581.0000       290.92206       99630.060       8781.1827      0.14075000       2.5665000      0.30450000       343.03400       2.0051857     0.012490152
       4586.0000       290.90094       99635.238       8826.4664       1.5830000       4.6072500    0.0010000000       342.28800       2.0184961     0.014262118
       4591.0000       290.79036       99647.727       8829.3495       2.8997500       4.8625000    -0.079000000       342.48400       2.0206572     0.018357743
       4596.0000       290.77565       99657.546       8827.6924     0.012250000       5.3055000    -0.069250000       341.11800       2.0098871     0.014353624
       4601.0000       290.88199       99665.985       8798.4094      0.10200000       3.9857500      0.34900000       342.03700       1.9438140     0.010493967
       4606.0000       290.91095       99671.874       8757.2398     0.061750000       2.3407500      0.34525000       342.20900       2.0101803     0.014958989
       4611.0000       290.94648       99681.311       8694.0359      0.96000000       3.0290000     -0.40650000       341.90500       2.0217965     0.010330457
       4616.0000       290.96450       99682.953       8641.9093     -0.74975000       4.6775000     -0.13525000       342.08000       2.0020775     0.012379849
       4621.0000       290.90969       99677.571       8574.7417       1.6477500       3.5185000     -0.62875000       341.95800       2.0546395     0.016300349
       4626.0000       290.89121       99670.174       8518.0225    -0.067500000       1.9207500      0.27100000       342.79000       1.9411507     0.010080012
       4631.0000       290.89964       99653.674       8465.4668      0.61500000       5.3390000     -0.21575000       342.07700       2.0058615    0.0088781813
       4636.0000       290.89937       99642.808       8430.0975     -0.69175000       3.4732500      0.51825000       342.24100       2.0259352     0.010951872
       4641.0000       290.91386       99625.847       8405.8706     -0.85475000       2.6100000      0.67425000       342.49500       1.9996552    0.0083235876
       4647.0000       290.89866       99621.774       8379.3781      0.40725000       2.0387500     -0.20275000       342.40800       2.0563660     0.021716051
       4652.0000       290.91285       99631.054       8405.3685      0.79225000       3.7102500      0.57050000       342.34100       2.0195375     0.015401542
       4657.0000       290.83827       99636.798       8369.2865      0.98475000       2.2217500    -0.094000000       342.64400       2.0128888     0.013309817
       4662.0000       290.66474       99656.619       8291.0460     -0.59950000       4.6895000     -0.14100000       342.12900       2.0596061     0.017519990
       4667.0000       290.55560       99659.293       8228.2689       1.9225000       4.1985000     -0.27750000       341.78300       2.0051920     0.010982454
       4672.0000       290.36960       99644.554       8087.0242     -0.20450000       4.0587500     -0.43550000       341.52700       2.0519653     0.023684725
       4677.0000       290.29861       99644.315       8060.2426      0.22525000       3.0020000    -0.026750000       341.75200       2.0317720     0.011323911
       4682.0000       290.30167       99640.148       8111.6885     -0.55500000       4.5150000     -0.16600000       341.80900       2.0038455     0.017766943
       4687.0000       290.34711       99644.046       8143.4689    -0.066000000       3.3130000     0.069500010       341.79600       2.0509055     0.017146912
       4692.0000       290.46974       99670.252       8237.0175      -1.4560000       3.0042500      0.65725000       341.91200       2.0749768     0.024269992
       4697.0000       290.58777       99675.167       8302.3436      0.39850000       3.2555000    -0.056750000       342.24700       1.9768664    0.0084896113
       4702.0000       290.77555       99671.557       8309.3264     -0.53250000       3.1777500     -0.36675000       342.01300       2.0187052     0.011481480
       4707.0000       290.91255       99664.754       8392.2577     -0.73675000       3.6582500     -0.57650000       342.02600       2.1314535     0.018482538
       4712.0000       291.04869       99639.079       8533.7247      0.20950000       2.0975000   -0.0057500000       343.08800       2.0515002     0.017853343
       4717.0000       291.15038       99629.673       8658.3043      0.82775000       3.1670000     -0.38950000       342.36100       2.1017862     0.020426312
       4722.0000       291.24185       99625.588       8887.8639       1.7542500       2.8507500      0.31350000       342.71000       2.0771526     0.013431071
       4727.0000       291.28055       99622.831       8965.1844      0.73550000       3.4567500      0.11600000       341.66100       2.0487815     0.014268817
       4732.0000       291.24397       99625.896       8952.4852      0.85925010       2.6405000     -0.57975000       342.39400       2.0925432     0.016662501
       4738.0000       291.25625       99633.175       8930.5314      0.47525000       3.0107500     -0.10125000       342.14700       1.9937610    0.0091166508
       4743.0000       291.25448       99641.012       8809.7932    -0.038750000       3.9612500      0.16525000       341.75300       2.0255740     0.014255436
       4748.0000       291.24460       99650.351       8729.0866      -1.0522500       3.8897500      0.38700000       342.22200       2.0669407     0.015702570
       4753.0000       291.23508       99670.853       8627.9506      0.87350000       2.5195000      0.24250000       342.23900       2.0240279     0.013942417
       4758.0000       291.26125       99675.643       8599.1514      0.54300000       2.7867500     -0.31625000       342.15500       2.0091809     0.011205194
       4763.0000       291.26224       99671.763       8577.4950       1.4680000       4.7205000     -0.39600000       341.82200       2.0434472     0.012111756
       4768.0000       291.32036       99670.562       8600.6175       1.4230000       3.6190000     -0.59950000       342.38000       2.0327786     0.013934978
       4773.0000       291.51552       99661.645       8754.3386     -0.71850000       3.2237500     -0.68050000       342.00500       2.0593538     0.012942640
       4778.0000       291.53382       99657.256       8771.5790     -0.76925000       4.3475000     -0.25250000       341.28800       2.0829748     0.021686364
       4783.0000       291.53822       99658.348       8773.2050      0.96650000       4.1365000     -0.81875000       342.16200       2.0520621     0.011796720
       4788.0000       291.40805       99653.110       8693.3685     0.020750000       2.5950000      0.69025000       343.06400       2.0348168     0.010075672
       4793.0000       291.04571       99642.808       8480.0275      0.40025000       3.6192500      0.12350000       342.28200       2.0275935     0.010571902
       4798.0000       290.88358       99635.805       8369.2048     -0.31700000       2.8710000     -0.30550000       341.71500       2.0302600     0.012139661
       4803.0000       290.69280       99625.150       8235.6571     -0.35025000       2.2985000      0.37800000       342.77600       2.0600947     0.013869470
       4808.0000       290.62696       99622.053       8166.5979     -0.37000000       2.4472500     -0.42125000       342.18800       2.0212516     0.012647546
       4813.0000       290.73007       99622.360       8165.1585      0.54875000       3.0125000    -0.093750010       342.16000       2.0054793     0.012515492
       4818.0000       290.76701       99626.425       8156.3393      0.85950010       3.0582500     0.019000000       342.83000       2.0605130     0.015169268
       4824.0000       290.84834       99639.034       8172.2757      0.93275000       3.0852500     -0.81225000       342.40100       1.9795874    0.0091287104
       4829.0000       290.87949       99646.119       8182.4377      0.90950010       2.5367500     -0.41500000       342.03300       2.0644938     0.021233028
       4834.0000       290.90343       99655.582       8215.1743      0.19400000       1.8567500     -0.12200000       342.42300       2.0679665     0.014071889
       4839.0000       290.91486       99659.875       8221.0639    -0.074000000       2.4277500     -0.28975000       341.19600       2.0559122     0.013827892
       4844.0000       290.90960       99660.781       8214.5211       1.2072500       1.6725000     -0.19450000       342.76300       2.0558473     0.012427218
       4849.0000       290.89129       99661.983       8210.7874       1.3707500       2.8645000     -0.33500000       342.17000       2.0193631     0.010161483
       4854.0000       290.84515       99660.301       8183.7316      0.73200010       2.5142500     0.082000000       342.70000       2.0796288     0.014742771
       4859.0000       290.84384       99660.267       8204.1763       1.5380000       2.0875000     -0.25800000       342.20500       2.0139589     0.012200083
       4864.0000       290.87127       99660.474       8258.5250     0.096500000       2.0485000      0.28400000       343.44800       2.0543957     0.014425456
       4869.0000       290.82380       99660.533       8270.5313      0.68450000       3.5512500     -0.60850000       341.18300       2.0186907     0.011776218
       4874.0000       290.76492       99661.184       8294.3547      0.51225000       2.9222500      0.29450000       342.79900       2.0096795     0.010932800
       4879.0000       290.71626       99659.317       8294.6736      0.44525000       3.1502500     -0.67100000       342.19300       1.9907352    0.0097754333
       4884.0000       290.59007       99657.344       8245.5597      0.14225000       2.0357500      0.13475000       342.77100       2.0181245     0.010112660
       4889.0000       290.55578       99651.590       8241.0798       1.1710000       2.2015000      0.11725000       342.53000       2.0597156     0.022147755
       4894.0000       290.59151       99641.784       8263.4551      0.87825010       3.4042500     -0.57050000       341.92800       2.0162475     0.011953954
       4899.0000       290.61033       99634.897       8262.8593      0.98875000       2.3262500     -0.14025000       342.84100       2.0532553     0.011946572
       4904.0000       290.66361       99624.413       8276.0284      0.31325000       2.1805000     0.022000000       342.05700       2.0296197     0.010504244
       4909.0000       290.64559       99622.170       8240.8424      0.76250000       1.5440000    0.0040000000       343.07900       2.0418796     0.012917528
       4915.0000       290.60579       99624.881       8161.6099       1.8527500       2.5977500      0.15600000       342.69600       2.0173744    0.0097709822
       4920.0000       290.50029       99625.716       8075.6417       1.1195000       2.7540000      0.24625000       342.85400       2.0468874     0.014955041
       4925.0000       290.47474       99629.523       8041.0141       1.1242500       2.7175000      0.51075000       343.28600       2.0323868     0.011407051
       4930.0000       290.54581       99634.972       8061.0905       1.6260000       3.3435000     0.047750000       341.50800       2.0858477     0.021527131
       4935.0000       290.59441       99639.880       8080.7638       1.2542500       2.9247500     -0.23675000       341.27200       2.0784678     0.014498988
       4940.0000       290.65485       99650.341       8091.6707       1.1445000       3.2765000     -0.58250000       341.17700       2.0376851     0.010358807
       4945.0000       290.74272       99656.565       8165.9281       1.8397500       2.0777500    -0.062000000       341.95100       2.0285492    0.0094962585
       4950.0000       290.84288       99660.317       8277.8700      0.80150000       2.0347500      0.32400000       342.23700       2.0630698     0.014630935
       4955.0000       290.96115       99661.182       8427.7490       1.1777500       2.9197500     -0.58400010       341.49300       2.0072425    0.0087348332
       4960.0000       291.00941       99662.140       8552.7566     -0.33725000       1.4590000      0.91125010       342.47100       2.0430213     0.010628637
       4965.0000       291.09757       99660.319       8766.7673     0.010500000       2.1560000     -0.46800000       341.49000       2.1030537     0.014450400
       4970.0000       290.87733       99660.277       8695.9221      -1.3102500       3.2217500      0.26800000       341.49200       2.0226404    0.0098567404
       4975.0000       290.74592       99660.277       8629.5301     -0.42025000       1.9550000     -0.35900000       341.48600       2.0830072     0.012775874
       4980.0000       290.52891       99664.823       8391.7037      0.25375000       1.6380000     -0.49275000       341.94800       2.0228240    0.0098558076
       4985.0000       290.41277       99662.230       8267.2341      0.73050000       1.6670000      0.21750000       342.62200       2.0237831     0.010806560
       4990.0000       290.37049       99655.958       8192.7538      0.47600000       1.8985000    -0.054500000       341.40800       2.0373761     0.011977802
       4995.0000       290.44317       99644.223       8174.4673      0.75900010       1.2705000     -0.10575000       341.38800       2.0473512    0.0098332054
       5000.0000       290.45488       99642.437       8133.3449       1.2952500      0.42550000     -0.38000000       342.40400       2.0697850     0.015222980
       5006.0000       290.50807       99639.004       8138.4844      0.73250000       1.7655000     -0.35850000       341.88800       1.9970087     0.010728068
       5011.0000       290.51379       99642.753       8063.8607       1.0215000       1.0375000      0.33275000       343.06000       2.0938357     0.015337848
       5016.0000       290.50251       99641.347       8012.5656       1.0760000      0.64850000     0.071250010       342.85000       1.9761766    0.0069055218
       5021.0000       290.46596       99628.818       7977.1829       2.3695000      0.62925000      0.23875000       343.16500       2.1181136     0.014373978
       5026.0000       290.44617       99623.149       7933.6215       2.0345000       1.2712500     0.037000000       341.18700       2.1035652     0.015050471
       5031.0000       290.40976       99621.221       7877.3747       1.8905000       1.1082500    -0.015000000       341.39900       1.9711241    0.0073513926
       5036.0000       290.39105       99619.325       7846.7176       2.1585000       1.3285000    -0.075000000       341.20500       2.0301352     0.011216071
       5041.0000       290.40015       99618.882       7814.9683       2.6565000       1.6062500     -0.33575000       341.47000       2.0163725    0.0088451022
       5046.0000       290.40011       99620.043       7806.9327       2.2300000       1.9460000     -0.27675000       341.74200       2.0413694     0.016041403
       5051.0000       290.35803       99620.775       7802.0726       1.9385000       1.4907500     -0.30725000       341.51000       2.0661468     0.012689394
       5056.0000       290.39213       99625.034       7852.7644      0.98275010       1.6692500     -0.56325000       341.46500       2.0051347    0.0099411415
       5061.0000       290.50408       99636.167       7994.4199       1.4570000      0.16025000     -0.10150000       341.40600       2.1155529     0.017459674
       5066.0000       290.56487       99642.126       8064.8484      0.47200000     -0.14000000     -0.38375000       341.66000       1.9834296    0.0089161463
       5071.0000       290.67128       99648.323       8139.0518      0.11675000     -0.17050000     -0.29400000       341.69900       2.0405211     0.010382135
       5076.0000       290.72690       99651.980       8203.7011      0.52650000       1.8302500      0.18825000       342.90800       2.0618849     0.013618843
       5081.0000       290.70013       99648.917       8204.9427     -0.15425000       2.5032500    -0.098250000       342.07600       2.0679355     0.011888368
       5086.0000       290.70013       99650.089       8221.7998      0.48200000       1.0210000      0.73850010       342.51500       2.0197743     0.011561677
       5091.0000       290.71346       99653.563       8271.4566      0.85650000       1.3290000    -0.069750000       343.08900       2.0645175     0.012382803
       5097.0000       290.69785       99655.887       8295.1855       1.0175000       1.0535000    -0.015250000       342.64600       2.0340882     0.012803264
       5102.0000       290.63536       99659.872       8258.5307      0.80950000      0.83250000      0.24175000       343.59400       2.0957043     0.018059762
       5107.0000       290.64245       99661.529       8275.9016       1.9625000       1.8755000      0.16050000       343.14100       2.0655525     0.013910580
       5112.0000       290.66780       99661.771       8311.5015     -0.63100000       2.9280000     -0.32075000       342.83400       2.1063614     0.026474776
       5117.0000       290.70487       99660.435       8354.3787      0.41000000       2.8472500    -0.087750000       341.98400       2.0644327     0.011181662
       5122.0000       290.82784       99656.481       8469.9819      0.85150000       4.1292500     -0.28200000       341.10500       2.0261949    0.0092447066
       5127.0000       290.88007       99654.507       8500.5346    -0.017000000       2.3050000    -0.088500000       342.10900       2.0686237     0.011207167
       5132.0000       290.89473       99650.791       8490.1878      0.61050000       3.4217500     -0.92150000       341.27000       2.0593614     0.011361294
       5137.0000       290.91084       99649.183       8475.4832      0.47400000      0.94075010     0.076250000       343.04000       2.0388387    0.0090617062
       5142.0000       290.89975       99652.829       8395.1318      0.98025010       2.2625000      0.27925000       341.84700       2.0511550     0.010417988
       5147.0000       290.89959       99650.063       8359.4950      0.79025010       2.0552500      0.11750000       342.56300       2.0793015     0.014395827
       5152.0000       290.91290       99642.432       8355.2380     -0.27225000       2.7125000     -0.39325000       341.46600       2.0529362     0.010581888
       5157.0000       290.89932       99638.367       8328.3130      0.51925000       2.2517500     -0.35775000       341.16200       2.1208102     0.018679093
       5162.0000       290.87471       99632.534       8294.6146      0.26875000       1.1350000     -0.31050000       341.25400       2.1028447     0.011397904
       5167.0000       290.84104       99627.888       8271.3808     -0.46350000      0.62975000     -0.27275000       341.40400       2.1244001     0.015910189
       5172.0000       290.80782       99629.316       8255.8559     -0.59575000    -0.038750000     -0.25300000       341.27500       2.0687258     0.014179306
       5177.0000       290.72977       99624.526       8217.0048     0.042500000     -0.28925000   -0.0052500000       341.22500       2.0207574    0.0090192189
       5182.0000       290.59115       99610.732       8181.2019     -0.11850000     0.019250000      0.17250000       342.12700       2.0176985    0.0073230559
       5188.0000       290.50079       99607.801       8119.6999     0.076750000       1.5010000     -0.12300000       341.77000       2.0177729     0.013086708
       5193.0000       290.40124       99608.942       8006.9301     0.015500000       1.4490000    -0.076750000       342.37500       2.1073040     0.018167062
       5198.0000       290.35952       99610.163       7977.6473       1.0475000       1.9340000    -0.091750000       341.48800       2.0075029     0.011386051
       5203.0000       290.36631       99620.106       7973.5647      0.44550000       1.0125000     0.051250000       341.88200       2.0266174     0.011061313
       5208.0000       290.41478       99622.821       8001.6275    -0.059750000      0.89075010      0.15725000       341.93000       2.0602584    0.0096683111
       5213.0000       290.54776       99620.387       8111.9403      0.59475000      0.85675000     -0.22725000       342.49000       2.0312025    0.0094127738
       5218.0000       290.57493       99620.431       8156.2080      0.14100000      0.84200010      0.61300000       343.88400       2.0361108     0.011894784
       5223.0000       290.60357       99620.229       8197.3575     0.080750000      0.50900000     0.098250000       342.37200       2.0416395     0.010315598
       5228.0000       290.62060       99620.185       8223.4214     -0.10900000       1.2052500      0.13625000       342.24500       1.9921453     0.010319163
       5233.0000       290.55539       99619.225       8204.3545     -0.38075000      0.55775000      0.33250000       343.67100       2.0023740    0.0093930630
       5238.0000       290.53130       99620.915       8224.8334      -1.0027500       2.3110000     -0.49500000       341.37600       2.0121734     0.010788281
       5243.0000       290.56817       99624.737       8287.8357     -0.95250000       2.5815000     0.018750000       342.71500       2.0472002     0.011425832
       5248.0000       290.54609       99626.800       8285.3659     -0.95925000       1.6300000     -0.11375000       341.33100       2.0651630     0.010955339
       5253.0000       290.48062       99627.867       8283.4261     -0.66050000       1.8145000     -0.14775000       341.24700       2.0752095     0.012283478
       5258.0000       290.41479       99632.439       8224.9296     -0.66725000       1.6922500     -0.23025000       341.32700       2.0522483     0.010862877
       5263.0000       290.31819       99642.102       8067.2547     -0.55625000      0.92425010      0.37525000       341.85900       2.0748121     0.013053532
       5268.0000       290.26440       99641.187       7998.1268     -0.66275000       2.0402500    -0.027750000       343.08200       2.0923619     0.020716112
       5273.0000       290.19129       99636.367       7915.4309     -0.37550000       1.9312500    -0.031250000       342.31100       2.0230416     0.010286489
       5279.0000       290.18255       99634.335       7902.8632      0.36275000       2.3565000     -0.21850000       341.35400       2.0613845     0.014485326
       5284.0000       290.24658       99623.802       7979.2359      0.19800000      0.95050010    -0.056000000       341.32700       2.0090716    0.0094465205
       5289.0000       290.26645       99622.360       7997.7061    -0.010750000      0.33575000     -0.13075000       341.33700       2.0175328    0.0085996755
       5294.0000       290.30308       99628.859       8037.4510     -0.21775000    -0.012000000     0.060750000       342.41300       2.1164488     0.018607215
       5299.0000       290.31410       99633.701       8030.4786    -0.070250000     -0.23100000      0.11525000       341.61100       2.0559612     0.010039056
       5304.0000       290.29976       99639.457       7970.7395      0.16425000      0.30425000     -0.13550000       341.43400       2.0761633     0.012187157
       5309.0000       290.29982       99643.427       7967.1129      0.15050000     -0.41750000      0.13725000       342.27200       1.9786127    0.0076592132
       5314.0000       290.29073       99650.672       7952.1852      0.29525000     -0.32175000    -0.013750000       342.71600       2.0126920     0.010335622
       5319.0000       290.30982       99652.817       7991.6073     -0.12100000     -0.41875000      0.36475000       343.05300       2.0413603     0.015630651
       5324.0000       290.36394       99650.473       8116.6699      0.57925000     -0.70300000      0.12000000       341.70500       2.0709823     0.013466828
       5329.0000       290.34659       99650.532       8114.5180      0.86550000     -0.59050010      0.41250000       341.62400       2.0257780     0.016692235
       5334.0000       290.31024       99650.356       8081.6223      0.20925000     0.065250000      0.41700000       342.77800       2.0569966     0.014997633
       5339.0000       290.28179       99650.369       8045.3012     -0.43950000      0.55400000     0.077250000       342.70500       1.9943332     0.010732678
       5344.0000       290.19401       99650.277       7921.6496     -0.62950000      0.59600000     -0.13275000       341.76900       2.0442628     0.011389989
       5349.0000       290.17167       99650.277       7879.6548     -0.55975000      0.80375000     0.094250000       341.83300       2.0234854     0.010159069
       5354.0000       290.19981       99650.245       7890.2715     -0.82900010       2.1765000      0.30200000       342.63500       2.0078786    0.0097515932
       5359.0000       290.19969       99650.245       7866.5133      -1.7730000       1.5317500     0.099250000       342.37700       2.0390659     0.013055908
       5364.0000       290.19165       99650.473       7828.2490     -0.89200000       1.7127500     0.076750000       341.45300       1.9999500    0.0089930504
       5370.0000       290.25999       99650.277       7855.8534      -2.5485000       2.0537500     -0.68325000       341.58600       2.0702239     0.015926437
       5375.0000       290.26283       99650.277       7852.5129      -2.1735000       1.2217500     0.055000000       342.68000       1.9712741    0.0073812456
       5380.0000       290.22512       99650.308       7854.2918      -2.1297500       2.1412500     -0.65725000       342.11900       2.0073947     0.012905244
       5385.0000       290.20650       99650.308       7851.5128     -0.34400000       2.2832500      0.51400000       343.28700       1.9865940     0.012576228
       5390.0000       290.13034       99650.277       7812.6173     -0.82850000       1.7445000     -0.22750000       342.93300       2.0629029     0.011789952
       5395.0000       290.08825       99650.277       7782.6321     -0.40100000       2.0802500     -0.24725000       341.89800       1.9938230     0.010296182
       5400.0000       290.07074       99650.277       7757.6878      -1.1042500       2.5120000      0.10525000       341.77500       1.9789830    0.0094874132
       5405.0000       290.08036       99650.245       7737.5546     -0.47900000       1.8195000     -0.24775000       341.49900       2.0823556     0.011787539
       5410.0000       290.14497       99650.245       7747.3824     -0.50725000       1.4687500     0.073250000       342.23000       2.0963143     0.015274914
       5415.0000       290.25045       99650.485       7765.7721     -0.34350000       1.3765000     -0.30200000       342.23300       2.0363823     0.010557073
       5420.0000       290.34002       99650.277       7789.3141     -0.29950000      0.73650000      0.20775000       341.93000       1.9887060     0.010349721
