MIRICO/SHELL project - Processed LDS file generated on
Thu Jul 06 23:42:39 2017
Time stamp for record start
05/10/2017  13:24:10.0000
Nb of points in the record
        1073
Beam position index
       4.0000000
Beam angle (degrees)
    -0.021000000
Open Path length (m)
       98.010000
****************** Temporal data record ************************
Elapsedtime_sec Temp_K Press_Pa Humidity_ppmv WindX_m/s WindY_m/s WindZ_m/s Speedofsound_m/s CH4vmr_ppmv CH4vmrerror_ppmv  
      0.00000000       289.12534       99791.169       7619.4382       2.7932500       1.7380000      0.29875000       341.62500       1.9295289    0.0062966302
       6.0000077       289.16943       99802.680       7636.6754       2.1337500       2.9362500     -0.26475000       340.92100       1.9515749    0.0072088040
       10.999981       288.96095       99803.742       7511.2938      0.95600000       2.1887500     -0.21050000       341.40800       1.9124471    0.0066752981
       15.999994       288.87319       99805.795       7442.9131       1.0317500       1.8387500     -0.46225000       341.14000       1.9546964    0.0084978645
       21.000007       288.75933       99810.778       7360.3410      0.73925010       1.8882500     -0.15125000       341.17000       1.9306937    0.0069568145
       25.999980       288.71449       99811.596       7311.6754      0.48800000       1.9250000     -0.55150000       341.53900       1.9376210    0.0077722695
       30.999993       288.82452       99809.664       7326.4633     -0.72625010       2.1385000   0.00075000000       341.34600       1.9414863    0.0076577171
       36.000006       288.86292       99805.397       7316.6034    -0.065000010       2.7702500      0.41075000       342.00500       1.9155003    0.0086123338
       41.000019       288.89076       99796.090       7303.9093     -0.16525000       2.5860000     -0.22275000       341.46900       1.9497460    0.0074899385
       45.999992       288.90940       99789.085       7295.7785      0.79350010       2.5020000     -0.53950000       341.21000       1.9379956    0.0070527839
       51.000005       288.91430       99778.811       7285.2999     0.072250000       1.6667500      0.24675000       342.07800       1.9110846    0.0088304793
       56.000018       288.90299       99773.016       7277.7197      0.88300000       1.1770000      0.17825000       341.39500       1.9405972    0.0074433477
       60.999991       288.86534       99769.664       7274.4829      0.35125000       2.2805000      0.30650000       342.13700       1.9394682    0.0076065265
       66.000004       288.84516       99768.845       7274.4259      0.62625000       2.8232500      0.27250000       342.15300       1.9154360    0.0064351281
       71.000017       288.79528       99770.942       7267.9619      0.99325010       3.0302500     -0.89675000       341.02700       1.9092677    0.0081995505
       75.999990       288.78817       99775.207       7276.6176       1.1235000       3.4317500     -0.16125000       340.53700       1.9212466    0.0068383056
       81.000003       288.83390       99784.707       7273.7453      0.70475010       2.3345000     -0.91650000       340.78000       1.9780111    0.0074533195
       86.000016       288.85369       99791.661       7315.6734      0.36525000       2.3010000    -0.079000000       341.46400       1.9682576    0.0085058841
       90.999989       288.84647       99803.291       7377.8876     0.066000000       1.4487500      0.37500000       342.47500       1.9151353    0.0068253570
       96.999997       288.91280       99808.443       7494.6181     -0.48300000       1.9930000    -0.060500000       340.51100       1.9511056    0.0075002357
       102.00001       289.01384       99805.925       7706.7185     -0.28750000       2.3790000     -0.16050000       340.94000       1.9363883    0.0061045206
       106.99998       289.07407       99805.582       7794.0183       1.0630000       2.0565000      0.40450000       340.79600       1.9731911    0.0089980365
       112.00000       289.19773       99804.603       7855.0808       1.0782500       2.4082500      0.16050000       341.70300       1.9685179    0.0066803302
       117.00001       289.23350       99798.855       7873.7515      0.84300010       1.8497500     0.039500000       341.06400       1.9627617    0.0071758833
       121.99998       289.17486       99791.322       7783.0270      0.37050000       2.8080000      0.17600000       341.35800       1.9252330    0.0064112129
       127.00000       289.14135       99782.616       7729.0956     -0.89375010       2.2575000     0.058250000       341.64100       1.9668593    0.0067541016
       132.00001       289.06832       99764.573       7664.1906    -0.053000000       2.2565000     -0.13200000       340.95800       1.9606998    0.0065636113
       136.99998       289.03241       99755.842       7617.6929     0.045250000       1.6122500     -0.11350000       341.28700       1.9305652    0.0070764581
       141.99999       289.00538       99747.380       7561.1717      0.45750000       1.8705000    -0.083250000       341.44200       1.9547537    0.0077365916
       147.00001       288.98905       99748.235       7530.8453       1.3027500       1.5432500      0.12775000       341.52500       1.9636604    0.0067732057
       151.99998       288.96131       99759.438       7503.6109      0.49000000       1.4585000    0.0067500000       341.82800       1.9245974    0.0073525184
       156.99999       289.00213       99768.264       7526.7150     -0.52825000       1.3562500     0.059750000       342.33200       1.9336395    0.0063331562
       162.00001       289.08921       99785.305       7587.8073    0.0015000000       1.5827500     -0.35575000       341.60900       1.9653344    0.0059955839
       167.00002       289.17638       99795.479       7657.1842     -0.16950000       1.2305000     0.095500010       342.56200       1.9515465    0.0081856490
       171.99999       289.33473       99804.360       7784.9948    -0.040500000       1.1940000      0.21025000       341.45900       1.9668979    0.0081380276
       177.00001       289.45017       99808.247       7886.3908     -0.32525000       2.6017500    -0.028750000       341.30400       1.9644906    0.0082214323
       183.00001       289.59251       99808.663       8012.7112     -0.82475010       3.1932500     -0.99800000       341.47500       1.9541506    0.0087189069
       187.99999       289.64373       99804.819       8093.6211     -0.29850000       2.8595000      0.48300000       342.01000       1.9229489    0.0087289070
       193.00000       289.66684       99793.305       8182.1811      0.37175000       1.7140000      0.16500000       342.20400       1.9556351    0.0064240523
       198.00001       289.65838       99786.340       8215.3833      0.52025000       2.0155000     0.045250000       342.45300       1.9392027    0.0080241655
       202.99999       289.55797       99778.219       8204.6342       1.2890000       2.0595000     -0.44775000       342.08300       1.9685895    0.0069846979
       208.00000       289.52391       99770.181       8186.8563    -0.055250000       3.2105000     -0.22875000       341.48200       1.9649787    0.0062066128
       213.00001       289.51191       99759.683       8125.6889       1.4337500       1.6700000      0.17500000       341.60000       1.9351687    0.0069683294
       217.99998       289.48217       99757.550       8082.9050       1.1602500      0.92225000     -0.32925000       341.72100       1.9715259    0.0063242740
       223.00000       289.47079       99757.575       8036.9073       2.1372500       2.1162500     -0.23400000       340.87600       1.9583477    0.0082352737
       228.00001       289.43426       99760.545       7988.1060       2.6690000       2.7697500     -0.18050000       341.09600       1.9351686    0.0079796733
       232.99998       289.34769       99770.935       7917.9855      0.18475000       2.7577500      0.18875000       341.39600       1.9440299    0.0069984875
       238.00000       289.32998       99780.608       7894.8309      0.88225010       3.0655000      0.35125000       341.80700       1.9691945    0.0075861507
       243.00001       289.34283       99794.266       7901.4073       1.0852500      0.82250010      0.14175000       342.14700       1.9485134    0.0076658255
       247.99998       289.34892       99800.096       7884.8448      0.98900000       2.1730000     -0.29100000       341.82900       1.9464263    0.0057809013
       253.00000       289.38785       99805.761       7879.4961     -0.75225000       1.6535000      0.37775000       342.36800       1.9359767    0.0065731111
       258.00001       289.41731       99807.761       7884.2491      0.94950000       3.8062500     -0.44900000       341.81500       1.9757121    0.0078585563
       262.99998       289.47585       99803.976       7877.8804       1.0027500       3.4380000     -0.31625000       340.74500       1.9665913    0.0074745874
       267.99999       289.44777       99797.901       7876.8097      0.42575000       3.1850000      0.15975000       341.60400       1.9709413    0.0070915424
       274.00000       289.36794       99788.482       7912.0157       2.2777500       2.9987500      0.42125000       341.79700       1.9554865    0.0078168557
       279.00002       289.31866       99778.582       7911.0685      0.81375000       2.0245000      0.89125000       342.54900       1.9882002    0.0081821061
       283.99999       289.19250       99758.573       7876.6427     -0.68825000       3.6370000     -0.72225000       341.31600       1.9427378    0.0075184272
       289.00000       289.15822       99754.876       7872.0537     -0.46775000       2.1287500      0.83875010       341.96300       1.9519349    0.0075899136
       294.00001       289.21753       99756.432       7881.2703    -0.089500000       2.7617500     -0.30600000       341.46700       1.9953823    0.0095084719
       298.99999       289.18020       99763.809       7873.7019       1.0210000       2.9920000    -0.034750000       341.03000       1.9543846    0.0063391309
       304.00000       289.13485       99783.869       7878.7856     -0.51425000       1.8912500      0.12850000       341.47100       1.9797996    0.0081672290
       309.00001       289.03941       99793.970       7842.6850      0.42175000       2.6270000     -0.28250000       341.09900       1.9560465    0.0066791393
       313.99999       288.85888       99806.632       7773.6892    -0.092750010       1.7410000     -0.48475000       340.99700       1.9752711    0.0082260472
       319.00000       288.77643       99810.027       7727.8169     -0.19500000       1.6457500     -0.68100010       340.51600       1.9472609    0.0064341779
       324.00001       288.69223       99807.582       7661.9779     -0.36875000       1.5540000     0.050500000       340.81300       1.9456496    0.0073520921
       328.99999       288.65843       99802.893       7628.0513     -0.40275000       1.3617500      0.11150000       340.58900       1.9339024    0.0074041481
       334.00000       288.69984       99791.416       7616.1214      0.17250000      0.75875000      0.17050000       341.38000       1.9327280    0.0076064020
       339.00001       288.69991       99784.416       7603.3967      0.24775000       1.4157500    -0.012000000       341.47600       1.9483723    0.0066771318
       343.99998       288.69078       99776.988       7595.9729      0.11575000      0.57675000      0.21750000       341.99200       1.9727818    0.0080727697
       349.00000       288.70928       99769.106       7598.3087      0.62300000       1.2402500      0.34325000       341.16800       1.9524269    0.0063002715
       354.00001       288.72761       99758.988       7595.3058      0.82500000       1.0967500      0.19050000       341.27600       1.9717788    0.0078528651
       358.99998       288.78435       99757.562       7643.0959    -0.042500000      0.86775000      0.12850000       341.84200       1.9909032    0.0079082810
       364.99999       288.89803       99756.762       7743.8649      0.16750000       1.1482500    -0.031750000       341.49800       1.9723715    0.0084030097
       370.00000       288.96870       99765.463       7798.9913      0.30000000       1.0697500     0.039750000       341.96200       1.9719841    0.0069613698
       375.00002       289.06121       99786.356       7882.8936      0.31325000      0.89475010    -0.066500000       340.76000       1.9840461    0.0084498207
       379.99999       289.11462       99798.542       7927.4891    -0.022750000      0.96925000    -0.052250000       340.98800       1.9478744    0.0071557090
       385.00000       289.11910       99803.233       7937.2332      0.32000000       1.5990000    -0.066000000       341.73400       1.9559479    0.0059729660
       390.00002       289.03953       99795.978       7918.6065    -0.064500000      0.93100010    -0.010750000       341.50300       1.9514545    0.0074076210
       394.99999       288.99972       99791.223       7902.0273      0.65750000       1.1090000     -0.36375000       341.15500       1.9736953    0.0089425342
       400.00000       288.95990       99785.217       7869.8245      0.80975000       1.6547500     -0.35975000       341.04100       1.9437175    0.0058828968
       405.00002       288.87412       99775.366       7787.8135      0.89025000       1.7652500      0.17250000       340.90000       1.9594404    0.0073199311
       409.99999       288.90012       99767.248       7775.5554      0.21450000       1.6092500      0.30825000       341.66800       1.9563903    0.0073947929
       415.00000       289.00680       99759.776       7800.2063       1.5217500       1.9840000     0.086500000       341.72900       1.9404607    0.0070461022
       420.00002       289.04006       99745.965       7785.9942      0.68275000       2.3210000     -0.20900000       341.60800       1.9418974    0.0073896962
       424.99999       289.06290       99746.024       7764.3232      0.73250000       2.6025000      0.20200000       340.96000       1.9067813    0.0072863796
       430.00000       289.01428       99765.386       7690.0758      0.46600000       1.3675000     0.062000000       340.77500       1.9977926    0.0070111267
       435.00001       288.99320       99775.282       7648.9866      0.36050000      0.77300010    -0.029750000       341.90700       1.9447729    0.0069635695
       439.99999       288.99966       99795.836       7607.7281      0.47125000       1.6840000     -0.33600000       341.12800       1.9209092     0.011356031
       445.00000       288.99940       99804.690       7604.0876      0.28000000       1.9362500      0.24250000       341.69500       1.9378918    0.0062591545
       450.00001       288.99909       99804.934       7628.1245      0.72500000       2.8010000     -0.19575000       340.78600       1.9580203    0.0084734946
       455.99998       288.99026       99789.793       7688.6351      0.82575010      0.81000010      0.66650000       342.05900       1.9655807    0.0067216595
       460.99999       289.05910       99774.464       7798.3785       1.1467500       1.6165000    -0.027000000       341.46700       1.9845640    0.0062981796
       466.00001       289.15315       99771.944       7913.0750      0.85075000      0.80450000      0.43725000       342.07600       1.9599569    0.0073831099
       470.99998       289.34608       99784.433       8076.2990      0.62350000       1.8032500     -0.33475000       340.77300       1.9656913    0.0071634523
       475.99999       289.48575       99786.368       8215.7971      0.83850000      0.82625000     0.012000000       342.00600       1.9561112    0.0073172360
       481.00001       289.65340       99787.799       8409.1078      0.52225000       1.2770000    -0.054250000       341.27800       1.9675777    0.0077445863
       486.00002       289.73735       99791.661       8500.8825    -0.046250000       1.6310000      0.32125000       341.35500       1.9199852    0.0066669240
       490.99999       289.74725       99788.820       8536.4659      0.73875000      0.83400010      0.51050000       342.71100       1.9336020    0.0070363791
       496.00001       289.76415       99789.085       8537.7509       1.4925000      0.80075000    -0.016000000       342.17900       1.9412825    0.0073274763
       501.00002       289.71029       99801.127       8431.2488      0.58350000       1.0622500    -0.081250000       341.47800       1.9910852    0.0075609984
       505.99999       289.69157       99802.658       8358.2544     -0.33275000      0.86375000     0.058000000       341.60900       1.9552278    0.0072668633
       511.00000       289.71425       99794.724       8275.3685      0.14200000       1.2610000     -0.22025000       341.58700       1.9530086    0.0090091300
       516.00002       289.70313       99789.536       8201.2797      0.32850000      0.48100000      0.13900000       341.39800       1.9812276    0.0077475347
       520.99999       289.63711       99781.456       8120.4171     -0.17050000      0.38275000      0.38675000       342.76200       1.9569407    0.0074197795
       526.00000       289.63969       99773.494       8061.7512    0.0067500000       1.7235000      0.16400000       341.97900       1.9457374    0.0069605343
       531.00002       289.66365       99760.317       8010.5415      -1.0170000       1.4507500      0.68200000       342.37600       1.9775614    0.0080790502
       535.99999       289.69566       99757.848       7978.1912     -0.91550000       2.7822500     -0.31425000       341.78600       1.9471046    0.0067480667
       541.00000       289.87264       99759.341       8008.2758     -0.16775000       2.1552500     -0.26925000       342.22600       1.9438485    0.0077158639
       547.00001       289.87812       99765.427       7965.8763      0.46125000       1.5712500      0.24750000       343.12600       1.9468926    0.0075122090
       551.99998       289.76869       99788.756       7906.3852      0.80900000       1.9940000      0.18625000       341.67200       1.9383135    0.0072108943
       557.00000       289.67746       99794.947       7847.0177      0.93350010       2.2480000    -0.084500010       342.33400       1.9620874    0.0074555965
       562.00001       289.44276       99791.618       7719.9594       1.2090000       1.6250000      0.47300000       342.17200       1.9747532    0.0078057055
       566.99998       289.33662       99790.887       7660.6832    -0.043500000       1.4427500     -0.55975000       340.88200       1.9481623    0.0074780797
       572.00000       289.30995       99785.065       7650.6441      0.12975000       2.1797500    -0.049750000       341.12300       1.9507635    0.0076767384
       577.00001       289.27761       99777.717       7624.6764      0.38825000       2.3805000     -0.30200000       341.43000       1.9584819    0.0064310193
       581.99998       289.31336       99769.129       7624.4684     -0.29375000       1.4950000      0.18525000       342.96100       1.9356274    0.0076620938
       586.99999       289.29942       99763.135       7606.8542     -0.16325000       2.8097500     0.022000000       342.76600       1.9073110    0.0076921394
       592.00001       289.27459       99748.275       7565.4639      0.81675000       1.9420000     -0.35525000       343.04200       1.9205144    0.0066048648
       596.99998       289.24069       99747.690       7550.2851       1.1280000       2.5370000     -0.47300000       340.69700       1.9599259    0.0088329404
       601.99999       289.19137       99759.438       7559.4686       2.5642500       1.7290000      0.21250000       341.62800       1.9435365    0.0072094268
       607.00001       289.12748       99768.264       7542.6471       1.6525000      0.86700000      0.52300000       341.89300       1.9530455    0.0073975502
       611.99998       289.01541       99789.167       7504.0197       2.4367500       1.6220000     0.045750000       342.02000       1.9419286    0.0066185701
       616.99999       288.97352       99795.229       7505.0999       1.0292500       1.8765000      0.35650000       342.29900       1.9235376    0.0070457299
       622.00001       288.90913       99795.389       7478.5462      0.19350000       1.5542500      0.28325000       342.87700       1.9639145    0.0072176145
       627.00002       288.93717       99790.504       7521.7691      0.28975000       2.5630000     -0.17975000       342.52100       1.9268515    0.0066358003
       632.99999       289.09859       99768.089       7692.6766      0.47425000       2.0572500     -0.10875000       340.98100       1.9360453    0.0077179881
       638.00000       289.20534       99759.326       7757.6788     -0.38300000       2.2495000     -0.26725000       341.91100       2.2372142    0.0075064953
       643.00001       289.33639       99747.578       7797.8070    -0.026750000      0.88250010      0.71375000       343.12600       2.5646782    0.0081180289
       647.99999       289.48382       99748.441       7876.6808       1.0842500      0.97825000     0.040250000       342.97700       3.2274317    0.0087047095
       653.00000       289.68063       99763.021       7931.4911      0.41825000       1.8760000    -0.093750010       342.14400       3.0754926    0.0098334871
       658.00001       289.77265       99769.001       8000.1251      0.77600000       3.1867500     -0.27125000       341.28700       2.0734217     0.010283647
       662.99998       289.86668       99780.158       8164.7295       1.6345000       1.6992500     -0.69975000       340.91300       2.3629728    0.0071812182
       668.00000       289.88547       99784.306       8195.6635       2.0945000       3.4740000      -1.0410000       340.81900       2.5576661    0.0098508403
       673.00001       289.75974       99783.913       8130.4302       2.0327500       2.1075000      0.17725000       341.68100       2.0393723    0.0076150626
       677.99998       289.72618       99779.016       8102.0511       1.4930000       1.2260000      0.21900000       342.65000       1.9434126    0.0082323084
       683.00000       289.72286       99767.735       8032.5643       1.7290000       3.2945000     -0.12450000       341.17600       2.3685181    0.0083680342
       688.00001       289.67608       99761.778       7975.9704       2.1222500       2.7485000     -0.53300010       340.69000       2.0020486    0.0065837763
       692.99998       289.60352       99748.190       7923.2106      0.31500000       1.6087500     0.053000000       341.39500       2.9000367    0.0075009651
       698.00000       289.57978       99747.291       7888.3336      0.73300000       1.4997500   -0.0095000010       340.99400       1.9400177    0.0057714494
       703.00001       289.50972       99755.398       7814.1057      0.76650010       2.0135000     -0.18500000       341.26800       2.5721982    0.0074235231
       707.99998       289.55098       99764.243       7831.1953      0.10425000       1.2640000     0.067500000       341.80000       2.6249274    0.0077494891
       713.00000       289.72515       99784.867       7943.4177      0.59700000       2.2377500     0.041000000       342.09400       2.3294644    0.0066589079
       718.00001       289.79849       99790.348       7984.2378       1.6535000       2.2835000     -0.32000000       340.60400       2.9026686    0.0088941496
       724.00002       289.92791       99795.049       8067.9864       1.2872500       1.3027500     -0.37775000       341.75900       2.6031947    0.0076485994
       728.99999       289.92362       99788.723       8074.4680       1.0107500       1.0192500    -0.043000000       341.15800       3.0285259    0.0073227363
       734.00000       289.82524       99766.845       8021.0702       1.0317500       1.4447500     -0.34100000       341.26200       3.3780527    0.0084119409
       739.00001       289.74735       99756.656       7970.7816      0.37350000       1.0550000      0.67925010       341.84900       5.1094919    0.0091100941
       743.99999       289.63608       99741.737       7898.2816      0.94725010       1.1252500    -0.060000000       342.79500       2.6598041    0.0086082615
       749.00000       289.49901       99741.833       7835.8612      0.96775010      0.74725000      0.46625000       341.53600       3.9136004     0.010874593
       754.00001       289.31001       99751.202       7750.3889      0.77800010      0.58225000     0.082250010       342.59300       2.3441470    0.0070079358
       758.99999       289.20834       99761.664       7691.9136       2.0555000      0.52650000      0.24550000       341.57500       3.6094681    0.0079173643
       764.00000       289.10729       99786.776       7646.8471       1.4082500      0.77275000      0.36375000       342.74800       3.1993441    0.0089750013
       769.00001       289.02534       99792.371       7608.2475       1.1225000       1.5502500     -0.18450000       342.88800       3.3029733    0.0084688707
       773.99999       289.00761       99794.614       7575.4281       1.4055000       1.2802500      0.15000000       341.70200       2.8582798     0.010027219
       779.00000       288.96740       99788.397       7550.0162       1.1255000       1.6590000     -0.36575000       341.59600       3.1654073    0.0080372930
       784.00001       288.87577       99765.356       7515.7199      0.88100000       1.4837500     -0.14425000       341.45300       3.4603985    0.0076549911
       788.99999       288.89069       99757.046       7546.3009       1.7805000      0.84675000      0.68000000       342.26500       3.2073023    0.0086392874
       794.00000       288.95717       99746.724       7599.8946      0.60700010       1.1880000      0.13625000       342.93600       3.4389177    0.0080356940
       799.00001       289.07163       99749.049       7687.8004       1.5720000       1.1405000    0.0052500000       342.09700       2.1522133    0.0065165747
       803.99998       289.29813       99764.194       7863.1130      0.57225000       1.6960000     -0.19525000       341.38200       4.0153965     0.010732888
       809.00000       289.38147       99770.179       7951.7475      0.58550000       1.8310000      0.15275000       343.09500       2.0111265    0.0079751377
       815.00001       289.46958       99784.233       8032.3387      0.70675000      0.84350000      0.60775010       343.08900       1.9686616    0.0070180619
       820.00002       289.50559       99780.430       8119.8771     -0.16800000      0.82750000     -0.43575000       341.93200       4.2546477    0.0096038300
       824.99999       289.44987       99766.113       8184.5308     0.048500000      0.34800000     0.023250000       341.88300       4.5397679    0.0093829999
       830.00000       289.43967       99750.176       8298.1127     -0.32100000      0.32850000   -0.0047500000       341.38000       2.1826124    0.0061556202
       835.00002       289.44947       99742.459       8358.0594      0.32225000       1.8532500      0.43550000       343.49200       2.7877929    0.0077825941
       839.99999       289.43007       99740.377       8378.4198      0.12575000       1.0117500     -0.36975000       340.59500       2.1726659    0.0094436322
       845.00000       289.43760       99742.913       8357.2407     0.016000000      0.57300000    -0.019000000       340.60300       2.9593029    0.0091378664
       850.00002       289.46971       99750.352       8297.6150      0.37750000       1.3775000    -0.057000000       341.43300       4.5147301    0.0096358666
       854.99999       289.58164       99765.720       8192.4355      0.14850000       1.6377500     0.079750000       342.06800       3.7963122    0.0099962800
       860.00000       289.52413       99772.652       8090.4773      0.92850010      0.83700000      0.23600000       342.57700       4.4665973     0.010102273
       865.00002       289.40547       99782.783       7940.6051       1.6917500      0.68250000     -0.57625000       340.96100       3.2302936    0.0094051353
       869.99999       289.25904       99781.526       7850.0613       2.0697500     -0.12425000      0.11975000       341.78300       2.2308401    0.0075324989
       875.00000       289.17303       99776.873       7788.3244       1.4502500      0.10050000      0.52875000       341.93700       2.2910245    0.0084345705
       880.00001       289.21491       99758.242       7781.5159       1.4672500      0.29700000      0.10750000       341.85700       3.6773734     0.012084357
       884.99999       289.20599       99752.877       7756.3893       1.6752500      0.36800000      0.28300000       341.77600       5.0245519     0.012199997
       890.00000       289.17006       99749.318       7749.0650      0.73500000      0.69175000      0.58500000       341.92500       4.5111428     0.011262667
       895.00001       289.15027       99751.552       7728.9537      0.96725000       2.8857500     -0.42250000       341.45500       2.9824222     0.010051295
       899.99999       289.13048       99761.175       7699.2074       1.5977500       2.7212500     -0.49175000       340.96200       2.1312871    0.0068783923
       905.99999       289.09527       99790.290       7640.1215       1.3457500       2.8252500      0.33825000       341.59700       2.1412471    0.0086170257
       911.00001       289.02407       99791.238       7613.1509    -0.035500000       2.0972500      0.88175000       343.04700       3.7008998    0.0096519376
       915.99998       289.03809       99787.520       7634.7444       1.2717500       2.4700000     0.043500000       342.39100       2.6302365    0.0082611245
       920.99999       289.11321       99761.270       7743.7692     -0.20375000       1.9250000      0.12025000       341.38400       2.1728089    0.0067094362
       926.00001       289.15457       99750.549       7795.6014      -1.1842500       1.4165000      0.18400000       341.94100       2.7580808    0.0095621002
       930.99998       289.27139       99742.410       7833.7489     -0.63500010       3.2380000     -0.43450000       341.22800       2.3154832    0.0095790307
       935.99999       289.32720       99742.232       7887.5254      -1.0730000       2.6630000     -0.51475000       341.09200       3.4694438    0.0083442192
       941.00001       289.28547       99760.694       7905.8396      0.30125000       1.5602500      0.41625000       341.36500       4.1297459     0.010926303
       946.00002       289.29688       99767.370       7947.6827     -0.98350010       2.5265000    -0.023750000       341.52100       2.0055509    0.0090790323
       950.99999       289.33380       99776.508       8037.1504     -0.17800000       3.3412500     -0.33200000       340.80800       2.1885719    0.0071659788
       956.00000       289.35367       99777.798       8101.1391     0.045000000       3.2922500     -0.13650000       341.08300       2.3797670    0.0070050199
       961.00002       289.33414       99764.304       8153.8727      0.50350000       2.6515000    -0.044250000       341.83600       2.4837516    0.0093225533
       965.99999       289.39768       99758.394       8200.6631       1.0415000       2.5045000     0.028750000       341.18100       3.5563839     0.012420315
       971.00000       289.50879       99747.873       8264.5613       1.0637500       3.0767500     0.049750000       341.15600       3.2476457    0.0098579806
       976.00002       289.61063       99747.517       8280.2991       1.7185000       2.5657500     -0.67275010       342.07100       2.2404625    0.0090878928
       980.99999       289.85732       99760.703       8291.1444      0.88125000       2.2542500     -0.52400000       340.96500       2.9866270    0.0073197189
       986.00000       289.94944       99766.747       8240.3747       1.6577500       1.9830000     -0.24850000       342.32500       3.3174542     0.010524607
       991.00002       289.90008       99781.855       8064.5249       2.8782500       3.1822500    -0.096000000       341.89600       2.0463592    0.0070804742
       996.99998       289.90921       99783.629       7968.9265       1.5465000       4.4862500     -0.19375000       340.58500       2.4068347    0.0064287256
       1002.0000       289.86137       99770.222       7884.4963      0.87825010       3.5807500     -0.12400000       340.80700       2.8989469     0.010012193
       1007.0000       289.83460       99762.842       7844.6358       1.1220000       3.5620000     -0.23375000       341.17700       2.7043502    0.0080063813
       1012.0000       289.84313       99744.115       7912.9899       1.0392500       2.5135000     -0.44625000       341.18600       2.1143078    0.0093495929
       1017.0000       289.85286       99741.279       7911.4624      0.77875010       2.6410000     -0.37550000       341.98400       2.7076289    0.0081619854
       1022.0000       289.84302       99750.929       7888.6191      0.80800000       3.9170000     -0.76950000       341.06000       2.5807625    0.0074766944
       1027.0000       289.84663       99756.594       7859.2455      0.25375000       2.8992500      -1.6660000       340.77800       2.2295255    0.0060718287
       1032.0000       289.88182       99773.899       7793.5415    -0.091500010       2.1685000    -0.090500000       341.37500       2.6422435    0.0077583669
       1037.0000       289.91193       99779.328       7755.9439      0.60200010       1.7805000    -0.038750000       342.15400       2.2749814    0.0063117868
       1042.0000       289.97600       99779.704       7712.5831      0.68250000       2.8595000     -0.17000000       341.54500       2.0653744    0.0089323148
       1047.0000       289.95422       99775.117       7697.7964      0.67625000       2.3812500      0.36800000       341.90700       2.4490552    0.0072312162
       1052.0000       289.89178       99755.234       7735.8426      0.55100000       2.9055000     -0.17025000       340.98000       2.4020790    0.0079183224
       1057.0000       289.83426       99751.650       7720.7050      0.82550000       2.8547500     -0.70100000       341.26500       2.2597570    0.0071654003
       1062.0000       289.67613       99757.205       7687.6209      0.47350000       2.9757500     -0.40625000       340.60700       2.1866423    0.0078347756
       1067.0000       289.60831       99754.260       7663.4708      0.45150000       3.3405000      0.32100000       341.46900       3.4594571    0.0093464294
       1072.0000       289.59223       99753.649       7589.5169      0.18575000       2.8370000     -0.49800000       341.41400       2.8348585    0.0085342671
       1077.0000       289.58961       99756.690       7571.3891     -0.49025000       2.2345000     -0.22400000       341.22400       2.5560630    0.0081458729
       1082.0000       289.63711       99755.661       7584.5138      0.76050000       3.2335000     0.056500000       341.04400       1.9571872    0.0069456387
       1088.0000       289.66122       99753.922       7625.3364      0.18000000       1.8290000      0.30375000       341.54700       3.5563690     0.010737345
       1093.0000       289.72024       99759.235       7714.3058     -0.27300000       1.9570000     -0.21275000       341.75600       3.7692590     0.011661564
       1098.0000       289.70131       99762.625       7747.5085      0.43600000       2.3020000      0.10425000       342.26300       2.0820577    0.0068892326
       1103.0000       289.62584       99757.832       7790.9682     0.076750000       3.1742500      0.27625000       341.36700       2.1756312    0.0075026358
       1108.0000       289.56959       99760.686       7789.2419       1.3542500       1.3092500      0.86050000       341.85500       1.9415214     0.010444893
       1113.0000       289.45943       99777.649       7729.9967       1.7110000       1.9435000     -0.16250000       341.13800       2.6893837    0.0078828519
       1118.0000       289.41221       99777.466       7691.6751      0.55575000       1.2597500     -0.18725000       341.46800       2.6282122    0.0075132721
       1123.0000       289.37689       99769.117       7606.3059     0.088750000       1.1392500      0.61275010       341.82500       3.0436514    0.0087258194
       1128.0000       289.39595       99762.805       7610.7022       1.8777500       1.7415000    -0.048250000       341.59500       3.4233740    0.0093136984
       1133.0000       289.47312       99743.210       7632.6940       1.3285000       1.8645000     -0.44450000       340.90800       2.2556884    0.0075526304
       1138.0000       289.52968       99742.059       7713.9024       1.9587500       1.9225000     -0.48875000       340.55000       3.1055275     0.011546087
       1143.0000       289.62050       99751.916       7915.1989       1.9290000       1.1052500      0.40500000       342.60500       2.4043773    0.0096489445
       1148.0000       289.70077       99758.060       8022.2918       1.3167500       1.3582500     -0.18775000       340.65500       2.8542775    0.0077129591
       1153.0000       289.75000       99777.602       8113.2389      0.57625000      0.67725000    0.0060000000       340.87300       2.7264419    0.0072585226
       1158.0000       289.85165       99778.757       8211.6294       1.0717500      0.35350000      0.16600000       341.51700       3.7726572     0.011001299
       1163.0000       290.04626       99768.911       8323.4492     0.075500000      0.48625000      0.43025000       343.07500       2.9819002    0.0090349985
       1168.0000       290.10095       99762.748       8334.5275       1.5532500       1.3387500     -0.17675000       341.60500       2.6292805    0.0079268655
       1173.0000       290.09220       99741.888       8305.9224      0.87475000       1.9465000     -0.70350000       341.85300       2.3279689    0.0075097541
       1179.0000       290.13094       99743.511       8265.3091      0.86075000       1.1687500     -0.25975000       340.79500       2.1062677    0.0075869207
       1184.0000       290.07801       99758.328       8119.1424      0.71550010      0.89850000     -0.41100000       341.21400       2.8904951     0.010002559
       1189.0000       290.11423       99765.205       8068.9525      0.78975000      0.55175000     -0.20375000       341.27800       2.7446741     0.010870711
       1194.0000       290.27188       99785.369       8083.1955      0.85925010      0.62525000    -0.029000000       341.83100       3.1271625    0.0073423994
       1199.0000       290.27770       99782.508       8060.0181       1.1455000      0.38075000     0.084250000       341.20900       2.6074986    0.0078910663
       1204.0000       290.21973       99761.765       8033.2097      0.86100010       1.3105000      0.18075000       342.42800       3.8307022    0.0099830804
       1209.0000       290.17256       99753.778       7997.1623      0.47300000       1.4272500     -0.41650000       340.93900       3.3769694    0.0081657393
       1214.0000       290.05795       99735.354       7950.5933    -0.095250000      0.93200000     -0.28575000       341.53200       2.7072588    0.0072134834
       1219.0000       289.99656       99738.621       7928.6934     -0.24650000       1.2617500     0.050750000       342.33000       2.5130576     0.010616291
       1224.0000       289.97784       99759.755       7910.7690      -1.1157500       2.2412500      0.33400000       342.76700       2.9899148    0.0089543319
       1229.0000       289.88985       99765.951       7885.8531      -1.1917500      0.65675000     -0.21900000       342.15600       2.9653647    0.0093434759
       1234.0000       289.75579       99779.534       7883.8052     -0.37175000       2.4077500     -0.15175000       342.45100       2.4313940     0.010137959
       1239.0000       289.68452       99776.414       7850.3755     -0.52175000       2.0475000     -0.18700000       341.57200       2.9937076    0.0086191330
       1244.0000       289.59942       99755.158       7785.8482     -0.75075010       2.0162500     -0.35475000       342.58700       2.4128685    0.0079346108
       1249.0000       289.54748       99749.943       7744.2840     -0.46075000      0.58700000      0.25850000       342.28600       3.2870259    0.0087789256
       1254.0000       289.50851       99741.136       7679.2145      -1.1260000       1.8887500     -0.25400000       341.05200       3.4332161     0.010068371
       1259.0000       289.58100       99745.251       7693.1601     -0.96900000       2.2630000    -0.021000000       340.84100       2.4915721    0.0085309895
       1264.0000       289.73136       99765.067       7755.2994     -0.90750000      0.89150010     -0.13450000       340.98300       2.7809245     0.010417426
       1270.0000       289.81612       99771.139       7794.7632      -1.3847500       1.6145000     -0.87325010       340.64000       3.4927774    0.0076408731
       1275.0000       289.97975       99778.982       7871.5706      -1.2645000       1.2370000     -0.19475000       341.15900       3.6881971    0.0070461600
       1280.0000       289.91531       99758.263       7887.7358     -0.81150000      0.74200000     0.048250000       341.66700       5.7735910     0.013337045
       1285.0000       289.89381       99752.605       7915.9467      -1.7627500      0.89450000     -0.18575000       340.71100       3.0190682    0.0080507765
       1290.0000       289.92979       99753.762       7997.2424      -1.2137500      0.39000000      0.20900000       341.22500       4.8553851    0.0094648925
       1295.0000       289.91231       99753.427       8029.9842     -0.67975000       1.1720000       1.0497500       342.02300       3.8497656     0.010880097
       1300.0000       289.87024       99756.787       8037.7322      -1.0165000      0.91850010     0.038000000       341.04700       6.2248756     0.012923932
       1305.0000       289.80799       99774.023       8023.0750      -1.5935000      0.80125000     -0.17600000       340.59500       6.2136712     0.013076370
       1310.0000       289.74602       99770.101       7997.8926      -1.4160000      0.48900000     -0.23075000       340.53900       3.4410239    0.0086059809
       1315.0000       289.63251       99754.853       7935.6596     -0.69125000      0.58450000    -0.017250000       340.66800       2.4617505    0.0084019773
       1320.0000       289.66035       99743.246       7922.1307     -0.36825000      0.90650000    -0.051500000       340.69700       5.9597396     0.013913586
       1325.0000       289.65057       99741.370       7885.5845     -0.12275000       1.1532500     -0.14650000       340.67000       7.6718119     0.023568599
       1330.0000       289.68526       99762.372       7834.7578      0.22000000      0.95950010      0.21925000       342.00100       5.0056448    0.0082447912
       1335.0000       289.66875       99767.761       7787.0378      0.42900000      0.49675000    -0.097500000       341.58700       4.1862996    0.0095104640
       1340.0000       289.57013       99771.232       7713.4210      0.33350000      0.73825000     -0.18550000       341.02700       2.3396245    0.0065275953
       1345.0000       289.50080       99769.022       7657.7137     0.063000000     0.097000000     -0.37800000       341.81600       2.1677249    0.0096020643
       1350.0000       289.43148       99759.410       7612.1728      0.13400000      0.38100000      0.14275000       341.67000       2.1597287    0.0087318502
       1356.0000       289.32933       99730.587       7573.2576    0.0047500000      0.10825000      0.25950000       342.59300       2.1481542    0.0094054760
       1361.0000       289.28234       99730.882       7517.4548     -0.15075000      0.28850000      0.10800000       341.63700       6.9739929     0.015114756
       1366.0000       289.28612       99733.571       7508.5362      0.59550010      0.32550000     0.026250000       341.56400       5.7170856     0.013439098
       1371.0000       289.35481       99758.354       7524.4394       1.2775000      0.69275000    -0.027500000       341.50000       3.4396333    0.0071437826
       1376.0000       289.40617       99764.693       7553.9916      0.69475000      0.91000000     -0.23750000       340.76700       3.7932516     0.011019154
       1381.0000       289.51500       99756.693       7646.5141      0.33700000      0.95950010     -0.12375000       341.10400       4.2006104     0.010032813
       1386.0000       289.57200       99755.557       7703.1664      0.21775000      0.84725000     -0.33050000       341.59300       7.3989116     0.016108807
       1391.0000       289.60580       99743.618       7765.9442      0.34975000       1.4867500    -0.053750000       340.66000       2.0810106    0.0070082643
       1396.0000       289.61323       99742.322       7795.3759     0.033000000       1.2512500     0.023500000       340.87300       2.5428663     0.011462096
       1401.0000       289.58011       99758.867       7796.8964     -0.20325000       1.7032500      0.48550000       342.49000       3.4282494     0.011704511
       1406.0000       289.54867       99762.476       7787.2840      0.38525000       1.3857500     0.066000000       341.11600       4.0363949    0.0094925737
       1411.0000       289.44649       99765.536       7725.0690       1.1822500       1.1615000     -0.23775000       341.34400       2.9405429    0.0090015512
       1416.0000       289.42959       99761.884       7703.0621      0.99100010      0.85975000     -0.15600000       341.77600       3.4890056    0.0094752393
       1421.0000       289.49245       99734.818       7690.9787       1.1882500      0.70100000      0.38650000       343.04500       3.7705331     0.011870965
       1426.0000       289.50252       99730.825       7686.5499      0.99950000       1.1365000      0.35625000       342.29400       2.4743917    0.0069550821
       1431.0000       289.54639       99740.175       7734.6299       1.3322500       1.2850000      0.22050000       342.48800       2.4952758     0.010452261
       1436.0000       289.56374       99744.482       7734.6998       1.5805000       1.1240000      0.25000000       341.97800       2.6614234    0.0086976110
       1441.0000       289.49573       99772.961       7690.1973       3.1160000       1.4210000     -0.35275000       341.62300       2.7071677    0.0085153962
       1447.0000       289.49035       99775.972       7675.8580       2.6647500       1.8947500     -0.35250000       340.93300       5.2163139     0.010226084
       1452.0000       289.55052       99747.393       7666.4928       2.4532500      0.34900000    -0.060500000       342.23400       5.4774103     0.013386073
       1457.0000       289.55677       99741.460       7640.7953      0.27125000      0.58975010      0.34750000       343.09500       2.8765503    0.0066898925
       1462.0000       289.54357       99731.798       7621.4106       1.3855000       2.1147500     -0.78725000       340.92000       2.3958408    0.0081534754
       1467.0000       289.55357       99732.346       7608.3957      0.80350010       2.1645000     -0.41200000       341.20800       4.7593196     0.013668901
       1472.0000       289.52988       99760.308       7552.6718      0.26150000       1.9325000      0.36350000       341.98100       2.6153057    0.0063559803
       1477.0000       289.54713       99764.997       7552.4565       1.6445000       2.5767500     0.057000000       340.94600       4.9356163     0.014139701
       1482.0000       289.61953       99758.239       7597.7289      0.80200000       1.7272500      0.16300000       342.02200       2.9474912    0.0075325873
       1487.0000       289.66977       99755.482       7644.2554      0.33325000      0.99075010      0.61850010       342.43600       4.4657892     0.010789527
       1492.0000       289.70768       99738.014       7692.1158     -0.32100000      0.92550000    0.0022500000       342.51700       2.5401900    0.0097463457
       1497.0000       289.77203       99737.270       7787.5991     -0.71200000       1.8542500     -0.10475000       340.94000       2.1782501    0.0090794727
       1502.0000       289.89831       99755.756       7988.9828     -0.18750000       1.0547500     -0.49250000       340.98400       2.7229133    0.0094262615
       1507.0000       289.92751       99757.683       8054.6967     -0.65200000       1.6467500     -0.26375000       341.65300       2.9143322    0.0084872694
       1512.0000       289.91445       99760.016       8092.1400     -0.57850000       2.0380000    -0.074000000       342.27300       3.1691996    0.0082594346
       1517.0000       289.90696       99756.099       8097.8869     0.067750010       2.4672500    -0.013250000       341.91400       3.1157202    0.0088967840
       1522.0000       289.81019       99727.813       7965.1131      0.15775000       2.9465000    -0.092000010       341.55800       3.7974644    0.0081617092
       1527.0000       289.77770       99725.811       7910.6437     -0.62875000       2.1120000      0.19725000       342.68100       2.0746823    0.0065421916
       1532.0000       289.75995       99743.919       7867.8906     -0.14650000       2.7625000     -0.16075000       340.76500       3.6882824    0.0097569212
       1538.0000       289.81445       99746.985       7874.3327      0.28350000       1.9952500    -0.052500000       341.11800       3.7880658     0.010339404
       1543.0000       289.91436       99759.277       7923.1229      0.12775000       1.5380000     -0.30475000       341.12200       3.5740323    0.0093703711
       1548.0000       289.99072       99756.984       7948.3099     -0.11650000       1.4217500    -0.089750010       342.23400       3.2841880     0.011058518
       1553.0000       290.18598       99726.187       8045.6542      0.24950000       1.3832500    -0.047500000       340.85300       3.1133974    0.0094804205
       1558.0000       290.18373       99725.980       8032.1838      0.25850000      0.67175000      0.29525000       342.15900       3.8010088    0.0070617297
       1563.0000       290.03109       99743.961       7923.5565      0.11275000      0.97775010    -0.081750010       341.48200       3.9105751    0.0095644448
       1568.0000       289.96532       99748.035       7874.9679      0.13975000      0.95075010     -0.12725000       342.78200       4.1142868     0.010563408
       1573.0000       289.79075       99765.068       7770.3763     -0.69800000       2.1545000      0.19700000       341.83400       2.6029667    0.0080651883
       1578.0000       289.75296       99762.793       7757.9731     0.045000000      0.81550000      0.76225010       342.50300       2.2951888    0.0075129366
       1583.0000       289.84169       99734.623       7824.2111     -0.41150000       1.2575000      0.13350000       341.79800       2.4583681    0.0090246186
       1588.0000       289.86155       99730.780       7853.7021     -0.51350000       1.4060000      0.56800000       341.89000       2.4861104     0.010534319
       1593.0000       289.94413       99733.257       7919.7171      0.75450000       1.6602500      0.23975000       342.35800       6.1060737     0.011534245
       1598.0000       289.89331       99735.150       7943.8111      0.54200010       1.4900000     0.061500000       340.80600       3.6939186    0.0086688836
       1603.0000       289.74199       99754.742       7947.2248      0.47050000       1.5245000     -0.20250000       340.90100       3.5003927    0.0090432278
       1608.0000       289.64627       99752.367       7932.5830      0.39525000       1.6720000     -0.30650000       341.21400       2.3807876    0.0080635626
       1613.0000       289.43921       99728.997       7880.2883      0.21675000       1.1202500     -0.25775000       341.14200       2.4176020    0.0078403039
       1618.0000       289.39654       99727.471       7864.4596     -0.15950000       1.0430000      0.36225000       341.70200       2.1954537     0.012113681
       1623.0000       289.47123       99726.899       7840.5238      0.32525000       1.2747500     0.097000000       342.06500       4.7641772     0.014583240
       1629.0000       289.52596       99730.606       7837.5551     -0.84900000      0.96100000    -0.073750000       342.06200       2.2767402    0.0092079863
       1634.0000       289.65983       99754.044       7874.3758     -0.36400000      0.71875010     0.046750000       342.28800       2.5308344     0.011910333
       1639.0000       289.68397       99752.959       7876.0203     -0.94875000      0.85900000     -0.38775000       340.95000       3.3556581    0.0072592682
       1644.0000       289.65626       99734.368       7852.2294    0.0072500000      0.96300010     0.052250000       342.01300       3.7659961    0.0082410020
       1649.0000       289.64756       99732.094       7872.3629     0.091250000       1.7652500    -0.041000000       341.36400       3.0094215     0.010894841
       1654.0000       289.59706       99727.777       7898.1079      0.25850000       1.3370000      0.12900000       341.64300       3.4908291     0.012579582
       1659.0000       289.58583       99730.299       7942.0243      0.22525000       1.6190000    -0.030250000       341.18000       2.4706028    0.0085487499
       1664.0000       289.59066       99745.634       8011.2761      0.85200010       1.2667500      0.12375000       342.04300       3.1271677     0.011856284
       1669.0000       289.60967       99749.926       8098.5241       1.0482500       2.5027500     -0.29925000       340.87100       1.9445985    0.0076627020
       1674.0000       289.67199       99750.592       8233.1429       1.6525000       1.6767500      0.12500000       341.27600       2.1029490     0.010255506
       1679.0000       289.63518       99751.717       8265.1510       1.0100000       1.6247500    -0.096500000       341.09100       3.2437723    0.0061032306
       1684.0000       289.56227       99750.379       8296.9282       1.0940000      0.99800000   -0.0037500000       340.75000       2.4509173     0.010949029
       1689.0000       289.51350       99750.438       8258.8908       1.1017500      0.38075000   -0.0040000000       340.94700       2.0475064    0.0092046239
       1694.0000       289.37216       99753.966       8083.4417      0.63475000       1.7437500     -0.18550000       341.31500       2.8311735    0.0078195980
       1699.0000       289.37588       99746.532       8053.8465       1.3265000       1.4652500     0.073750000       341.87300       6.8782674     0.020853678
       1704.0000       289.51025       99728.297       8071.8574      0.88225010       2.9582500     -0.59925000       341.46000       4.0590450     0.013005841
       1709.0000       289.51312       99727.758       8057.8855      0.72450010       2.8840000     -0.56875000       341.22400       3.3309530    0.0079929826
       1714.0000       289.51607       99727.198       8097.8975     -0.13150000       2.8645000      0.58250000       342.77800       2.0657216    0.0085499793
       1720.0000       289.49141       99732.116       8068.5629     -0.61350010      0.18650000   -0.0025000000       341.96200       2.4891096     0.010986814
       1725.0000       289.37031       99754.353       7967.1721      0.18450000       1.2512500      0.87125000       343.04000       3.0134482     0.010880493
       1730.0000       289.49158       99736.690       8041.5044     -0.89550010       2.6712500     -0.47175000       341.03400       2.0203124    0.0074433563
       1735.0000       289.55245       99733.221       8090.3214     -0.11775000       2.7200000    -0.030000000       341.73800       2.6596500     0.010138855
       1740.0000       289.67081       99733.707       8248.3601     -0.82300000       1.7085000     -0.26650000       341.64300       2.5829163    0.0092732598
       1745.0000       289.72514       99733.277       8310.6911     -0.31175000       2.2482500     -0.23450000       340.84900       2.6494246     0.013024474
       1750.0000       289.73021       99736.528       8315.8608     -0.21450000       1.3475000     0.083500010       342.09500       2.2792107    0.0060802517
       1755.0000       289.65710       99754.838       8246.1941      0.12150000       1.5847500     -0.40750000       340.87000       2.6265223    0.0096277696
       1760.0000       289.61503       99748.753       8199.5406    -0.018250000       1.8150000     -0.13625000       341.74900       3.1254217    0.0071958926
       1765.0000       289.55006       99728.077       8103.1549      0.17375000       1.7140000      0.39450000       341.85800       3.5682415    0.0093699736
       1770.0000       289.48452       99728.504       8057.1432     -0.43925000       1.2450000      0.31575000       343.17800       2.7012502     0.011399803
       1775.0000       289.44287       99728.006       8015.0092     -0.18150000      0.16275000      0.18450000       342.78700       2.1266317    0.0085862489
       1780.0000       289.41454       99748.962       7984.5238     -0.39950000      0.22900000      0.32675000       343.52200       2.4219676    0.0078806404
       1785.0000       289.39355       99754.715       7944.2571     -0.91050000      0.43175000      0.29150000       342.05600       3.5830755    0.0083553034
       1790.0000       289.36981       99736.721       7875.6400    -0.063750010      0.93850000      0.26825000       341.85000       4.2684203    0.0099897912
       1795.0000       289.38686       99733.299       7850.2497     -0.56300000       1.2715000      0.13725000       342.10100       3.1283997    0.0096203600
       1800.0000       289.42850       99733.557       7843.8288      0.46450000       1.1595000      0.13200000       340.97300       3.1717636     0.011172731
       1805.0000       289.49849       99733.807       7853.7967      0.60425000       1.6337500     -0.26550000       341.46700       5.3094813     0.012269369
       1811.0000       289.60752       99746.506       7865.9289     -0.11550000      0.99900010      0.12550000       342.25200       2.2924609    0.0089802257
       1816.0000       289.62283       99747.884       7852.7493     -0.83250000      0.72225000    -0.089750010       341.99100       3.1294331    0.0091331857
       1821.0000       289.51667       99727.298       7766.7461     -0.29650000      0.15625000    -0.045500000       342.42600       3.4751934     0.011155158
       1826.0000       289.48737       99726.907       7734.3828     -0.39675000       1.0130000      0.40975000       342.99900       3.2080986    0.0080603637
       1831.0000       289.46730       99746.328       7734.8638    -0.058250000       1.4665000    0.0085000000       342.34500       2.8524881     0.011223286
       1836.0000       289.43863       99746.894       7728.3066     -0.58325000       2.4782500     0.070500000       342.57900       2.9318149    0.0099433438
       1841.0000       289.47205       99745.990       7754.2262      0.62200000       1.6302500     -0.70975010       341.22900       4.7831544     0.010158182
       1846.0000       289.45926       99747.568       7757.4390      0.86300000       1.5712500      0.11150000       342.16200       3.0384734     0.010517397
       1851.0000       289.37586       99730.777       7732.8088      0.77875010       1.3127500   -0.0072500000       341.25700       4.9898712     0.010347239
       1856.0000       289.33685       99726.534       7728.8755      0.99600010       1.2080000     -0.10200000       340.77700       3.2700999    0.0080437943
       1861.0000       289.30976       99747.414       7739.1863       1.0755000      0.79800000      0.13050000       341.44000       3.5802533    0.0092686530
       1866.0000       289.29090       99748.708       7734.5403      0.42475000       1.1882500     -0.28350000       341.99200       4.1737929     0.011208006
       1871.0000       289.25727       99730.020       7709.9957      0.81975000      0.50025000     -0.44825000       340.83600       2.3259749     0.011139701
       1876.0000       289.29103       99728.459       7722.6589      0.69825010      0.36125000     0.022750000       340.89700       2.1154542     0.010042756
       1881.0000       289.40203       99727.783       7754.2482      0.58700000      0.78700010     -0.13525000       341.19500       1.9635261    0.0091938698
       1886.0000       289.46149       99728.217       7773.3096      0.29775000      0.92825000    -0.076000010       342.06900       4.0979054    0.0076598344
       1891.0000       289.57067       99752.228       7800.3710      0.90350000       1.2820000    -0.023000000       341.13200       3.2059724     0.011110598
       1897.0000       289.63341       99754.513       7863.3776      0.67725000       1.1240000    -0.091250000       341.97700       2.5685501    0.0089777054
       1902.0000       289.54910       99730.140       7896.4080     -0.30525000       1.0882500     0.067000000       342.05500       3.3366270     0.013375845
       1907.0000       289.60445       99727.735       7972.0546   -0.0010000000      0.55625000      0.27400000       342.04100       4.8021089     0.010499622
       1912.0000       289.74228       99731.600       8118.3004      0.34075000       1.0137500    -0.086750000       343.27500       2.7197597    0.0093267869
       1917.0000       289.83658       99728.998       8229.0514     -0.21625000      0.73950000      0.22700000       343.15500       2.3499697    0.0081470574
       1922.0000       289.96611       99736.815       8372.7466      0.23350000       2.1825000      0.22025000       342.23400       2.1141192    0.0071432260
       1927.0000       290.10472       99737.273       8443.3570       1.0040000      0.53750000      0.53100000       342.02900       2.6895942     0.010180290
       1932.0000       290.23071       99717.647       8461.6185    0.0047500000      0.74750010     -0.16075000       341.53300       2.2394363     0.010407859
       1937.0000       290.34095       99717.008       8484.9828     0.074750010      0.55775000      0.64075010       341.50600       3.5033002     0.010423400
       1942.0000       290.54202       99736.714       8476.2171      0.18325000      0.76200000      0.15250000       341.52500       4.1470662     0.010441118
       1947.0000       290.59951       99737.145       8442.5653     -0.57000010       1.0220000      0.21350000       342.16200       2.9200719    0.0083390007
       1952.0000       290.53047       99728.164       8402.2964      -1.1225000       2.2540000     0.051250000       341.40800       5.8258232     0.015911993
       1957.0000       290.49299       99730.461       8347.3849     -0.89950010      0.41775000      0.41750000       343.72000       4.4433461     0.011445951
       1962.0000       290.37115       99728.761       8224.0141      -2.4785000       1.6157500     -0.48075000       342.62900       2.7433449    0.0079289791
       1967.0000       290.31931       99728.925       8159.5241      -2.2762500       1.6180000     -0.34825000       341.51400       2.3017762    0.0079774050
       1972.0000       290.29172       99748.281       8128.8435      -2.4325000       1.7457500     -0.37475000       340.64800       2.8395418     0.011277721
       1977.0000       290.28903       99748.672       8087.6947      -2.5072500       1.4320000      0.10725000       341.67900       2.9660500     0.010357819
       1982.0000       290.35043       99724.209       8067.0481     -0.91250000       2.1502500     -0.43625000       341.70600       2.9956224    0.0093643460
       1988.0000       290.35641       99722.413       8025.7116     -0.82625000       2.1395000     -0.18625000       342.17900       3.1217356    0.0074473343
       1993.0000       290.36817       99730.786       7980.4901      -1.6437500       1.4097500     -0.66150000       342.41300       3.5443583    0.0085802762
       1998.0000       290.34586       99729.763       7939.2025      -2.1792500       1.2210000     -0.14575000       341.86900       3.5273106    0.0098461701
       2003.0000       290.26861       99737.207       7881.5415      -2.2385000       1.1712500     -0.26050000       341.01200       2.6290916     0.010902362
       2008.0000       290.21839       99736.766       7864.7367      -1.8052500      0.99000010      0.44475000       341.12500       3.8343169     0.012985045
       2013.0000       290.18112       99717.154       7882.1593      -2.4570000       1.2005000     -0.10525000       341.70500       2.9772321     0.010512381
       2018.0000       290.11541       99717.895       7863.9733      -2.1247500       1.8342500     -0.56175010       341.49800       3.6517211     0.013244321
       2023.0000       290.00686       99737.516       7847.6720      -2.1482500       1.5637500     -0.59200000       341.53500       3.1728764     0.010001421
       2028.0000       289.96971       99737.039       7844.2534      -1.6240000       2.0670000     -0.41975000       341.31300       2.5505572    0.0072247108
       2033.0000       289.93331       99728.905       7811.4585      -1.0752500       2.0897500      0.25525000       342.58000       2.2867864    0.0099338490
       2038.0000       289.94212       99731.672       7816.8563      -1.0740000       1.8182500     -0.33025000       342.60100       2.4733504    0.0089616212
       2043.0000       290.04227       99730.734       7874.8559     -0.22150000       1.9920000    -0.072000000       341.28800       2.0833996    0.0087877689
       2048.0000       290.07606       99728.303       7897.9885     -0.80850010       2.1972500    -0.099000010       341.25800       2.7689549    0.0090963053
       2053.0000       290.11092       99737.508       7895.4071      0.48925000       1.2775000      0.14800000       342.37300       2.8890825     0.010928027
       2058.0000       290.10835       99737.028       7933.1528     -0.32850000       1.6717500     -0.16250000       341.58400       3.3549920     0.011131473
       2063.0000       290.08102       99717.191       8010.0538     -0.11650000       1.1020000     0.021000000       342.44300       2.5584517    0.0086432378
       2068.0000       290.02925       99717.888       8025.8452     -0.52125000       1.6760000     -0.30975000       342.05800       3.3282701     0.010784222
       2073.0000       289.90716       99737.174       8043.6918     -0.23825000      0.82700000      0.45375000       343.82700       4.5562093     0.012925546
       2079.0000       289.86509       99735.928       8028.6473      0.50125000       1.8910000     -0.13775000       341.16300       3.0777512    0.0085419408
       2084.0000       289.78877       99730.145       7917.7745     -0.60825000       1.7122500     -0.51400000       342.49500       3.5657663     0.010920523
       2089.0000       289.89923       99731.257       7952.2116     -0.43750000      0.79975000      0.44950000       342.14500       2.3774643    0.0087725976
       2094.0000       290.16585       99724.628       8048.3102       1.0240000       2.4930000     -0.18975000       341.26300       2.2399262    0.0070972522
       2099.0000       290.33460       99722.278       8139.1581    -0.033500000       1.4477500      0.50550000       343.04500       3.1998582    0.0094149118
       2104.0000       290.58345       99730.327       8313.1736     -0.40700000       3.0350000     -0.13050000       341.29800       3.1926958     0.010900521
       2109.0000       290.74607       99733.448       8415.7189      0.39700000       1.5342500      0.63250010       343.45500       1.9618001    0.0087466872
       2114.0000       290.87013       99727.918       8509.7776      0.54775010       1.4545000     0.065500010       342.67300       2.5261874     0.011714845
       2119.0000       290.89572       99731.701       8540.3512       1.0412500       1.6215000     -0.28150000       341.60800       3.4201112    0.0087601684
       2124.0000       290.88718       99748.869       8535.8070      0.71225010       1.9792500      0.56825000       342.62000       2.9267661    0.0076432977
       2129.0000       290.82316       99745.602       8513.5832    -0.077500000       1.7357500      0.22425000       342.72500       4.1806471    0.0098219692
       2134.0000       290.60512       99728.179       8432.9788     -0.67525010       1.4567500      0.27000000       342.37200       2.0823776    0.0097385725
       2139.0000       290.51250       99728.731       8365.4719     -0.35725000       1.6347500     -0.40125000       342.47200       2.8124874    0.0092925027
       2144.0000       290.46554       99730.144       8306.4915      0.86200000       1.8602500      0.33125000       342.96400       5.6160732     0.015522768
       2149.0000       290.38625       99728.040       8205.4559      0.50250000      0.88100000      0.95950010       343.90400       2.0452424    0.0079246868
       2154.0000       290.29630       99738.554       8044.0614      -1.0647500       4.8027500     -0.83475010       341.84800       2.0064642     0.010025926
       2159.0000       290.26370       99735.232       7965.3607     0.029000000       3.2350000     -0.28475000       341.43400       2.6065929    0.0060178074
       2164.0000       290.24923       99711.403       7897.4776     -0.99250010       2.1572500     -0.10425000       342.57400       2.3192281    0.0096090806
       2170.0000       290.22569       99715.238       7835.2637     -0.68200000       2.7715000      0.41125000       342.91800       1.9693598    0.0078990117
       2175.0000       290.24992       99732.102       7825.0604    -0.030000000       3.6760000     -0.79225000       340.88800       1.9957502     0.013785114
       2180.0000       290.24545       99726.072       7843.7023      -1.4475000       2.4850000      0.50175010       342.13700       3.3501545     0.010292345
       2185.0000       290.24411       99729.979       7840.8726       1.1050000       1.7445000    0.0020000000       342.66000       2.0016571    0.0081243801
       2190.0000       290.27052       99732.746       7878.3717      0.15425000       2.3705000      0.12500000       341.84700       2.6392221    0.0084324715
       2195.0000       290.30038       99729.644       7889.8591      0.64050000       4.0255000      0.23250000       342.36600       2.5131406     0.010177353
       2200.0000       290.33024       99727.778       7879.1538       1.7535000       4.5280000     -0.74125000       342.30700       2.4054704    0.0089028702
       2205.0000       290.34881       99738.010       7818.0994     -0.72225000       5.6982500     -0.35950000       340.77600       2.5747650     0.010805719
       2210.0000       290.36894       99735.362       7807.2904     -0.34725000       4.3415000     -0.58700000       340.72300       2.1797213    0.0062674272
       2215.0000       290.39485       99717.212       7796.3252      0.35150000       5.4365000    -0.078000000       341.31500       2.7169540     0.010592730
       2220.0000       290.47590       99730.801       7851.2969      0.28600000       4.1092500     -0.26750000       342.43800       2.7549698    0.0093439359
       2225.0000       290.50763       99732.245       7903.4459      -1.0360000       3.6852500      0.18675000       340.89900       1.9408916    0.0088028308
       2230.0000       290.52573       99722.352       8000.2875     -0.59100000       4.1192500     -0.82625000       341.57800       1.9921763    0.0090880572
       2235.0000       290.55665       99724.131       8072.6408      0.38975000       3.3027500    -0.072250000       341.81000       1.9739790    0.0074969218
       2240.0000       290.56054       99732.745       8153.0443      0.24475000       4.2325000     -0.66700010       341.04600       2.3537383    0.0091493466
       2245.0000       290.55084       99730.856       8191.2260    -0.064500000       2.0555000     -0.44300000       341.40900       2.0256883    0.0073730081
       2250.0000       290.54119       99727.744       8202.0931     -0.46250000       1.4870000     -0.32725000       340.97300       2.5358855    0.0074691755
       2255.0000       290.58429       99731.411       8192.4090      0.13275000       1.9192500     0.021500000       341.72100       3.2803123    0.0096945068
       2261.0000       290.38891       99727.359       8116.3305      0.50200000       2.4660000     -0.68525000       341.53300       2.1731200    0.0088766387
       2266.0000       290.27841       99723.538       8059.0187      0.83200000       2.2800000     -0.55450000       341.62300       4.1672390     0.011565786
       2271.0000       290.10434       99731.871       7977.4537      0.10425000       1.3642500     -0.55150000       341.68800       2.7486223    0.0092843036
       2276.0000       290.00802       99732.433       7923.1964     -0.31850000       1.7565000     -0.19625000       342.33700       4.0079191     0.011042184
       2281.0000       290.03802       99714.621       7903.9360    -0.044500000       1.3820000      0.40075000       342.36600       4.2527197    0.0095641090
       2286.0000       289.99698       99712.337       7850.1815      0.61125000       2.3105000      0.23100000       342.95200       2.8535800     0.010552764
       2291.0000       289.96287       99728.546       7792.0380       1.4450000       3.7517500     -0.36300000       342.31800       2.7371692    0.0091674393
       2296.0000       289.90004       99726.937       7732.0327       1.4980000       1.9010000      0.37300000       342.75700       3.5500717    0.0077801815
       2301.0000       289.72411       99713.210       7612.9418       2.0580000       2.8952500     -0.21675000       340.78100       2.0670971    0.0082253119
       2306.0000       289.66913       99714.511       7559.8191      0.89075010       3.0855000     -0.28950000       342.26300       3.3113495    0.0079634072
       2311.0000       289.68812       99719.322       7555.7508      0.15350000       1.3722500     0.038250000       342.33000       4.2130393     0.010317669
       2316.0000       289.69045       99714.318       7545.8938      0.80425010       1.8540000     -0.16650000       342.10400       2.7956368    0.0097261343
       2321.0000       289.80940       99711.317       7580.9699       1.1310000       2.7487500     -0.13275000       341.53300       3.1370713    0.0069488540
       2326.0000       289.82366       99716.236       7589.1082      0.15200000       1.9272500     -0.24450000       340.78400       4.9026673     0.011523138
       2331.0000       289.74635       99716.627       7575.1971      0.70400010       1.6547500    -0.038500000       341.82800       4.2738877     0.015347420
       2336.0000       289.69561       99713.940       7572.3937      0.20475000       1.4130000      0.24375000       342.35800       2.7198449     0.010118330
       2341.0000       289.58646       99721.013       7564.6568      0.44150000       1.4495000     -0.33000000       341.21800       2.5913891    0.0080138330
       2346.0000       289.52900       99727.723       7564.0002     -0.33325000      0.67875000     -0.35325000       342.96900       5.0464622     0.011611532
       2352.0000       289.50571       99725.700       7560.5083      0.88675000       1.6675000      0.33425000       343.86200       3.0750102    0.0078065384
       2357.0000       289.48936       99723.931       7584.1390      0.33525000       1.6675000      0.13450000       341.36600       2.0613295    0.0064699113
       2362.0000       289.47434       99732.319       7619.4176     0.075500000       1.8100000      0.24750000       341.90700       2.6070324     0.010021015
       2367.0000       289.50167       99731.863       7670.3382     -0.19825000       1.1475000     -0.54375000       341.89300       3.0683291     0.011039946
       2372.0000       289.54980       99713.588       7780.1930      0.19600000       1.0342500     -0.12450000       340.81500       4.5681617     0.011553203
       2377.0000       289.61659       99712.455       7828.3457     -0.17325000      0.48425000     -0.43875000       340.93700       2.1792462    0.0065187951
       2382.0000       289.76481       99728.625       7845.9889    -0.085500000      0.50975000     -0.37450000       341.45100       2.2856813    0.0073063734
       2387.0000       289.83712       99726.013       7878.2922      0.11575000      0.32475000     0.029000000       341.48000       5.7632842     0.013789457
       2392.0000       289.87673       99713.272       7863.6204      0.39375000      0.25425000      0.18575000       342.46000       4.7645747    0.0087120702
       2397.0000       289.92342       99715.069       7900.5422      0.70600000       1.0085000      0.00000000       341.28000       2.9825142     0.010768033
       2402.0000       289.96456       99718.329       8028.9977      0.47050000       1.1570000     -0.25200000       341.65000       2.3680264    0.0075260994
       2407.0000       289.95742       99713.305       8051.9705      0.27400000      0.90800010     -0.14550000       341.56400       2.6862466    0.0098154565
       2412.0000       289.91872       99712.301       8029.2532    -0.045500000       1.0850000      0.10600000       341.02700       5.3413280     0.013157210
       2417.0000       289.89486       99717.220       8013.3178     0.032500000      0.77250000     -0.10075000       341.74600       2.7945138     0.010419408
       2422.0000       289.78432       99718.323       7898.4268     -0.13175000      0.21625000     -0.26400000       341.27200       3.2124672     0.011498227
       2427.0000       289.77911       99713.386       7879.3502     -0.78550000      0.62375000    -0.027000000       341.45400       2.1148534    0.0062531829
       2432.0000       289.83357       99712.486       7909.7854      -1.4652500      0.63825010     -0.19200000       340.72800       2.1260484     0.012067863
       2437.0000       289.91508       99717.434       7959.6224      -1.5785000       1.0242500     -0.27075000       342.74700       2.4684998    0.0077873055
       2443.0000       290.09022       99715.127       8075.7267      -1.0755000      0.98125000      0.43000000       343.50900       4.0241391     0.013129568
       2448.0000       290.22730       99713.297       8174.6118      -1.9090000       1.1832500     -0.43225000       340.81300       2.4571481    0.0068376641
       2453.0000       290.43741       99725.996       8334.0575      -1.4017500      0.85550000     0.060500000       341.30500       2.3731215     0.010506914
       2458.0000       290.52350       99728.550       8404.4251     -0.68175010      0.59100000     -0.24550000       340.80200       3.7865027     0.011084020
       2463.0000       290.55565       99714.865       8444.3361     -0.30125000      0.36025000     0.017250000       340.96700       3.0049918     0.011422106
       2468.0000       290.57669       99712.764       8466.9305      -1.0382500      0.77075000     -0.20775000       341.84000       3.4170080    0.0076995719
       2473.0000       290.50060       99721.381       8403.0033      -1.6450000      0.39050000     -0.30900000       341.86600       2.7622208     0.011162331
       2478.0000       290.48693       99721.065       8412.3685      -2.0945000    -0.051500000     -0.29250000       341.27300       2.7274207    0.0093488052
       2483.0000       290.53280       99715.087       8484.0263      -1.7465000     -0.26875000    -0.092000010       341.43700       2.6476737    0.0097392601
       2488.0000       290.48348       99714.788       8464.3993      -1.6920000     -0.57275000     0.011500000       341.08700       2.3256325     0.010839426
       2493.0000       290.34950       99717.907       8395.2376      -2.0205000     -0.68000000    -0.030750000       342.12000       2.0485907    0.0078576423
       2498.0000       290.32163       99713.642       8384.9544      -2.6102500      0.77050010     -0.36050000       341.86700       1.9046235    0.0089025838
       2503.0000       290.33054       99702.125       8385.1166      -1.7740000       1.2637500      0.61450000       341.56600       1.9629885    0.0076478268
       2508.0000       290.26467       99705.686       8314.4649      -1.7690000       1.0642500      0.19300000       341.20600       2.0232484    0.0075172717
       2513.0000       290.23104       99717.142       8263.3104      -1.7572500     0.086750000     -0.15125000       341.94400       2.1509144    0.0091829952
       2518.0000       290.17927       99714.891       8180.2062      -1.4010000      0.97975000     -0.10025000       341.88500       6.6913883     0.015581692
       2523.0000       289.99162       99713.485       7963.9030     -0.93150000      0.48550000     0.022500000       341.54100       2.9257374    0.0095817518
       2529.0000       289.95337       99719.382       7865.3880     -0.60475000      0.51850000      0.18175000       341.63700       2.9659888     0.010513371
       2534.0000       290.05468       99716.314       7849.1371     -0.40750000      0.54600000   -0.0027500000       341.60600       2.8456563    0.0089402623
       2539.0000       290.05596       99711.250       7852.0212     0.059000000      0.24900000     -0.15875000       341.92800       2.2493360    0.0081062833
       2544.0000       290.04808       99713.879       7907.7659     -0.57900010      0.20800000     -0.36875000       341.44400       2.0862583    0.0093948686
       2549.0000       290.05816       99718.790       7927.8892     -0.80300000      0.22450000     -0.12375000       341.88700       2.0617860    0.0098511502
       2554.0000       290.01557       99716.356       7957.0407     -0.51700000      0.14175000    -0.027750000       342.54000       1.9944951    0.0070426007
       2559.0000       290.07969       99711.437       8005.5298     -0.82375000      0.14150000      0.33425000       342.54200       2.1210180     0.013395197
       2564.0000       290.22970       99714.629       8052.6923      -1.2692500     -0.39300000      0.27325000       342.56700       2.0919655    0.0064848779
       2569.0000       290.32049       99719.624       8092.9376     -0.77025000      0.23075000    -0.041250000       343.01100       2.1026431     0.010896283
       2574.0000       290.43747       99716.273       8160.9988      -1.1247500      0.93825010     0.058500000       342.91800       2.5127722    0.0097465777
       2579.0000       290.52969       99711.210       8209.8329     -0.25975000       1.5427500      0.21250000       342.19400       6.2584346     0.011646463
       2584.0000       290.61449       99713.893       8233.4225     0.078250010      0.91200010     -0.20550000       341.85000       4.0571019     0.012962089
       2589.0000       290.62830       99718.837       8254.9410    -0.050750000      0.66200010     0.071750000       341.69500       2.7367025     0.010873572
       2594.0000       290.60530       99716.298       8286.0342     -0.84375010      0.41525000      0.21275000       341.47600       3.1028344     0.010603459
       2599.0000       290.60648       99711.368       8305.4636     -0.80850010      0.74550000     0.079500000       343.19200       3.0591664    0.0085355909
       2604.0000       290.53986       99714.183       8295.1707      -1.3195000      0.13750000    0.0062500000       341.81200       7.0542045     0.019255212
       2609.0000       290.53699       99719.148       8306.1169     -0.60325000      0.14550000      0.20225000       341.31400       3.6544502    0.0089368616
       2614.0000       290.61282       99715.854       8353.8950     -0.43600000      0.45700000      0.15800000       342.65000       2.9741118    0.0084597659
       2620.0000       290.60067       99709.855       8323.2892      -1.1772500       1.2280000      0.21100000       342.81900       5.3198745     0.014560288
       2625.0000       290.55014       99715.390       8260.7696      -1.6782500       1.3445000     -0.37700000       341.03600       4.8405849     0.014676254
       2630.0000       290.54509       99720.408       8228.9275     -0.27600000       1.2270000      0.17250000       342.18800       4.2817525     0.010080710
       2635.0000       290.50658       99715.450       8174.3850     -0.16175000      0.83200000      0.10825000       342.71500       7.3239508     0.016710261
       2640.0000       290.46939       99710.261       8132.6771    -0.014500000       1.4995000     -0.33875000       341.45700       3.5750687     0.011923713
       2645.0000       290.41206       99715.215       8079.1710     -0.62025000       1.7237500    -0.022500000       341.45400       4.0788872     0.011591116
       2650.0000       290.33011       99720.183       8008.4166     -0.18600000       2.3555000    -0.076250000       341.37900       2.4449118    0.0095215002
       2655.0000       290.17605       99714.804       7883.3804      0.62500000       2.9112500      -1.3132500       341.23500       2.7416056     0.011611357
       2660.0000       290.16175       99709.815       7851.6080      0.55775000       2.9332500     -0.38825000       342.33400       3.2333255     0.010523221
       2665.0000       290.18890       99715.432       7847.6823       1.7895000       2.8645000      0.42700000       342.73500       2.8293360    0.0091011695
       2670.0000       290.22637       99720.221       7873.3457       1.0860000       3.1262500    -0.015750000       342.87200       2.0914093     0.010597403
       2675.0000       290.29535       99715.212       7913.7613      0.90300010       3.1925000    -0.076500010       342.52100       3.7733977    0.0093930777
       2680.0000       290.40604       99713.410       7997.7790      0.13975000       3.2265000    -0.035500000       341.28300       2.1831752     0.012823893
       2685.0000       290.45672       99716.608       8041.8232     -0.88625000       2.2142500     -0.24275000       343.00300       2.8505262     0.013100827
       2690.0000       290.54023       99711.181       8071.3930      0.97825000       2.4737500    -0.086750000       343.14500       3.3555387     0.012226069
       2695.0000       290.57531       99703.938       8112.3667      0.48775000       2.7367500     -0.94500010       341.91100       2.1067790    0.0077148264
       2700.0000       290.56117       99699.139       8145.2212     -0.52450000       2.4635000      0.32125000       342.87300       2.0503418    0.0079817493
       2705.0000       290.45076       99704.167       8146.2692     -0.27625000       2.0922500      0.11225000       342.52000       2.3661943    0.0095130509
       2711.0000       290.37659       99717.247       8198.4380      0.69550000       2.0585000      0.13625000       342.19500       2.4532032    0.0092554158
       2716.0000       290.33760       99715.945       8196.6223      0.24600000       1.7357500    -0.095000010       342.86700       5.4562223     0.013053043
       2721.0000       290.25274       99710.935       8102.7658       2.0552500       1.7775000     -0.16575000       341.76200       2.3879962     0.010700889
       2726.0000       290.27763       99715.820       8084.3020      0.19925000       4.2370000      -1.1195000       342.08600       3.9152140    0.0093384764
       2731.0000       290.43653       99719.303       8083.3358      0.66825000       2.4170000     -0.13350000       342.49300       2.2322004    0.0090907022
       2736.0000       290.51596       99714.364       8093.2560      0.25050000       1.8112500      0.80475000       343.38900       2.1698604    0.0077886978
       2741.0000       290.64722       99714.665       8173.9214       1.0337500       1.8860000      0.47125000       342.28800       2.0090228     0.012364631
       2746.0000       290.73305       99717.469       8219.3409     0.072750000       1.6940000     0.067250010       342.65400       2.0070928    0.0066311149
       2751.0000       290.69208       99709.725       8235.1314      0.99150000       2.1012500      0.56175010       342.83400       2.4587831    0.0081094984
       2756.0000       290.74641       99702.902       8268.7964      0.78175000       3.4147500      0.17925000       342.48500       3.6170720     0.010460226
       2761.0000       290.90894       99699.935       8317.5359       1.3695000       2.3275000     -0.56800000       342.26400       2.0733661    0.0067160599
       2766.0000       290.97744       99705.096       8347.7272     -0.47325000       2.4415000     -0.37125000       342.84600       2.9849493     0.010028720
       2771.0000       291.08044       99717.388       8384.6054     -0.94450000       2.2392500     -0.11800000       342.57300       2.4915153    0.0065733893
       2776.0000       291.08229       99716.163       8400.7535      0.25800000       2.8512500      0.25725000       342.35300       2.6723863     0.012327173
       2781.0000       290.90793       99711.239       8379.6326    -0.023750000       2.3390000      0.19425000       342.94200       2.6267628    0.0093095357
       2786.0000       290.82977       99716.157       8376.0868      0.59350000       3.1605000    -0.084250000       341.15700       2.5108791     0.010272634
       2791.0000       290.71502       99719.196       8367.6151     -0.37925000       2.6477500     -0.45325000       341.84500       2.7143413    0.0078479463
       2796.0000       290.67038       99714.225       8366.6566      0.82625000       3.3502500     -0.45550000       342.04900       2.5685352     0.013448617
       2802.0000       290.77675       99714.793       8401.3393      0.73550000       2.0255000     -0.13725000       340.91900       2.3505173    0.0083057972
       2807.0000       290.75555       99717.144       8387.7877     0.077000010       1.9152500     0.079750000       342.20500       2.0541362    0.0092663957
       2812.0000       290.71801       99708.011       8377.3021      -1.2035000       2.4720000      0.17200000       342.07600       2.0807592    0.0094600546
       2817.0000       290.63351       99701.671       8310.9252     -0.75875000       2.6180000     -0.11800000       341.34300       1.9630247    0.0080277682
       2822.0000       290.38769       99703.563       8146.1460     -0.54625000       1.0655000      0.57650000       342.41000       3.0500180    0.0070482856
       2827.0000       290.29352       99706.567       8067.1784     -0.49125000      0.83150010     -0.10500000       341.16500       4.5778898     0.011200117
       2832.0000       290.19825       99707.113       7957.9106     -0.48250000       1.4025000      0.22875000       341.78200       3.9485369    0.0097793659
       2837.0000       290.22595       99704.195       7933.6449     -0.23500000       1.3615000    -0.051500000       341.73000       2.8168447     0.013241445
       2842.0000       290.51022       99704.754       8038.8326      -1.3697500       1.7250000     -0.39450000       342.06000       2.1452363     0.010323098
       2847.0000       290.53713       99706.435       8053.4414     -0.97775010       2.1612500    0.0060000000       341.93800       2.6432747     0.010716450
       2852.0000       290.48718       99699.438       8065.9941     -0.97650000       2.7417500     -0.20200000       340.89200       1.9772352     0.013251206
       2857.0000       290.45215       99698.550       8063.7852     -0.96600000       2.1472500      0.36950000       341.37200       2.6442750     0.010134178
       2862.0000       290.21103       99713.264       7976.6762     -0.34025000       2.9912500    -0.072750000       340.93900       2.1249319    0.0095956571
       2867.0000       290.14493       99712.351       7974.9184     -0.52300000       2.0205000     -0.19375000       341.25700       1.9734034    0.0083505384
       2872.0000       290.21207       99697.617       8021.5932     -0.12725000       1.2415000     -0.36750000       341.20200       1.9729394    0.0083633333
       2877.0000       290.25915       99693.003       8065.3243      0.23175000       1.0715000      0.23325000       341.07100       2.6947842    0.0084308564
       2882.0000       290.39601       99687.070       8175.3466      0.36975000       1.7457500     -0.72650000       341.10500       3.2159233     0.011717554
       2887.0000       290.42445       99682.947       8219.1963     -0.49800000      0.81675000     0.073500000       341.74000       3.0396644    0.0092503083
       2893.0000       290.40259       99681.629       8230.0142     -0.47475000      0.77475010     0.082500000       341.43600       2.2935737    0.0064992869
       2898.0000       290.40665       99687.593       8246.5353     -0.45450000       1.2850000      0.25850000       342.52400       5.7419746     0.013787887
       2903.0000       290.31076       99700.752       8219.5258      -1.0257500      0.58975010     -0.17800000       342.16200       4.6751285    0.0092517361
       2908.0000       290.35153       99702.530       8242.7480    -0.034250000       1.0930000     -0.39075000       340.92800       3.9577019    0.0085030829
       2913.0000       290.53708       99704.215       8312.9673      -1.2050000      0.74800000     -0.69725000       341.17200       7.9771939     0.017631832
       2918.0000       290.59432       99708.634       8341.4512     -0.15400000      0.63950000      0.49300000       343.06000       3.5371906     0.012645452
       2923.0000       290.64539       99707.551       8380.1229     -0.60475000       1.0327500      0.10625000       342.21500       2.5188083    0.0087871809
       2928.0000       290.68246       99702.923       8386.1352     -0.24475000       1.1050000     -0.18850000       341.42000       2.2425026    0.0072118635
       2933.0000       290.63221       99698.717       8335.7181     -0.15650000      0.69500010    -0.091000010       342.41500       4.7640024     0.011629246
       2938.0000       290.65483       99701.397       8342.7464      0.88200000      0.47025000    -0.069250000       342.46000       3.6576889     0.010014653
       2943.0000       290.77577       99701.974       8384.1304      0.52525000       2.2347500      0.10975000       342.03800       3.7413880     0.011641548
       2948.0000       290.76126       99697.981       8378.1868       1.5940000       3.2942500     -0.26125000       341.84000       3.1299569    0.0079699644
       2953.0000       290.66182       99698.741       8364.4308       1.9630000       1.5795000      0.29475000       343.69900       2.5706384     0.011274273
       2958.0000       290.63201       99702.667       8367.1747       1.8910000       1.7675000     -0.34350000       341.10200       2.5304583    0.0085657938
       2963.0000       290.55567       99702.076       8345.7353       2.2190000       2.0795000     -0.35700000       341.70200       3.9385468     0.013860039
       2968.0000       290.51837       99698.165       8330.5832       1.4290000       1.8255000      0.61125000       343.17700       4.8369315    0.0095763219
       2973.0000       290.58192       99699.932       8362.0588       1.6277500       2.1812500     -0.22225000       341.85900       3.6287018     0.011370780
       2978.0000       290.54282       99702.227       8338.4381       1.5275000       2.1597500     -0.51250000       341.67100       2.3861583     0.012424154
       2984.0000       290.43247       99694.867       8258.7826       2.2792500       1.8642500      0.10700000       342.80600       2.2175058    0.0071820325
       2989.0000       290.32473       99692.543       8197.8272       2.5792500       2.8475000     -0.77500000       341.51900       2.1238338    0.0088016632
       2994.0000       290.15299       99701.636       8114.9511       2.1890000       3.3550000     -0.75125000       341.84900       2.7350452    0.0089334878
       2999.0000       290.07003       99700.981       8068.4288       1.3945000       2.4575000      0.37125000       343.15200       3.3951857    0.0089940120
       3004.0000       289.96425       99688.012       8013.1934       1.7535000      0.99325010      0.66925000       342.69100       1.9335743    0.0099083630
       3009.0000       289.98660       99689.539       8009.7642       1.3045000       2.0552500      0.21725000       342.00500       2.4688907     0.014162501
       3014.0000       290.14488       99702.134       8061.7793      0.90975000       2.8735000     -0.30525000       341.63300       2.2768010    0.0097043762
       3019.0000       290.18630       99700.419       8069.1007      0.71650000       2.9845000     -0.29950000       341.10600       1.9351895    0.0090869862
       3024.0000       290.27027       99693.482       8093.6155      0.93100010       2.6752500    -0.091500010       341.62900       2.4337151    0.0089926275
       3029.0000       290.26501       99697.235       8083.8285       1.6930000       2.7667500     -0.17850000       341.74300       2.2153930    0.0093366895
       3034.0000       290.14094       99701.625       8031.4727       1.2882500       2.8677500     -0.60700010       341.72500       2.3141700     0.011193662
       3039.0000       290.12829       99698.761       8017.8393      0.52225000       3.9527500     -0.40100000       341.98500       3.2831181    0.0094822045
       3044.0000       290.11680       99699.527       8004.5597       1.8707500       4.4245000     -0.63800000       341.08800       2.1293424    0.0089835412
       3049.0000       290.18172       99703.451       8014.8902       1.3522500       2.5327500     -0.43025000       342.32500       2.0132315    0.0082896401
       3054.0000       290.31346       99700.490       8024.8410      0.48250000       3.1260000      0.11250000       341.27700       2.4650543     0.012488602
       3059.0000       290.43983       99698.485       8099.1916      0.62675010       1.9807500     -0.22550000       342.46600       2.9352153     0.012519648
       3064.0000       290.62471       99706.077       8218.4761      0.45775000       3.3255000    -0.092500000       342.61800       2.5450587     0.011671816
       3069.0000       290.75644       99708.241       8330.9509      0.96350000       3.0372500     -0.68200000       341.83000       2.0771495    0.0092003873
       3075.0000       290.92314       99699.541       8537.8161      0.32625000       2.5775000     0.033750000       342.04300       2.0096928    0.0097359308
       3080.0000       290.99865       99701.209       8628.3423     0.059500000       3.1830000     -0.54525000       341.24900       3.0687416     0.011509500
       3085.0000       290.98747       99701.508       8657.3568    -0.022250000       3.4882500     -0.49600000       342.12900       2.0569082    0.0077008613
       3090.0000       290.82445       99688.869       8589.9514      0.66400000       3.2882500     -0.10450000       341.42500       2.9826137     0.012347176
       3095.0000       290.70672       99687.296       8535.3160       1.1635000       3.6890000     -0.20050000       341.34600       2.2962551     0.013032844
       3100.0000       290.57664       99691.861       8461.2734       1.8317500       3.4867500    -0.081000000       341.82600       2.2318296    0.0089521866
       3105.0000       290.36323       99709.184       8331.8434      0.36150000       3.2252500   -0.0015000000       341.58200       3.1054038    0.0094819519
       3110.0000       290.33167       99702.338       8277.3614      0.93975000       1.4860000      0.38775000       342.71700       2.4822379    0.0088310309
       3115.0000       290.38221       99688.748       8246.0900       1.2765000       1.1417500      0.28225000       343.00000       3.2854074    0.0090366508
       3120.0000       290.45716       99693.532       8208.6657      0.54775010       2.8080000     -0.24325000       341.85000       2.4634606     0.012870276
       3125.0000       290.54650       99689.371       8209.0113     -0.32425000       2.7462500     -0.21475000       341.97600       2.4878982     0.013835990
       3130.0000       290.66178       99694.955       8207.6586      0.37325000       2.6502500     -0.28950000       341.30300       3.3368910     0.010267989
       3135.0000       290.75125       99702.253       8262.1014      0.67600010       1.9270000      0.51675000       341.82200       2.0002337     0.010811782
       3140.0000       290.91524       99698.217       8449.9233      0.13425000       2.1842500     -0.47575000       341.50800       2.3611240     0.013188272
       3145.0000       290.98131       99693.937       8549.1174      0.27800000       1.3822500    -0.024750000       342.18200       3.0900014     0.010471472
       3150.0000       290.98588       99692.101       8622.7537     -0.30050000       1.6712500    -0.025750000       341.53600       2.9543443     0.010355707
       3155.0000       290.92149       99702.401       8708.6389      0.21675000       2.0637500      0.18750000       343.39400       3.3709787     0.010757191
       3161.0000       290.80863       99689.526       8705.6067      0.66675000       1.5565000      0.47400000       341.41800       4.0976350    0.0095613108
       3166.0000       290.68516       99688.014       8651.7182      0.95650010       2.1522500     -0.55825000       341.06200       2.5203770    0.0095443260
       3171.0000       290.49481       99701.310       8539.4916      0.84250000       1.5160000     -0.24725000       341.36700       2.5155471     0.010316252
       3176.0000       290.36472       99701.967       8448.7793    -0.029250000      0.93075010     -0.20300000       341.70900       2.2712146    0.0084666447
       3181.0000       290.21868       99692.367       8287.1939      0.13200000       1.1647500      0.14975000       341.20400       2.4122262    0.0087743029
       3186.0000       290.11348       99694.522       8187.7531     -0.44025000       1.0572500      0.20775000       341.82700       4.9153927     0.014151315
       3191.0000       290.09104       99702.446       8148.7341     -0.62925000       1.2772500      0.33525000       342.32500       3.3678699    0.0098615463
       3196.0000       290.04097       99700.339       8096.2190     -0.63150000       1.3515000     -0.16450000       340.88200       2.5136194     0.010368518
       3201.0000       289.96219       99698.454       8056.4025     -0.58100000      0.78400000     -0.38575000       340.93300       2.5169541    0.0076056773
       3206.0000       289.93479       99701.445       8019.4322    0.0022500000      0.84650000    -0.055750000       341.53600       3.9280472     0.013338532
       3211.0000       289.95865       99697.507       7977.6093    -0.027250000      0.60575000    0.0087500000       341.90700       4.8694813     0.011621208
       3216.0000       289.94892       99693.833       7950.2156     -0.10750000      0.78275000     -0.34075000       341.26400       4.4531910     0.012589356
       3221.0000       289.94240       99701.915       7924.1462    -0.097250010      0.39150000     -0.17000000       341.58600       2.9045255     0.011079462
       3226.0000       289.95247       99702.312       7923.3565     -0.43225000     0.088250000      0.13225000       341.28400       3.1614888    0.0082769542
       3231.0000       289.92902       99684.664       7961.2386    -0.031000000     0.018250000     -0.23450000       341.08600       3.0661621    0.0084211373
       3236.0000       289.94089       99682.314       7973.8424      0.14325000     -0.19825000      0.16600000       342.12800       2.7665228     0.010483363
       3241.0000       290.03833       99698.541       7978.7779      0.38175000     -0.27550000      0.41175000       342.63500       2.4849002    0.0085885070
       3246.0000       290.06583       99697.010       8004.5839      0.63100000     -0.71875010     -0.26200000       341.61300       2.2002060     0.010532645
       3252.0000       290.06964       99683.448       8044.6112      0.82650010     -0.50475000      0.15450000       342.35100       1.9587520     0.011786282
       3257.0000       290.05234       99685.326       8058.0907       3.2707500    -0.062750000    -0.040000000       342.70800       2.0259385    0.0085809332
       3262.0000       289.96664       99684.496       8085.4742      0.20125000      0.35100000     -0.16525000       344.48700       2.1288593    0.0080877164
       3267.0000       289.93005       99683.533       8098.2149     0.089000000       1.6502500     0.085750010       342.85800       3.0631768    0.0091788893
       3272.0000       289.89204       99701.433       8066.5015     0.042000000      0.87125000     0.069750000       342.08400       3.2435007     0.013278343
       3277.0000       289.88961       99704.125       8066.2317     -0.27975000       1.6362500     0.045000000       342.39800       2.9931785    0.0088425016
       3282.0000       289.91018       99683.350       8078.6898     -0.57950000       1.6075000    -0.094250000       341.69500       4.2114904     0.018673916
       3287.0000       289.95805       99682.231       8102.8002      0.57675000       1.8987500     0.091250000       343.36400       2.7752887     0.011016559
       3292.0000       290.05810       99698.618       8138.9462     -0.20075000       2.2660000     -0.42425000       342.20200       2.8199966     0.014170619
       3297.0000       290.12851       99696.068       8178.1612      0.23150000       2.4927500     -0.39300000       342.50900       3.3033105     0.013311585
       3302.0000       290.19080       99683.073       8236.5703      0.51725000       1.5297500     -0.55100000       342.93800       2.2560034     0.011445921
       3307.0000       290.28474       99684.801       8285.8525      0.46050000       1.9020000      0.61800000       343.60500       3.0458231     0.010848967
       3312.0000       290.38416       99682.018       8323.1346      0.92875000       2.4587500      0.35150000       341.84300       3.0966647     0.010195043
       3317.0000       290.48710       99684.015       8380.5710      0.41525000       2.2132500      0.15825000       342.88600       2.5936068     0.011391933
       3322.0000       290.67390       99711.681       8474.0644      0.66450010       2.9527500      0.15200000       343.66300       2.2742225    0.0087039619
       3327.0000       290.74862       99715.738       8516.3487       1.0710000       2.3210000      0.27900000       343.20100       2.1060115    0.0080359837
       3332.0000       290.77915       99695.101       8583.9429      0.15050000       3.8415000     -0.15775000       341.85000       2.5318193    0.0085148058
       3337.0000       290.76343       99693.233       8565.5604      0.48975000       1.1402500      0.19800000       342.30500       2.9703970     0.014548513
       3343.0000       290.62841       99696.564       8437.1694      0.58100000       1.3135000      0.64650010       343.26600       2.0516118     0.010506984
       3348.0000       290.55809       99693.569       8354.6795       1.8860000       2.2550000      0.26075000       342.08200       2.8546811     0.012309413
       3353.0000       290.44764       99696.154       8212.1167       2.5742500       1.8667500     -0.34025000       342.18200       3.2022746     0.010909419
       3358.0000       290.41600       99695.945       8146.0976       3.0565000       2.2825000      0.22400000       341.93300       3.2020013     0.013213778
       3363.0000       290.44238       99682.483       8129.6180       2.1265000       2.0152500     -0.19275000       341.31500       2.5289650     0.012963373
       3368.0000       290.44831       99683.585       8093.9040       1.3280000       3.0985000     -0.28600000       341.46300       2.0943281     0.014476198
       3373.0000       290.48794       99704.486       8064.3568   -0.0077500000       1.7190000      0.28975000       343.23000       2.6700266     0.011918329
       3378.0000       290.51813       99701.708       8068.9604   -0.0010000000       2.6130000    -0.091750000       341.66800       2.7845335     0.017825857
       3383.0000       290.58569       99683.653       8117.2244    0.0095000010       1.2982500     -0.11125000       341.92200       3.1997261     0.012307575
       3388.0000       290.53993       99684.654       8091.9057      0.50200000       2.0577500    -0.099000010       341.92000       3.2436738    0.0081514704
       3393.0000       290.43912       99685.229       8067.6959       1.2682500       1.8762500     -0.15375000       342.55100       2.1958501    0.0094768228
       3398.0000       290.35650       99683.502       8025.2619       1.2592500       1.6122500     -0.59925000       341.18900       2.6840978    0.0080456713
       3403.0000       290.15971       99696.178       7891.5868       1.3595000       1.2755000     -0.28975000       341.91100       2.1807350    0.0098817046
       3408.0000       290.08545       99698.573       7844.7967      0.73125000       1.0710000      0.22075000       342.56600       3.7779205    0.0095293254
       3413.0000       290.08962       99682.405       7828.2223      0.24000000       1.2165000      0.31650000       342.28500       2.9340972    0.0090186416
       3418.0000       290.09191       99683.458       7851.7805      0.74725000       1.0217500      0.30675000       341.45700       2.7636977    0.0088912502
       3423.0000       290.11751       99704.197       7902.0706      0.73450010      0.86950000     0.084250000       341.62500       4.4698563    0.0097186710
       3428.0000       290.17032       99701.333       7990.0301      0.78225000      0.62650000      0.23400000       342.57100       2.7235573    0.0095735549
       3434.0000       290.29452       99685.197       8193.1921      0.23175000      0.56875000    0.0060000000       341.42200       2.7311319     0.010616034
       3439.0000       290.34614       99683.126       8278.5791      0.44175000       1.1982500     -0.31775000       341.91000       3.8742597     0.011034059
       3444.0000       290.42462       99672.476       8367.9721      0.91600010      0.46625000      0.36000000       342.77100       2.4547320    0.0074530179
       3449.0000       290.41046       99672.696       8396.2828    -0.011000000      0.78575000      0.72350000       344.17600       3.0956669    0.0097814577
       3454.0000       290.32591       99694.024       8351.9895      0.86200000       1.4267500     -0.53200000       341.08500       2.3676574    0.0079992100
       3459.0000       290.24900       99691.852       8325.3104    -0.018000000       1.6905000      0.21950000       341.72300       4.3837421     0.017229153
       3464.0000       290.10412       99677.050       8270.8600      0.10900000      0.91875000      0.13500000       342.74200       1.9378835    0.0093701470
       3469.0000       290.04185       99671.095       8241.2536      0.23250000      0.27325000      0.65600000       343.50900       2.5022390    0.0082632159
       3474.0000       289.99461       99657.033       8205.5080       1.2347500       1.0837500      0.25475000       343.22400       3.3120090     0.011305955
       3479.0000       289.97195       99659.405       8182.0995      0.94875000       1.2242500     -0.38750000       342.98200       6.1013462     0.015519690
       3484.0000       290.00917       99676.990       8181.9933       1.4845000       1.4042500     -0.17100000       341.24500       2.4956250     0.011292654
       3489.0000       289.99058       99677.372       8154.8783       1.4162500       1.7525000     -0.16025000       341.53000       2.9374063     0.011505282
       3494.0000       289.92733       99673.138       8086.4730       1.8245000      0.78375010    0.0040000000       342.39700       3.3808799    0.0091909060
       3499.0000       289.96357       99679.906       8114.4925       1.8087500      0.94300000      0.59775000       342.98400       5.1540964     0.014452283
       3504.0000       290.02579       99686.889       8186.9907       1.6465000       2.5305000     -0.54800000       341.84900       2.4096857    0.0091991903
       3509.0000       290.09256       99684.143       8226.7038      0.49425000       3.5135000     -0.28900000       341.83400       2.4517023    0.0079866089
       3514.0000       290.21625       99686.374       8324.7040      0.84775010       2.9607500     -0.61050000       342.04000       2.0918305    0.0082795061
       3519.0000       290.34568       99687.576       8368.1848       1.4027500       4.5185000     0.036250000       341.97500       1.9464231    0.0075882971
       3525.0000       290.51123       99671.104       8349.7530       1.5505000       3.9232500     -0.60900000       341.60400       2.2657206     0.011464984
       3530.0000       290.63905       99699.245       8412.8571       2.8762500       3.7837500     -0.69075010       341.91100       2.0534866    0.0093437732
       3535.0000       290.68811       99705.504       8459.2689       2.2952500       3.9767500     -0.69725000       341.38100       2.9313898     0.011433010
       3540.0000       290.53951       99684.846       8486.0195       3.3347500       2.6640000     -0.12750000       341.56900       2.1516393     0.011276511
       3545.0000       290.48755       99683.539       8534.6962       1.6075000       1.5577500       1.2105000       343.12200       1.9019300    0.0095601926
       3550.0000       290.46017       99685.940       8591.1432       1.3875000       2.3927500     -0.37525000       342.38100       1.9734020     0.010801929
       3555.0000       290.41079       99681.592       8653.7420       1.3307500       2.9102500     -0.61675000       342.13000       2.2521167    0.0090912142
       3560.0000       290.50053       99687.390       8697.6515       1.0075000       3.1102500   -0.0070000000       341.17800       2.9026471    0.0096747582
       3565.0000       290.70654       99716.542       8759.9540       2.6157500       3.0365000     -0.23450000       341.38900       2.1778261     0.012360673
       3570.0000       290.84088       99687.464       8759.4093       2.5425000       2.9960000     -0.48225000       341.45400       1.9815774     0.012967462
       3575.0000       290.92690       99681.596       8753.7536      0.98825000      0.85675000     -0.11300000       342.15000       2.3142002    0.0091619498
       3580.0000       290.90009       99685.833       8734.8864       1.0305000       2.3565000      0.24475000       342.46000       2.3862008     0.013174026
       3585.0000       290.90006       99683.573       8711.0689       1.3792500       3.2597500     -0.68125000       341.49900       2.9934680     0.010741109
       3590.0000       290.94513       99701.208       8662.1949      0.30725000       2.6110000     -0.43200000       341.92400       3.5308277     0.011508438
       3595.0000       290.91926       99705.175       8630.5270      0.58400010       2.4675000    -0.092250000       342.27900       2.7180859    0.0080862464
       3600.0000       290.85651       99699.295       8605.0942       1.5650000       3.9100000     -0.16450000       342.28600       2.5026218     0.011979396
       3605.0000       290.77351       99671.240       8593.8682       1.4340000       2.3725000     -0.30125000       341.49300       3.4332868     0.016562006
       3610.0000       290.64847       99674.283       8538.5881       1.1597500       1.7442500     -0.22175000       342.22500       2.5223840     0.010141145
       3616.0000       290.41582       99685.166       8463.4408      0.69600000       2.6182500     -0.78700010       342.02600       3.4457684     0.012911917
       3621.0000       290.35128       99702.683       8403.3002      0.58975010       2.1087500      0.41100000       343.17300       3.4088357     0.011582305
       3626.0000       290.22984       99704.844       8328.4408       1.2545000       1.2097500      0.95250000       341.79000       3.2236234     0.012770355
       3631.0000       290.07314       99674.951       8244.2981      0.95550010       2.3837500     -0.31200000       342.21900       2.4121789    0.0089782991
       3636.0000       289.97525       99670.910       8189.2860      0.11475000       2.4792500     -0.14375000       341.05200       1.9360610    0.0072971021
       3641.0000       289.82351       99682.659       8102.0633       1.2817500       1.6740000     -0.70000000       340.95000       2.1791673    0.0088296814
       3646.0000       289.76052       99684.766       8065.6672       1.3162500       2.0630000     -0.54925000       341.29100       3.3282402     0.010097489
       3651.0000       289.83374       99702.475       8095.7596      0.72550000       1.6895000      0.17700000       342.20300       2.6368889     0.010186151
       3656.0000       289.85361       99704.357       8112.5623     -0.50625000       1.6897500      0.40875000       342.54800       2.0508808    0.0084715630
       3661.0000       289.86249       99677.460       8141.1023     -0.52750000       1.3807500      0.26725000       342.48400       2.2953904    0.0093225902
       3666.0000       289.90392       99670.971       8175.0531     -0.40050000       2.7630000      0.38875000       342.19700       3.2017192    0.0077034742
       3671.0000       289.94059       99673.447       8198.3601     -0.76675000       2.3070000    -0.037500000       342.38600       2.9114731    0.0091071531
       3676.0000       290.00300       99673.842       8255.2573      0.35650000       3.6097500    -0.093500000       341.75800       1.9907487     0.012444989
       3681.0000       290.12015       99691.577       8320.3584      0.52275000       2.6062500     -0.27625000       342.14600       2.0304373    0.0082964396
       3686.0000       290.21945       99693.829       8423.2078     -0.47200000       1.7207500      0.66200010       343.06700       4.4575960     0.014492668
       3691.0000       290.33217       99675.885       8604.5897     -0.31825000       2.3410000      0.45675000       342.33000       2.3113356     0.011240666
       3696.0000       290.42086       99673.238       8733.6357     -0.60875000       3.3750000    -0.093500000       342.23500       2.2661279    0.0083985853
       3702.0000       290.53924       99673.187       8943.9536     -0.86050000       2.8407500     -0.11050000       342.16300       2.7670850     0.010705170
       3707.0000       290.57819       99674.225       9000.0128     -0.66100000       3.0685000     -0.24475000       341.49100       2.9362595    0.0099310925
       3712.0000       290.54335       99694.004       8931.3288     -0.81750010       3.4957500      0.23725000       341.84400       2.5744179    0.0073444729
       3717.0000       290.55324       99693.553       8906.7074     0.026750000       2.6752500     -0.35975000       341.69500       2.3219534    0.0081778110
       3722.0000       290.54326       99670.028       8830.6475     -0.70175000       1.0125000      0.99750010       342.11100       5.5784750     0.015769173
       3727.0000       290.54697       99667.591       8763.0030      0.76350000      0.18450000     -0.32750000       342.80700       4.0795426     0.012991536
       3732.0000       290.59517       99667.128       8717.2475       1.9282500       1.1817500      0.24875000       342.36200       3.8305788     0.011873608
       3737.0000       290.61113       99668.704       8657.7941       1.9040000       1.5677500     -0.14100000       342.17300       3.4553179     0.013165511
       3742.0000       290.59976       99693.096       8557.2831       2.1967500       2.5085000    -0.078500000       341.63200       2.6359861    0.0097648043
       3747.0000       290.59960       99693.976       8489.3308       2.5425000       1.7387500     -0.16200000       341.66800       2.5000213    0.0099703636
       3752.0000       290.58737       99669.526       8428.5635       2.4682500       1.4842500      0.10050000       342.54800       2.5657455     0.011699810
       3757.0000       290.60122       99666.930       8401.8422       1.4680000      0.47575000    -0.076500010       341.09400       2.4562310     0.011449508
       3762.0000       290.61205       99664.971       8379.8654       1.0367500      0.89575000      0.16100000       341.52100       4.5057532     0.020022799
       3767.0000       290.65913       99669.290       8403.5948       1.3110000       1.5037500     -0.27525000       341.13400       4.3885236     0.012427957
       3772.0000       290.79702       99702.520       8532.6462       2.1610000       1.4185000     0.045250000       342.49500       7.0946628     0.044160204
       3777.0000       290.82596       99706.273       8559.3799       1.4557500       1.4687500      0.18300000       341.47800       3.9263437     0.013694637
       3782.0000       290.81581       99687.970       8569.5158      0.58050000       1.8127500     -0.56225000       341.10200       3.4380049     0.011896420
       3787.0000       290.80799       99683.929       8557.9684      0.41625000       1.2582500     -0.35850000       341.11400       2.5698988     0.016186543
       3793.0000       290.70229       99668.018       8439.4979     0.012250000       1.0515000     -0.25725000       341.45700       2.2598043     0.010629309
       3798.0000       290.67436       99666.618       8407.1240     -0.45550000      0.80950000      0.18400000       341.97700       5.5270337     0.018291846
       3803.0000       290.68933       99685.512       8408.2724     -0.29425000       1.0180000     0.075000000       341.99200       2.7607829    0.0078321316
       3808.0000       290.70571       99688.681       8409.0219       1.1072500      0.40625000      0.22950000       342.18400       4.4010478     0.012474278
       3813.0000       290.73058       99688.117       8444.3043      0.70250000      0.51575010     0.068750000       341.93800       3.0161230     0.012414837
       3818.0000       290.76643       99684.221       8442.7826     0.076500010      0.94500010    -0.069250000       342.57700       2.9509233     0.010856943
       3823.0000       290.84072       99668.630       8423.8647       1.1765000      0.99875000     0.029750000       341.78100       2.3894115     0.011434583
       3828.0000       290.87439       99668.188       8420.9801      0.97400000      0.67300000      0.15675000       342.92300       3.3949626     0.012232844
       3833.0000       290.94332       99673.297       8419.7159      0.93175010       1.2342500     -0.46800000       342.27300       2.0625168     0.014456580
       3838.0000       290.89181       99676.627       8396.6606      0.51825000      0.98275010      0.50200000       343.36800       2.6431044     0.011394625
       3843.0000       290.76286       99694.670       8399.8375      0.19525000       1.6742500      0.18225000       342.73500       2.0744714     0.011166147
       3848.0000       290.63430       99692.381       8337.0964       2.0342500       1.7960000      0.68500010       342.86800       4.3371281     0.017346568
       3853.0000       290.37548       99669.968       8191.3916       2.3035000       2.1550000     -0.18425000       340.98900       3.5602485     0.014030897
       3858.0000       290.26187       99666.857       8120.2721       1.7797500       1.4827500     -0.29025000       341.43500       3.2337362     0.012493935
       3863.0000       290.19103       99662.165       8027.4067       1.2612500       1.1660000     0.067000000       341.45600       2.9830271     0.015744824
       3868.0000       290.16563       99664.226       7999.8722       1.3190000      0.12775000      0.20525000       342.98000       2.0964946     0.012187149
       3873.0000       290.22934       99687.643       8040.8732       1.1660000       1.2675000    -0.080000010       342.59800       2.3165678     0.012363691
       3878.0000       290.26583       99688.809       8064.0914      0.62425010       1.2157500     -0.11750000       343.14100       2.5959169     0.010990249
       3884.0000       290.34003       99676.645       8115.4478      0.26425000       1.1915000     -0.14250000       343.04100       4.9677656     0.014587948
       3889.0000       290.39055       99671.756       8163.4947      0.53525000       1.9445000     -0.61025010       341.30200       2.6708717     0.015452492
       3894.0000       290.45011       99656.576       8237.2959    0.0067500000       1.8915000      0.10550000       343.93100       2.4965351     0.010660337
       3899.0000       290.48151       99658.694       8257.0721     -0.25300000       1.1615000     0.089500000       342.10000       2.6298410    0.0092004796
       3904.0000       290.48468       99675.015       8248.8462     -0.73925010       1.0855000     -0.14050000       343.46800       2.6866118    0.0098972146
       3909.0000       290.53300       99679.144       8278.2261    -0.053000000       1.5745000     0.050500000       342.08000       2.6470587    0.0094699523
       3914.0000       290.59974       99689.439       8294.4643      -1.0860000       2.1652500      0.39725000       342.23600       2.1662799    0.0095012522
       3919.0000       290.62103       99684.995       8305.5567     -0.19900000       2.1570000     -0.50250000       341.03900       2.1947998     0.010457150
       3924.0000       290.65986       99663.793       8351.3173    -0.063750010       1.1040000     0.056500000       341.07500       3.1709880     0.010340443
       3929.0000       290.66274       99662.405       8363.5453     -0.16500000      0.97100010      0.28850000       343.38100       2.8720695     0.013050381
       3934.0000       290.60577       99662.348       8335.6169     -0.40075000       1.2540000      0.22550000       341.83100       3.0682451     0.010489635
       3939.0000       290.57587       99666.786       8317.6137     -0.56700000       1.4690000     -0.20750000       341.05100       2.4747173    0.0088989482
       3944.0000       290.56252       99688.654       8313.4445     -0.93150000       1.0220000     -0.64600000       341.03700       3.3994496     0.014469506
       3949.0000       290.52399       99688.391       8285.7679     -0.94925000      0.73925010     -0.26550000       341.13500       2.3172224     0.011621104
       3954.0000       290.44235       99677.504       8223.1067     -0.61375000       1.0652500     -0.46725000       341.22200       3.2530271     0.011547352
       3959.0000       290.42977       99670.775       8193.6693     -0.76400010      0.17525000      0.15850000       341.80700       4.0974984     0.014137446
       3964.0000       290.44178       99651.199       8172.9715      -1.0150000      0.34300000      0.26575000       341.38300       2.9273162     0.012679412
       3969.0000       290.45065       99653.418       8155.0789      -1.1837500      0.60325000     -0.21900000       341.55000       3.3453230     0.013445594
       3975.0000       290.51174       99670.318       8143.7198     -0.73075000      0.69350000      0.12775000       341.94600       2.6856749    0.0088987295
       3980.0000       290.49953       99685.756       8155.8727      0.78700010       1.3940000     -0.23050000       341.23300       2.6568280     0.013073970
       3985.0000       290.46238       99689.847       8144.1382      0.69150000       1.4425000      0.16450000       341.46200       2.7806460    0.0085637919
       3990.0000       290.35425       99671.114       8114.6869     -0.15875000       1.2147500      0.13700000       343.02400       4.8609876     0.015894974
       3995.0000       290.29337       99663.902       8094.6478     -0.24575000       1.5072500    -0.067500000       341.93800       1.9606903    0.0094949767
       4000.0000       290.24479       99659.162       8070.9860      0.86600010       1.3717500      0.00000000       341.93700       2.9583193     0.012483468
       4005.0000       290.18063       99651.309       8016.4135      0.44500000       1.6637500      0.44625000       342.43400       2.4221962     0.014528720
       4010.0000       290.18509       99657.217       8035.5754     -0.45350000       1.9005000      0.75150000       343.38000       2.3526712     0.011976704
       4015.0000       290.25611       99676.521       8098.1343      0.50525000       1.8812500     -0.41325000       342.29300       3.2254614     0.013788522
       4020.0000       290.26882       99687.046       8134.0928     -0.11350000       1.6782500      0.11800000       342.79200       2.3029458    0.0094743609
       4025.0000       290.26105       99688.779       8154.7197       1.1585000       2.6292500     -0.63250010       341.29100       3.8540945     0.017204112
       4030.0000       290.19939       99668.153       8135.1790       1.1350000       2.1660000     -0.53650000       341.85100       3.4862426     0.010955667
       4035.0000       290.14988       99662.740       8116.0241       1.5510000      0.38325000       1.1055000       342.91200       1.9533923    0.0095130722
       4040.0000       290.08469       99662.252       8094.8076       2.0435000       2.7357500     -0.26500000       342.24000       2.9755916    0.0098112539
       4045.0000       290.04351       99662.734       8074.4897       1.2052500       3.7712500     -0.24250000       342.16500       2.4893746     0.010630985
       4050.0000       290.01461       99668.118       8050.5146       1.9485000       3.6830000     -0.17225000       341.30800       2.9168147     0.011484598
       4055.0000       289.98690       99689.079       8006.7540      0.71275000       2.4835000     -0.12375000       341.12200       2.2278866     0.010757747
       4060.0000       289.99974       99687.271       8008.0630       1.5475000       1.6395000      0.38375000       342.34400       2.9170022     0.012962943
       4066.0000       290.05448       99674.487       8030.7802       1.5410000       2.3652500     -0.13525000       341.32600       3.0937197    0.0092585361
       4071.0000       290.09044       99672.982       8079.1773       1.0727500       2.0032500    -0.048250000       341.95900       2.3080823     0.011688584
       4076.0000       290.10955       99669.147       8107.2353      0.14975000       1.2690000     0.031500000       342.65800       3.1862163    0.0099424241
       4081.0000       290.08588       99667.272       8104.8704     -0.12725000      0.80725000      0.27175000       342.54700       5.7561416     0.013790922
       4086.0000       290.09702       99670.364       8138.4961      0.34975000       1.5457500      0.56275000       343.01900       2.9685273     0.012980000
       4091.0000       290.13387       99676.767       8219.4111     -0.32675000       2.1712500     0.060750000       341.69000       2.4613551     0.011410221
       4096.0000       290.15409       99675.705       8243.9878      0.60050000       2.9135000      0.20675000       343.02800       2.6722803     0.013042447
       4101.0000       290.19005       99678.375       8260.1601      0.39400000       4.0595000     0.096250010       342.61700       4.9233268     0.014674499
       4106.0000       290.20895       99676.862       8268.8276     -0.71550010       2.4065000     -0.21625000       342.94900       2.0937275     0.017514543
       4111.0000       290.19951       99658.121       8217.2513     0.016250000       3.4727500     -0.35625000       341.98100       2.2225231     0.010954433
       4116.0000       290.19931       99651.461       8190.7493      0.32775000       3.3175000      0.45850000       342.06600       1.9093204    0.0098150030
       4121.0000       290.20001       99650.497       8204.5471     -0.54450010       4.4777500     0.029750000       341.86300       2.3123513    0.0092190548
       4126.0000       290.20001       99654.032       8182.9594      0.20050000       1.5282500      0.66350000       343.16900       2.2436875    0.0092982299
       4131.0000       290.18601       99673.795       8121.5683      0.90975000       3.2830000     -0.59475000       341.59200       2.5164362    0.0097638719
       4136.0000       290.19720       99678.279       8091.6231      0.31950000       1.9577500      0.66300000       342.99100       2.4823631    0.0093637351
       4141.0000       290.21876       99682.039       8027.8248     0.087750000       1.2137500      0.26350000       342.77700       3.2945908     0.015890089
       4146.0000       290.25020       99678.339       8029.7700      0.19525000       1.6967500    -0.057500000       342.05300       1.9703893    0.0086190953
       4151.0000       290.32329       99648.947       8129.1065      0.95000000      0.79950000      0.25825000       343.49500       2.4410506     0.011114171
       4157.0000       290.36848       99639.871       8166.4886       1.1075000      0.49475000    -0.052500000       342.65500       2.9013414    0.0092036225
       4162.0000       290.38220       99639.491       8189.7656       1.2850000      0.71900000      0.16225000       342.78600       3.7655883     0.015754710
       4167.0000       290.41232       99644.689       8223.0243       1.6752500       1.0230000     -0.28950000       341.82000       2.9540109     0.010350065
       4172.0000       290.42552       99671.537       8207.0206       1.4165000       1.3397500     0.098750000       341.38400       2.3305027     0.012410615
       4177.0000       290.45924       99680.943       8232.4105       1.9720000      0.59950000     -0.13050000       342.28300       3.5312119     0.012093076
       4182.0000       290.50628       99689.126       8304.9604       2.6170000      0.13900000      0.13925000       341.94900       3.9243238     0.011692746
       4187.0000       290.57062       99687.768       8366.0661       2.1517500    -0.045250000    -0.037500000       341.21900       4.2027174     0.016145997
       4192.0000       290.64510       99669.525       8389.8911       1.5320000      0.69475000      0.11650000       342.83100       4.8262277     0.011623160
       4197.0000       290.72924       99661.944       8493.3870      0.95400010       1.3440000     -0.13700000       341.23300       5.1595226     0.011726823
       4202.0000       290.86837       99647.777       8679.0610      0.73925010      0.42425000     -0.10175000       341.27000       3.8574606     0.012188829
       4207.0000       290.94149       99646.955       8809.0999    -0.033000000      0.89225010      0.30400000       342.83000       5.0429900     0.024524199
       4212.0000       290.97766       99661.751       9023.8768     0.059250000       1.8057500      0.45375000       342.70000       3.7718697     0.011376510
       4217.0000       291.02345       99667.677       9094.4257       1.3570000       1.4170000     -0.19800000       342.33300       2.4963624     0.010709867
       4222.0000       291.05096       99682.904       9039.6278      0.71375000       1.4677500     0.090000000       341.78700       1.9891402     0.011518179
       4227.0000       291.05725       99683.800       9011.3583       1.4497500       1.8030000     0.095750000       341.85800       2.6039050    0.0088561429
       4232.0000       291.07196       99671.795       8898.4307       1.0317500       1.9797500      0.33825000       342.51600       2.2383793     0.010334746
       4237.0000       291.05441       99662.952       8837.3370       1.7030000       1.7757500     -0.33975000       341.23900       2.4245121     0.012144206
       4242.0000       290.95526       99641.972       8780.1489       1.2795000       1.3377500     -0.35600000       341.28100       2.2881021     0.010830578
       4248.0000       290.93136       99635.421       8766.1083       1.5940000       1.3270000     0.058250000       341.56100       2.8281641     0.013026188
       4253.0000       290.97725       99635.740       8814.8871       1.3457500       1.2047500     -0.12675000       342.08900       3.2926486     0.012700586
       4258.0000       290.93524       99641.864       8797.1098      0.36975000       2.8230000     0.026500000       342.81000       2.4187622     0.010679916
       4263.0000       290.88448       99662.793       8801.0047      0.28700000       2.4217500     -0.15700000       341.57900       2.5077143     0.011129949
       4268.0000       290.82262       99671.470       8746.7575      0.25400000       2.1935000     -0.11200000       342.15400       2.4097708     0.010276132
       4273.0000       290.67244       99682.426       8616.3550      0.98625000       3.0817500     -0.88425000       341.35300       1.9859552    0.0075637468
       4278.0000       290.59513       99683.182       8512.3364    -0.027250000       2.2840000    -0.092500000       342.54400       2.2326879     0.012147337
       4283.0000       290.53671       99672.843       8367.5236      -1.3147500       1.4712500      0.51825000       343.56900       1.9271119     0.011111600
       4288.0000       290.53551       99667.113       8304.5397     -0.86575000       1.9255000     -0.36325000       341.91900       2.1441706    0.0075666990
       4293.0000       290.59709       99652.666       8265.9785     -0.50400000       2.3535000     -0.26100000       341.84200       3.1673128     0.010594874
       4298.0000       290.60714       99652.743       8247.5981     0.069250000       1.6002500     -0.25850000       342.24900       3.3249256     0.011481438
       4303.0000       290.66780       99663.037       8302.1542      0.49775000       1.9947500    -0.067750010       342.78300       4.0530788     0.012717386
       4308.0000       290.65874       99667.635       8316.8300       1.0557500       1.7250000     -0.45200000       342.56300       2.3707314     0.010472026
       4313.0000       290.54792       99680.030       8312.7115      0.77750000       2.4155000      0.48700000       343.03100       3.8859950     0.013757380
       4318.0000       290.53048       99684.164       8330.7882       1.7302500       3.6132500     -0.51050000       341.96600       2.3839295     0.010555587
       4323.0000       290.58912       99682.748       8389.6747     -0.16175000       2.8685000     -0.17800000       342.20200       2.5980331    0.0091972949
       4328.0000       290.53015       99679.533       8376.9381      0.21125000       2.6805000     0.078500000       342.00600       2.2271941    0.0079696846
       4334.0000       290.40201       99673.831       8313.7602      0.54875000       3.0900000     -0.51525000       342.62500       3.1594715     0.015473290
       4339.0000       290.37111       99664.241       8308.2770       1.0445000       1.6712500     -0.59650000       342.47400       2.7309976    0.0065110979
       4344.0000       290.28953       99643.653       8284.1710       1.1837500       1.9967500     -0.17950000       342.70700       2.0544155     0.011000097
       4349.0000       290.26526       99639.080       8266.8684      0.44300000       2.4320000     0.058750000       343.20200       2.2689149    0.0085588448
       4354.0000       290.35134       99636.028       8295.1405       2.1375000       3.0985000     -0.76500000       341.82200       2.4388782     0.011097902
       4359.0000       290.37252       99642.276       8296.1472       1.0872500       3.8140000     -0.47700000       341.85400       2.5179725     0.010070038
       4364.0000       290.33308       99663.648       8240.8470      0.88825010       2.0750000    -0.053750000       342.46400       2.6578921    0.0079364805
       4369.0000       290.36123       99673.836       8263.4311      0.92900000       2.2997500     0.026250000       343.26600       2.0477628    0.0091105718
       4374.0000       290.43993       99688.232       8339.8922       1.8427500       1.9927500      0.71650000       342.54600       2.3980318    0.0097444271
       4379.0000       290.49016       99687.920       8386.6979       1.4335000       1.8917500    -0.045750000       341.54500       2.8345971    0.0079478921
       4384.0000       290.57711       99677.430       8461.0991       1.1925000       2.2360000     -0.68400000       341.50200       3.1374682     0.010890824
       4389.0000       290.55252       99670.714       8484.4130       1.4895000       1.7995000      0.23625000       342.71800       2.7131153     0.010044688
       4394.0000       290.47292       99656.540       8487.5481       1.2585000       1.8357500      0.19375000       342.47600       2.5931990    0.0086715053
       4399.0000       290.40553       99647.503       8466.8050      0.13875000       2.8290000     -0.26375000       341.70100       2.1262531    0.0085332560
       4404.0000       290.24562       99636.414       8397.7722      0.57650000       2.0172500      -1.0505000       341.91500       2.6147415     0.011085642
       4409.0000       290.19184       99640.601       8377.5678       1.3610000       1.7507500     -0.42575000       342.19400       3.0922552     0.010402996
       4414.0000       290.21583       99652.209       8372.0442     -0.12600000       1.2047500      0.10675000       343.60200       2.1662067    0.0095339398
       4419.0000       290.16668       99660.068       8331.5025    0.0082500000       3.1992500      0.63375000       343.25900       2.7016853    0.0094194461
       4425.0000       290.10051       99683.230       8291.5496    -0.075750000       2.8867500      0.23650000       342.87300       1.9832621    0.0078658457
       4430.0000       290.03009       99684.719       8201.5668       1.4055000       3.5840000    -0.018000000       341.50300       1.9309247    0.0086676035
       4435.0000       289.98701       99682.184       8143.1296       1.5227500       3.5575000    -0.019250000       341.21300       2.2810893    0.0077799134
       4440.0000       289.99983       99674.277       8123.1534       1.4192500       2.5740000     -0.63575010       341.93500       2.4836823    0.0078586199
       4445.0000       289.99971       99666.555       8094.3688      0.50550000       2.3682500     -0.62850000       341.53400       2.0888205    0.0082423308
       4450.0000       289.99960       99656.362       8068.1903     -0.18900000       2.3097500     0.069250000       342.70100       2.2258065     0.010813036
       4455.0000       289.98045       99637.327       8031.9785      0.68275000       3.5962500     -0.69175000       342.00300       2.8176539     0.012570091
       4460.0000       290.04516       99635.028       8067.1507       1.6135000       5.9242500     -0.64450000       341.59600       2.3219461    0.0076109378
       4465.0000       290.16181       99637.488       8134.6677       1.2152500       3.4425000     -0.24725000       342.25100       2.3263656    0.0086518367
       4470.0000       290.19440       99656.521       8198.6845      0.68125000       3.0797500     -0.32725000       342.55500       1.9737618    0.0078452773
       4475.0000       290.21839       99666.895       8250.3974       1.2652500       2.3060000     -0.10925000       342.70100       2.0300825    0.0076751451
       4480.0000       290.12947       99678.775       8253.4242       1.2770000       3.8980000     -0.24525000       342.50900       2.2695009    0.0079156835
       4485.0000       290.08778       99683.227       8263.1822      0.72325000       4.4347500     -0.49925000       341.87600       2.8089307     0.012900267
       4490.0000       290.10022       99678.859       8298.4710       1.1097500       4.6305000      0.32625000       342.65500       2.8252599     0.012715509
       4495.0000       290.10020       99672.278       8312.2652       1.2600000       4.3312500     -0.49700000       341.65000       2.6428163     0.012158758
       4500.0000       290.10012       99661.976       8311.8004      0.32125000       3.3200000     0.086500000       342.19600       2.1003890    0.0087603685
       4505.0000       290.09380       99644.490       8287.1601     -0.14000000       2.5270000      0.11875000       342.75200       2.2196770    0.0072237482
       4510.0000       290.11536       99636.719       8282.7790      0.64225000       3.3060000     0.033750000       342.64600       1.9791377    0.0086994558
       4516.0000       290.15633       99626.811       8273.7752      0.81375000       2.9727500     -0.66175000       342.09900       1.9730739    0.0072856271
       4521.0000       290.12710       99637.746       8253.8112       1.2365000       2.2752500     -0.12075000       342.50300       1.9304225    0.0084545268
       4526.0000       290.14787       99645.970       8260.5542       1.8377500       2.1685000      0.12250000       342.33900       2.8564488     0.012526195
       4531.0000       290.17765       99664.361       8279.8792       1.4465000       3.0720000     -0.34875000       342.23300       3.7282087    0.0096905716
       4536.0000       290.19863       99673.933       8298.3038       1.5300000       2.1570000     -0.33075000       342.26900       2.3083800    0.0090880407
       4541.0000       290.25157       99681.287       8341.3718      0.47275000       2.3410000     0.051750000       342.63900       2.1012907    0.0094466484
       4546.0000       290.31154       99682.726       8378.9632      0.67300000       2.6377500     -0.11700000       342.72000       2.6440855    0.0095839753
       4551.0000       290.31204       99677.705       8403.6279      0.65675000       3.8627500     -0.75000010       342.65500       2.3049567    0.0099187747
       4556.0000       290.39785       99670.276       8440.2022     -0.70300000       1.8282500      0.93725000       342.72100       2.2063947     0.010027953
       4561.0000       290.60614       99653.248       8480.7668     -0.23525000       3.8297500     -0.72925000       342.78100       2.0093427    0.0087062583
       4566.0000       290.73593       99642.278       8537.0767    -0.015750000       3.6647500     -0.60000000       342.17100       1.9184210    0.0092068977
       4571.0000       290.92480       99625.354       8616.1550       1.6485000       5.7297500      -1.0077500       342.03500       1.9715891    0.0096604777
       4576.0000       290.99583       99621.205       8680.7798      0.94275000       3.3447500      0.34675000       342.31400       1.9936784    0.0084752076
       4581.0000       290.92206       99630.060       8781.1827      0.80975000       1.8682500      0.56275000       343.08400       1.9820169    0.0068099414
       4586.0000       290.90094       99635.238       8826.4664       2.5907500       3.9960000      0.51500000       342.15800       1.9444679    0.0095431587
       4591.0000       290.79036       99647.727       8829.3495       1.3597500       4.7785000     -0.19500000       341.51100       1.9476157    0.0097708964
       4596.0000       290.77565       99657.546       8827.6924      0.76825000       5.4330000     -0.33400000       341.12100       1.9374686    0.0088557852
       4601.0000       290.88199       99665.985       8798.4094      0.78975000       3.5615000     -0.99650010       341.72500       1.9667046    0.0094522733
       4607.0000       290.91524       99672.902       8747.5429      0.26150000       1.3845000      0.54875000       342.20600       1.9204919    0.0086561750
       4612.0000       290.95209       99682.045       8683.8130       1.3450000       2.7222500      0.21700000       342.13900       1.9478041     0.011450020
       4617.0000       290.96509       99682.673       8631.1915     -0.32425000       4.7780000      0.18625000       342.37100       1.9507308    0.0098276084
       4622.0000       290.90501       99676.387       8562.8276     0.038500000       4.5202500     -0.29275000       341.76300       1.9129615    0.0090006001
       4627.0000       290.88898       99668.252       8507.5288     -0.21050000       2.3122500      0.37675000       343.34800       1.9609778     0.014740546
       4632.0000       290.89959       99651.408       8457.5959      0.17925000       4.1027500     -0.77775000       341.74800       1.9421963     0.010680211
       4637.0000       290.89931       99640.773       8424.2195    -0.077250000       3.7750000     -0.53550000       341.48000       1.9010957    0.0069106029
       4642.0000       290.91257       99624.415       8400.6215      0.53150000       2.4647500      0.24150000       342.41900       1.8871838    0.0095084695
       4647.0000       290.89866       99621.774       8379.3781     0.025500000       2.4137500      0.27350000       342.66000       1.8934067    0.0082581729
       4652.0000       290.91285       99631.054       8405.3685      0.52775000       4.3047500      -1.0497500       342.09500       1.9480071    0.0083665668
       4657.0000       290.83827       99636.798       8369.2865       1.3022500       1.8892500     0.013500000       342.13700       1.8926767    0.0084724661
       4662.0000       290.66474       99656.619       8291.0460      0.73925010       4.2297500     -0.51050000       342.28400       1.9410686     0.010102106
       4667.0000       290.55560       99659.293       8228.2689       1.0585000       3.9635000     -0.43750000       341.41100       1.8803637     0.013843815
       4672.0000       290.36960       99644.554       8087.0242    -0.047750000       4.0135000     -0.37575000       341.72400       1.9170564    0.0088010096
       4677.0000       290.29861       99644.315       8060.2426      0.36400000       4.3460000     -0.41625000       341.94100       1.9297898    0.0096892231
       4682.0000       290.30167       99640.148       8111.6885     -0.16775000       5.0747500     -0.56125000       341.79400       1.8880058    0.0088072449
       4687.0000       290.34711       99644.046       8143.4689      0.32775000       3.0697500      0.25575000       342.11600       1.9168766    0.0084981170
       4692.0000       290.46974       99670.252       8237.0175     -0.79950000       3.5787500      0.62675010       342.31500       1.8906111    0.0088553502
       4698.0000       290.61439       99675.250       8314.3806      0.50625000       3.6032500       1.0045000       343.06100       1.9417579     0.010288437
       4703.0000       290.80407       99670.692       8323.0705     0.040750000       3.3710000    -0.042000000       342.11300       1.9326544    0.0096902003
       4708.0000       290.93828       99662.650       8413.1437      -1.0862500       3.4770000    -0.094500010       342.08100       1.9442900    0.0062729558
       4713.0000       291.07099       99636.803       8557.5829      0.65350000       1.7562500      0.37500000       343.22500       1.8842015     0.010224901
       4718.0000       291.16776       99628.383       8684.8038       1.1875000       1.9072500      0.64675000       342.73200       1.9287883     0.010668669
       4723.0000       291.25259       99624.731       8908.8313      0.87250010       2.9855000     -0.37375000       342.56600       1.9095807    0.0094805772
       4728.0000       291.28380       99622.739       8972.3601    -0.013000000       3.7345000     -0.31325000       341.19900       1.9437259    0.0091835482
       4733.0000       291.24601       99626.855       8953.1010      0.97225000       2.8075000     -0.80100010       342.15800       1.9291334    0.0080560162
       4738.0000       291.25625       99633.175       8930.5314      0.48375000       3.2875000     0.033250000       342.32200       1.9524354    0.0072646173
       4743.0000       291.25448       99641.012       8809.7932      0.12800000       4.1640000     -0.51375000       341.70100       1.9171398    0.0085859779
       4748.0000       291.24460       99650.351       8729.0866     -0.91350010       3.0295000     -0.26525000       341.86500       1.9520430     0.010083941
       4753.0000       291.23508       99670.853       8627.9506     -0.14800000       2.7737500     0.023000000       342.40500       1.8893983    0.0097846908
       4758.0000       291.26125       99675.643       8599.1514     -0.22575000       2.7285000     -0.10050000       342.24000       1.9402463     0.010568631
       4763.0000       291.26224       99671.763       8577.4950       1.4600000       4.5397500    -0.091750000       341.79800       1.9068555    0.0081704354
       4768.0000       291.32036       99670.562       8600.6175      0.98425010       3.6932500     -0.96325000       341.86300       1.9343651    0.0096191133
       4773.0000       291.51552       99661.645       8754.3386     -0.21725000       2.9420000    0.0035000000       342.44600       1.9618917     0.010764856
       4778.0000       291.53382       99657.256       8771.5790     -0.70975010       4.1950000     0.018750000       341.27200       1.9293878    0.0069581503
       4783.0000       291.53822       99658.348       8773.2050      0.81575010       4.2387500     -0.47050000       342.17000       1.9390882     0.010231539
       4789.0000       291.36999       99651.764       8669.9359     0.088250000       2.3572500      0.75000010       342.82000       1.9248431    0.0095165151
       4794.0000       291.01008       99641.399       8456.6544      -1.0317500       3.3450000      0.12275000       342.43100       1.8994817    0.0094862958
       4799.0000       290.85597       99634.418       8348.8319    0.0037500000       2.8072500    -0.011000000       342.37600       1.9102880    0.0086542129
       4804.0000       290.67274       99624.235       8218.6323     -0.98200010       2.1325000      0.52650000       342.97800       1.9064676    0.0075368757
       4809.0000       290.62413       99621.878       8157.5673      -1.6412500       2.9962500      0.49700000       342.67200       1.9599196    0.0080924049
       4814.0000       290.73641       99622.864       8162.0780     -0.27175000       1.9657500      0.40500000       342.24100       1.9013046    0.0078256134
       4819.0000       290.77597       99627.702       8156.5525      0.65500000       3.1395000   -0.0085000000       342.83500       1.9486351    0.0084389860
       4824.0000       290.84834       99639.034       8172.2757      0.93050000       2.7187500     -0.90850000       341.86800       1.9476649    0.0092705932
       4829.0000       290.87949       99646.119       8182.4377     -0.21300000       2.6430000     -0.81025000       342.14400       1.9907483    0.0079339941
       4834.0000       290.90343       99655.582       8215.1743      0.37625000       2.4085000     -0.22800000       342.67500       1.9166624    0.0076808508
       4839.0000       290.91486       99659.875       8221.0639     -0.12275000       2.3952500    -0.083000000       342.09300       1.9246634     0.011340846
       4844.0000       290.90960       99660.781       8214.5211      0.89700000       2.7227500   -0.0097500000       342.61300       1.9200790    0.0085713336
       4849.0000       290.89129       99661.983       8210.7874       1.1865000       2.1070000     -0.18100000       342.25700       1.9208602    0.0086156344
       4854.0000       290.84515       99660.301       8183.7316       2.0205000       2.1897500     -0.37250000       341.91800       1.8796310    0.0081500171
       4859.0000       290.84384       99660.267       8204.1763      0.62575000       3.6437500     -0.71750000       341.53700       1.9359447    0.0087341122
       4864.0000       290.87127       99660.474       8258.5250      0.41500000       1.9422500      0.42750000       342.99700       1.9488550    0.0074013822
       4869.0000       290.82380       99660.533       8270.5313      0.58350000       3.3790000     -0.58325000       341.18900       1.9419860    0.0076567011
       4874.0000       290.76492       99661.184       8294.3547     -0.70225000       2.6695000      0.13950000       342.59400       1.8986500    0.0099272930
       4880.0000       290.64496       99660.158       8258.0974       1.0830000       2.9232500     -0.69475000       341.81300       1.8847254    0.0071973291
       4885.0000       290.58016       99656.392       8243.6681      0.58250000       2.4265000     -0.22175000       342.68200       1.9292487    0.0073945363
       4890.0000       290.58535       99647.303       8261.4012       1.1852500       1.1672500      0.24425000       342.55300       1.9254421    0.0073337268
       4895.0000       290.59429       99640.406       8263.6178       1.1077500       3.7447500    -0.022250000       342.56100       1.9260735    0.0070628703
       4900.0000       290.61557       99633.522       8262.3154      0.84000000       2.5887500     -0.10525000       342.36200       1.9050998    0.0085425258
       4905.0000       290.66201       99623.663       8270.9163      0.14900000       2.3347500      0.19200000       342.21200       1.9101180    0.0065506645
       4910.0000       290.63897       99622.173       8230.9266      0.85175000       1.4925000      0.11750000       343.64700       1.8910907    0.0061940987
       4915.0000       290.60579       99624.881       8161.6099       1.6107500       1.8935000      0.34875000       342.00600       1.9100752    0.0084419399
       4920.0000       290.50029       99625.716       8075.6417       1.9737500       2.8535000     -0.78325000       341.49700       1.9000535    0.0084954716
       4925.0000       290.47474       99629.523       8041.0141       1.1677500       3.7260000     -0.18925000       341.86400       1.8604251    0.0088436241
       4930.0000       290.54581       99634.972       8061.0905      0.97275010       3.8797500     -0.18725000       341.43900       1.9167893    0.0086938308
       4935.0000       290.59441       99639.880       8080.7638      0.57150000       3.1370000      0.17925000       341.54200       1.9009914    0.0075693248
       4940.0000       290.65485       99650.341       8091.6707       1.3000000       3.1835000     -0.33325000       341.33400       1.9181222    0.0072637972
       4945.0000       290.74272       99656.565       8165.9281       1.2612500       2.2115000     -0.66075000       341.55900       1.9255118    0.0074728103
       4950.0000       290.84288       99660.317       8277.8700      0.50300000       1.9075000      0.49800000       342.47800       1.9706553    0.0095827032
       4955.0000       290.96115       99661.182       8427.7490      0.54550000       3.0827500     -0.81675000       341.53200       1.9284349    0.0065181026
       4960.0000       291.00941       99662.140       8552.7566   -0.0022500000       2.0900000      0.35475000       342.67200       1.9263140    0.0070795524
       4966.0000       291.08560       99660.324       8772.1200     -0.16400000       2.1170000     -0.26000000       341.45500       1.9496055    0.0069551457
       4971.0000       290.85090       99660.277       8686.6842      -1.1462500       3.4712500      0.17300000       341.54600       1.9373235    0.0083400990
       4976.0000       290.71985       99660.277       8610.2427     -0.56000000       1.5262500     -0.45575000       341.42300       1.9477762    0.0087271858
       4981.0000       290.49978       99664.599       8362.7305       1.0955000       1.7852500     -0.37850000       341.91200       1.9412139    0.0069809951
       4986.0000       290.39841       99661.270       8248.3861      0.29375000       1.5715000    -0.063500000       342.06300       1.9173477    0.0083776719
       4991.0000       290.44305       99647.402       8219.1417      0.58550000       1.8992500    -0.097500000       341.30800       1.9510242    0.0096426609
       4996.0000       290.44449       99643.671       8164.9368      0.83625010       1.2100000     -0.19125000       341.47100       1.9158833     0.011405216
       5001.0000       290.48946       99642.928       8168.1602       1.6222500      0.39075000     -0.41050000       342.50600       1.9271657    0.0096616103
       5006.0000       290.50807       99639.004       8138.4844       1.0120000       1.9012500      0.11500000       342.17700       1.8792987    0.0083179756
       5011.0000       290.51379       99642.753       8063.8607       1.5700000      0.65300010      0.51200000       342.40700       1.9112018    0.0083554778
       5016.0000       290.50251       99641.347       8012.5656       1.2242500      0.77575000      0.35425000       343.32500       1.8965320    0.0092786363
       5021.0000       290.46596       99628.818       7977.1829       2.4557500       1.0330000     -0.36750000       342.03000       1.8816580    0.0079947744
       5026.0000       290.44617       99623.149       7933.6215       2.1877500       1.0597500     -0.14000000       341.22700       1.8864036    0.0077086129
       5031.0000       290.40976       99621.221       7877.3747       1.8120000       1.1097500    -0.039500000       341.99800       1.9076672    0.0065174846
       5036.0000       290.39105       99619.325       7846.7176       2.4652500       1.3995000     0.011500000       341.45300       1.9045451    0.0073446386
       5041.0000       290.40015       99618.882       7814.9683       1.5415000       2.1587500      0.26700000       343.14500       1.9295786    0.0080670261
       5046.0000       290.40011       99620.043       7806.9327       1.8732500       1.7710000     -0.25650000       341.65800       1.8834780    0.0080329621
       5051.0000       290.35803       99620.775       7802.0726       1.8807500       1.4560000     -0.25150000       341.42800       1.9371827    0.0086153587
       5057.0000       290.40346       99626.188       7867.2748       1.0727500       1.5057500     -0.46650000       341.37700       1.8856369    0.0070132491
       5062.0000       290.51632       99637.464       8009.5692       1.0490000      0.19325000     -0.36900000       341.42600       1.9441161    0.0078670604
       5067.0000       290.57691       99643.159       8077.3319      0.69750010     -0.15125000     -0.19625000       341.61200       1.9453565     0.012098807
       5072.0000       290.68536       99649.254       8153.8754     0.064000000    -0.052500000    -0.053750000       341.80300       1.8613051    0.0081832237
       5077.0000       290.73359       99652.413       8213.7718      0.56075000       2.0737500     -0.29275000       342.22700       1.9222387    0.0075450009
       5082.0000       290.70013       99649.051       8207.8793      0.26325000       2.4585000     -0.61175000       341.80700       1.9640236    0.0086871251
       5087.0000       290.70013       99650.475       8225.8233      0.79750000      0.75775000      0.37525000       342.54800       1.8926478    0.0068126450
       5092.0000       290.71212       99653.953       8277.1060       1.0532500      0.83875010      0.15250000       343.18100       1.8618996    0.0083227576
       5097.0000       290.69785       99655.887       8295.1855      0.89125000      0.92550000     0.053500000       343.04300       1.9019024    0.0082424393
       5102.0000       290.63536       99659.872       8258.5307       1.0517500       1.0015000      0.53525000       343.83600       1.9219983    0.0088341848
       5107.0000       290.64245       99661.529       8275.9016       1.4845000       1.6957500      0.63200000       343.68800       1.9133053    0.0084495358
       5112.0000       290.66780       99661.771       8311.5015     -0.58225000       3.0075000      0.20125000       342.64700       1.8860871    0.0077514960
       5117.0000       290.70487       99660.435       8354.3787      0.70250000       3.7295000     -0.44800000       342.25100       1.9256450    0.0096127520
       5122.0000       290.82784       99656.481       8469.9819    -0.097250010       3.9207500     -0.41275000       342.38300       1.9167408    0.0079259987
       5127.0000       290.88007       99654.507       8500.5346     0.044250000       2.4370000     -0.52850000       341.22900       1.9400562    0.0068078825
       5132.0000       290.89473       99650.791       8490.1878       1.0905000       2.4387500     0.057500000       341.90700       1.9696624     0.011729257
       5137.0000       290.91084       99649.183       8475.4832      0.84300010       1.2945000      0.46325000       342.66800       1.9476301    0.0079835164
       5142.0000       290.89975       99652.829       8395.1318      0.51125000       1.7540000      0.68550000       342.96500       1.9337081    0.0080123925
       5148.0000       290.89955       99649.210       8353.9475      0.75125000       2.2780000     0.080000010       342.15700       1.9275843    0.0067814283
       5153.0000       290.91119       99641.614       8350.1633      0.19250000       2.6620000     -0.20100000       341.43700       1.9226902    0.0072519599
       5158.0000       290.89509       99637.563       8322.4648      0.50525000       2.1970000     -0.31650000       341.28200       1.9209571    0.0095231475
       5163.0000       290.86897       99631.508       8289.8811      0.14350000      0.98975000     -0.26275000       341.27200       1.9565443    0.0088678053
       5168.0000       290.83283       99627.104       8266.8642      -1.1340000      0.50400000    -0.051500000       341.35100       1.8945403    0.0081534318
       5173.0000       290.79427       99628.565       8248.7157     -0.58500000    -0.099000010     -0.29075000       341.20400       1.9340875    0.0077872879
       5178.0000       290.71106       99623.258       8208.2933    -0.060250000     -0.33100000     0.069750000       341.34400       1.8682473    0.0080221750
       5183.0000       290.57484       99609.865       8172.3383     0.020250000      0.14500000      0.36925000       342.71000       1.8732970     0.011554261
       5188.0000       290.50079       99607.801       8119.6999      0.20800000      0.98800000     -0.28300000       341.63700       1.8594120    0.0084699788
       5193.0000       290.40124       99608.942       8006.9301      0.13975000       1.2115000    -0.044000000       342.46200       1.8653540    0.0085591471
       5198.0000       290.35952       99610.163       7977.6473      0.91525010       1.5017500     -0.21925000       341.46100       1.9077874    0.0082421097
       5203.0000       290.36631       99620.106       7973.5647      0.41625000      0.54725000      0.17850000       342.11800       1.9583128    0.0092683065
       5208.0000       290.41478       99622.821       8001.6275      0.19800000      0.97400000      0.28575000       342.40100       1.9180825    0.0093795681
       5213.0000       290.54776       99620.387       8111.9403      0.67150000      0.58325000    -0.064250000       342.44200       1.9014588    0.0081848187
       5218.0000       290.57493       99620.431       8156.2080      0.29950000      0.82425000      0.11500000       342.64100       1.8837114    0.0089409330
       5223.0000       290.60357       99620.229       8197.3575      0.24000000      0.55775000      0.31875000       342.88700       1.9191683    0.0094389320
       5228.0000       290.62060       99620.185       8223.4214     -0.29050000       1.1732500     0.037250000       342.34400       1.9153208    0.0092000787
       5233.0000       290.55539       99619.225       8204.3545     -0.37325000       1.0817500      0.13075000       342.57300       1.9413471    0.0083182993
       5239.0000       290.52799       99621.407       8230.3060     -0.71475010       1.6922500     -0.67525010       341.28300       1.8910249    0.0076511014
       5244.0000       290.56575       99625.153       8289.2483     -0.37700000       2.1180000      0.24025000       343.31700       1.9757064    0.0076679544
       5249.0000       290.53868       99627.208       8282.0146      -1.1752500       1.2347500      0.14000000       341.37000       1.9309062    0.0066338173
       5254.0000       290.46844       99628.682       8275.0071     -0.96450010       1.8612500    -0.064500000       341.24500       1.9380709    0.0091855085
       5259.0000       290.40015       99633.502       8208.3341     -0.59950000       1.8327500     -0.14325000       341.52700       1.8499956    0.0087041710
       5264.0000       290.30648       99642.220       8051.9149     -0.54450010      0.82825010      0.20600000       342.27700       1.8695346    0.0096586007
       5269.0000       290.25508       99640.552       7986.5613     -0.47275000       1.6210000     -0.31775000       342.85300       1.8872871    0.0079912817
       5274.0000       290.18606       99636.152       7908.9426     -0.33450000       1.7382500     -0.28525000       342.57900       1.9237502    0.0082081090
       5279.0000       290.18255       99634.335       7902.8632      0.38725000       2.1687500     -0.25300000       341.34900       1.9553300    0.0080729477
       5284.0000       290.24658       99623.802       7979.2359      0.34025000      0.86825000     -0.33150000       341.41900       1.8792174     0.010344285
       5289.0000       290.26645       99622.360       7997.7061   -0.0045000000      0.43125000     -0.28875000       341.35300       1.8949316     0.011478037
       5294.0000       290.30308       99628.859       8037.4510     -0.20025000     0.032750000      0.12575000       342.58200       1.8743585    0.0073553628
       5299.0000       290.31410       99633.701       8030.4786     0.060500000     -0.15650000      0.12425000       341.88300       1.9663107     0.011537725
       5304.0000       290.29976       99639.457       7970.7395     0.089250010      0.29800000     -0.14075000       341.43400       1.9289037    0.0092387449
       5309.0000       290.29982       99643.427       7967.1129      0.31200000     -0.45500000      0.16875000       342.50600       1.9502325    0.0091976325
       5314.0000       290.29073       99650.672       7952.1852      0.19700000     -0.19675000   -0.0017500000       342.66300       1.9267490    0.0066359520
       5319.0000       290.30982       99652.817       7991.6073     -0.23150000     -0.34250000      0.40675000       343.35500       1.9081561    0.0083966202
       5324.0000       290.36394       99650.473       8116.6699      0.82675000     -0.83350000      0.28900000       342.14500       1.8953354    0.0081546260
       5330.0000       290.32431       99650.335       8091.9945      0.64225000     -0.59700000      0.37250000       341.66500       1.9538007    0.0065342980
       5335.0000       290.30552       99650.359       8076.4302      0.33325000     -0.11750000      0.42750000       342.84300       1.8736394     0.011914638
       5340.0000       290.22958       99650.277       7973.1120     -0.39275000      0.77450000      0.34700000       342.23200       1.9175899    0.0084451246
       5345.0000       290.18758       99650.277       7911.2735     -0.56350000      0.77925000     -0.26775000       341.78200       1.8648343    0.0087630690
       5350.0000       290.17015       99650.277       7874.2118     -0.82150010      0.94150010    -0.060750000       341.82800       1.9397478    0.0091840620
       5355.0000       290.19979       99650.245       7885.7356     -0.67600010       1.9905000     -0.22250000       341.55400       1.9247869    0.0072805157
       5360.0000       290.19967       99650.245       7861.4379      -1.0577500       1.0867500     0.024250000       342.36300       1.8853223    0.0065081346
       5365.0000       290.19449       99650.485       7827.0913      -1.8657500       1.6350000     -0.70450000       341.70400       1.8516252    0.0093097862
       5370.0000       290.25999       99650.277       7855.8534      -2.9437500       2.1767500     -0.41850000       341.61700       1.9133405     0.010424962
       5375.0000       290.26283       99650.277       7852.5129      -2.2667500       1.5630000      0.50575000       343.45100       1.9302621    0.0078501391
       5380.0000       290.22512       99650.308       7854.2918      -1.3182500       2.6940000     -0.26625000       341.77400       1.8659318    0.0088034247
       5385.0000       290.20650       99650.308       7851.5128      0.16600000       2.3647500    -0.049250000       342.58200       1.8805046    0.0081585183
       5390.0000       290.13034       99650.277       7812.6173     -0.92200010       1.8132500     -0.16875000       342.53300       1.8457392     0.010739662
       5395.0000       290.08825       99650.277       7782.6321     -0.69275000       1.5227500     -0.45150000       342.98700       1.9164625    0.0077520384
       5400.0000       290.07074       99650.277       7757.6878     -0.80075000       2.4917500     0.027750000       341.26100       1.9197325    0.0086386860
       5405.0000       290.08036       99650.245       7737.5546     -0.48150000       1.6772500     -0.24825000       341.52000       1.8908164    0.0084604068
       5410.0000       290.14497       99650.245       7747.3824     -0.56950000       1.8237500     -0.12025000       341.47800       1.8476671    0.0074845971
       5415.0000       290.25045       99650.485       7765.7721     0.023500000       2.1012500     -0.38775000       342.82000       1.9020243    0.0089426674
       5421.0000       290.35672       99650.277       7797.1360     -0.37000000      0.77150010      0.37400000       342.71700       1.9327827    0.0079949995
