MIRICO/SHELL project - Processed LDS file generated on
Thu Jul 06 22:04:34 2017
Time stamp for record start
05/10/2017  13:24:11.0000
Nb of points in the record
        1073
Beam position index
       5.0000000
Beam angle (degrees)
       8.5430000
Open Path length (m)
       83.010000
****************** Temporal data record ************************
Elapsedtime_sec Temp_K Press_Pa Humidity_ppmv WindX_m/s WindY_m/s WindZ_m/s Speedofsound_m/s CH4vmr_ppmv CH4vmrerror_ppmv  
      0.00000000       289.21597       99795.919       7675.4581       2.6440000       2.9512500     -0.59925000       341.80700       1.9873281    0.0097390561
       5.0000131       289.16943       99802.680       7636.6754       1.8312500       3.2477500     -0.23600000       340.66400       1.9829818     0.014039128
       9.9999860       288.96095       99803.742       7511.2938     0.089000000       2.4837500     -0.57025000       341.06600       1.9968771    0.0081344156
       14.999999       288.87319       99805.795       7442.9131      0.98925010       1.7582500    -0.038250000       341.27900       1.9697699     0.018606815
       20.000012       288.75933       99810.778       7360.3410      0.64775000       1.8672500     0.023000000       341.17200       1.9646764    0.0098497048
       24.999985       288.71449       99811.596       7311.6754     0.047000000       1.9377500      0.74575000       341.54500       1.9703632     0.015333992
       29.999998       288.82452       99809.664       7326.4633      -1.3652500       1.5070000     -0.29625000       341.50800       1.9729819     0.011040463
       35.000011       288.86292       99805.397       7316.6034     -0.12325000       2.4927500      0.26475000       341.88900       1.9474771     0.013348843
       40.000024       288.89076       99796.090       7303.9093      0.67875000       2.4275000     -0.29375000       341.55800       1.9710058     0.016592049
       44.999997       288.90940       99789.085       7295.7785       1.0622500       2.3415000     -0.51450000       341.42600       1.9518463     0.018294188
       50.000010       288.91430       99778.811       7285.2999      0.42325000       1.6842500      0.32700000       342.44500       1.9852421     0.013168575
       56.000018       288.89923       99772.159       7276.5753      0.40050000       1.0040000      0.37800000       341.55400       1.9627671     0.014903263
       60.999991       288.86128       99769.298       7274.3017       1.8437500       1.5610000      0.33950000       341.93500       1.9469041     0.013080737
       66.000004       288.84116       99768.984       7274.6687       1.9020000       2.9745000     -0.12350000       340.97700       1.9665306     0.012268808
       71.000017       288.79189       99771.598       7268.9615      0.78300010       4.1425000     -0.32350000       341.38400       1.9540677     0.012556965
       75.999990       288.78970       99776.357       7279.4480       1.1750000       3.2620000     0.085500000       340.66200       1.9712929     0.015757940
       81.000003       288.83786       99786.099       7279.9830      0.95375010       2.2965000      0.11450000       340.88300       1.9772790     0.012582887
       86.000016       288.85765       99793.050       7327.2848      0.45300000       2.2657500     -0.51800000       341.19000       1.9531865     0.017206249
       90.999989       288.85497       99804.523       7394.1126      0.53700000       1.7872500      0.12150000       341.67700       1.9982274     0.013376669
       96.000002       288.91280       99808.443       7494.6181     -0.35975000       2.1227500     -0.13725000       340.48300       1.9765240     0.018713542
       101.00002       289.01384       99805.925       7706.7185      0.15975000       2.2040000      0.15550000       341.13800       1.9444319     0.013839527
       105.99999       289.07407       99805.582       7794.0183       1.2140000       2.3700000     0.057250000       341.01000       1.9286528     0.020012640
       111.00000       289.19773       99804.603       7855.0808      0.99275000       2.3587500     -0.11800000       341.29200       1.9598912     0.013909304
       116.00001       289.23350       99798.855       7873.7515      0.89075010       1.7602500     -0.28075000       341.08500       1.9528271     0.015813549
       120.99999       289.17486       99791.322       7783.0270     0.029250000       2.2160000     -0.45000000       340.97300       1.9607533     0.014054399
       126.00000       289.14135       99782.616       7729.0956     -0.50175010       1.8315000    -0.037750000       340.63200       1.9596382     0.022152335
       131.00001       289.06832       99764.573       7664.1906      0.30000000       2.1460000     -0.18775000       341.01500       1.9677451     0.013421797
       135.99999       289.03241       99755.842       7617.6929      0.11675000       1.3972500     0.026000000       340.98100       1.9682871     0.013387332
       141.00000       289.00538       99747.380       7561.1717      0.39725000       1.9667500      0.18200000       341.64500       1.9749418     0.015348652
       147.00001       288.98730       99749.159       7526.8375      0.72825000       2.0537500     -0.49375000       341.52700       1.9591861     0.013468856
       152.00002       288.96645       99761.009       7505.6745      0.29425000       1.4645000     -0.11400000       341.77700       1.9573850     0.022157926
       156.99999       289.01481       99770.321       7535.1832     -0.33325000       1.5275000      0.27775000       342.63000       1.9488845     0.020473682
       162.00001       289.10467       99787.538       7599.7540      0.10250000       2.0117500      0.35050000       341.58400       1.9306787     0.021185137
       167.00002       289.19677       99797.217       7673.9733      0.19925000       1.8317500      0.21275000       342.41400       1.9461849     0.017928949
       171.99999       289.35880       99805.430       7805.4772      0.43825000       2.0632500      0.13075000       341.45200       1.9626305     0.019388089
       177.00001       289.47178       99808.584       7906.3587     -0.23200000       2.5295000     0.071500000       341.32600       1.9721701     0.012773768
       182.00002       289.59251       99808.663       8012.7112     -0.46325000       2.5927500    -0.049750000       341.55200       1.9769796     0.010844812
       186.99999       289.64373       99804.819       8093.6211     -0.27750000       3.3805000     0.032750000       341.33100       1.9780752     0.011401569
       192.00000       289.66684       99793.305       8182.1811      0.48950000       1.6540000      0.31975000       342.36700       1.9574233     0.019077598
       197.00002       289.65838       99786.340       8215.3833      0.39425000       1.8127500      0.18175000       342.37400       1.9734229     0.012734515
       201.99999       289.55797       99778.219       8204.6342      0.89325000       1.9012500     -0.29025000       342.29500       1.9448983     0.019313419
       207.00000       289.52391       99770.181       8186.8563       1.0342500       2.5720000     -0.76250000       341.64300       1.9694302     0.017444243
       212.00002       289.51191       99759.683       8125.6889       1.0210000       1.6205000     0.080500010       341.64700       1.9602739     0.018140290
       216.99999       289.48217       99757.550       8082.9050       1.3930000       1.4990000     -0.74225000       341.63000       1.9813295     0.012271899
       222.00000       289.47079       99757.575       8036.9073       2.3170000       2.3227500     -0.60675000       341.10400       1.9692851     0.017445570
       227.00002       289.43426       99760.545       7988.1060       2.6685000       2.8192500      0.31825000       341.13200       1.9895348     0.012850058
       231.99999       289.34769       99770.935       7917.9855      0.78400000       2.7540000     0.093250010       341.28800       1.9528524     0.016435765
       238.00000       289.32943       99782.693       7892.5580       1.2652500       2.6825000     -0.36325000       341.78500       1.9423487     0.018397373
       243.00001       289.34306       99795.641       7897.9510      0.57475000       1.2097500    0.0030000000       342.37200       1.9747893     0.018303022
       248.00002       289.35162       99800.949       7881.7459      0.47975000       2.3997500     -0.28800000       341.96000       1.9625344     0.016501494
       253.00000       289.39375       99806.456       7880.2414     0.058000000       2.3602500      0.31300000       342.37500       1.9752603     0.012726591
       258.00001       289.42320       99807.717       7885.5081     -0.12650000       3.7975000     -0.27075000       341.59900       2.0099321    0.0092416176
       263.00002       289.47319       99802.956       7877.1000      0.47550000       2.9997500      0.27600000       341.38000       1.9486677     0.017226995
       267.99999       289.43772       99796.392       7877.4385      0.64500000       2.3915000      0.51800000       341.96800       1.9796604     0.011599914
       273.00001       289.36794       99788.482       7912.0157       2.2822500       3.2287500      0.21500000       342.36900       1.9632495     0.020492073
       278.00002       289.31866       99778.582       7911.0685      0.91325000       3.0137500      0.72825000       342.12100       1.9661660     0.018383728
       282.99999       289.19250       99758.573       7876.6427     -0.15900000       3.6267500     -0.48950000       341.69500       1.9471068     0.015344082
       288.00001       289.15822       99754.876       7872.0537      0.50650000       3.1152500     -0.10500000       341.44400       1.9808916     0.012730548
       293.00002       289.21753       99756.432       7881.2703      0.59700000       2.7682500     0.031000000       341.68000       1.9651732     0.011021137
       297.99999       289.18020       99763.809       7873.7019      0.92150000       2.9955000     -0.69025000       340.71200       1.9913939     0.010742524
       303.00001       289.13485       99783.869       7878.7856     -0.45975000       1.8370000     0.040500000       341.96900       2.0043778    0.0092312632
       308.00002       289.03941       99793.970       7842.6850     -0.32275000       2.7767500     -0.13875000       341.19900       1.9807826     0.011168090
       312.99999       288.85888       99806.632       7773.6892     -0.34975000       1.4362500     0.036750000       341.32500       1.9810549     0.014092964
       318.00001       288.77643       99810.027       7727.8169     -0.10325000       1.6957500     -0.76075010       340.63300       1.9736018     0.013276344
       324.00001       288.68246       99806.945       7654.0333     -0.66550000       1.4590000     0.095500010       340.84500       1.9543161     0.018322022
       328.99999       288.69983       99797.066       7631.3304     -0.27450000       1.2527500    -0.055000000       341.19600       1.9586681     0.013384057
       334.00000       288.69985       99790.010       7613.0176     -0.28850000       1.3392500     -0.37200000       341.04800       1.9323025     0.018842974
       339.00001       288.68483       99783.293       7600.0326      0.22150000       1.1202500      0.33125000       341.70900       1.9666994     0.011665093
       343.99998       288.69349       99775.412       7595.7812      0.15500000       1.1667500      0.17700000       341.00000       1.9492880     0.017375837
       349.00000       288.69991       99762.778       7576.8366       1.4460000       1.6610000     -0.34650000       341.48400       1.9726931     0.010845410
       354.00001       288.73699       99758.408       7602.6598      0.83950010       1.0352500      0.10650000       341.46600       1.9837707     0.011466487
       359.00002       288.79865       99757.718       7655.9766     0.012000000      0.74000000      0.13050000       341.76900       1.9782060     0.016615670
       364.00000       288.89803       99756.762       7743.8649      0.12625000      0.85275010     0.061750000       342.48300       2.0035692    0.0076116229
       369.00001       288.96870       99765.463       7798.9913      0.34325000       1.1102500    -0.052500000       341.17600       1.9879570     0.011924958
       374.00002       289.06121       99786.356       7882.8936      0.57300000      0.68275000     0.034250000       341.29300       1.9935966     0.013390488
       379.00000       289.11462       99798.542       7927.4891      0.23975000       1.2702500      0.22150000       340.84600       2.0083183     0.010806630
       384.00001       289.11910       99803.233       7937.2332    -0.014250000       1.1875000     -0.36175000       341.39000       1.9583749     0.012085762
       389.00002       289.03953       99795.978       7918.6065     -0.14950000      0.82400010      0.43900000       341.81400       1.9602278     0.010473779
       394.00000       288.99972       99791.223       7902.0273      0.64650010       1.0632500    -0.068750000       341.31900       1.9947563     0.010999645
       399.00001       288.95990       99785.217       7869.8245      0.89325000       1.5952500     -0.38975000       340.92000       2.0061843     0.010232102
       404.00002       288.87412       99775.366       7787.8135      0.68075000       1.9027500     -0.52550000       340.84900       1.9723132     0.012123875
       408.99999       288.90012       99767.248       7775.5554      0.32550000       1.4175000      0.19250000       341.98900       1.9480370     0.016136750
       415.00000       289.01160       99758.709       7796.5608       1.9195000       1.7185000     -0.10450000       342.41600       1.9837934     0.010709769
       420.00002       289.04664       99745.273       7782.8905      0.47650000       2.6750000     -0.29425000       341.04900       1.9726031     0.014892415
       424.99999       289.06446       99747.093       7758.1479      0.86700000       1.9917500    -0.081250000       340.60100       1.9879372     0.012716652
       430.00000       289.00908       99767.365       7680.6409    -0.025000000       1.2025000      0.21200000       341.29500       1.9629698     0.013446745
       435.00001       288.99046       99777.262       7642.5893      0.13900000      0.84050010     0.053500000       341.75700       2.0061803     0.018981979
       439.99999       288.99961       99798.295       7604.7856      0.34250000       2.2570000     -0.40800000       340.80000       1.9641391     0.015342111
       445.00000       288.99934       99805.428       7606.6808      0.72650000       1.4885000      0.19550000       342.06900       2.0061937     0.016302762
       450.00001       288.95616       99794.996       7629.7077      0.70350000       2.4915000     -0.20325000       340.74500       1.9524375     0.017097865
       454.99999       288.99026       99789.793       7688.6351      0.23975000       1.3377500      0.44450000       341.46200       1.9955099     0.010447990
       460.00000       289.05910       99774.464       7798.3785       1.1655000       1.5195000     -0.33275000       341.29900       2.0030498     0.014869073
       465.00001       289.15315       99771.944       7913.0750      0.71675000       1.4412500      0.25375000       341.79500       2.0386402    0.0085015365
       469.99999       289.34608       99784.433       8076.2990      0.73200010       1.7865000     -0.42200000       340.77500       2.0085673     0.011588328
       475.00000       289.48575       99786.368       8215.7971      0.83150010      0.62100010     -0.27325000       341.49600       1.9873494     0.011649791
       480.00001       289.65340       99787.799       8409.1078      0.21025000       1.0022500     -0.23275000       341.38700       1.9965892    0.0075301134
       485.00002       289.73735       99791.661       8500.8825      0.14800000       1.9717500      0.58625000       341.50500       1.9570906     0.015650892
       490.00000       289.74725       99788.820       8536.4659      0.42775000      0.56625000      0.57725000       343.05100       1.9634126     0.013741365
       495.00001       289.76415       99789.085       8537.7509       1.2995000      0.81300000      0.21300000       341.89100       1.9818823     0.012687587
       500.00002       289.71029       99801.127       8431.2488      0.57725000      0.99475000     0.067250010       341.47800       1.9817106     0.012310269
       505.99999       289.68934       99802.364       8343.3815     0.048750000      0.77625010      0.20825000       342.14300       1.9852382    0.0094129033
       511.00000       289.71304       99793.783       8260.2437     0.055750000       1.0880000     0.080000010       342.52700       1.9567381     0.016815545
       516.00002       289.69939       99788.353       8186.9287      0.37825000      0.63950000      0.38550000       341.53500       1.9807743     0.011191403
       520.99999       289.63566       99779.862       8107.6628     -0.10950000      0.49575000      0.42675000       342.71800       1.9806990     0.012026997
       526.00000       289.64315       99771.904       8051.5389     0.029000000       1.6347500      0.11000000       342.40800       1.9844396     0.019634949
       531.00002       289.66809       99759.430       8002.7328     -0.94550000       2.1415000     -0.34000000       341.79200       1.9600803     0.012579088
       535.99999       289.70500       99757.944       7973.7242     -0.60700010       2.7242500     -0.29450000       341.68900       1.9541961     0.011498572
       541.00000       289.88112       99759.840       8003.4382    -0.035500000       2.3152500     -0.31700000       342.21200       1.9873800     0.017022648
       546.00002       289.87812       99765.427       7965.8763      0.30875000       1.6902500      0.27700000       343.09700       1.9894698    0.0095577805
       550.99999       289.76869       99788.756       7906.3852       1.5750000       2.0477500     -0.16025000       341.06600       2.0009713     0.020749237
       556.00000       289.67746       99794.947       7847.0177       1.0357500       2.3087500     -0.22175000       341.65300       1.9642783     0.017328771
       561.00001       289.44276       99791.618       7719.9594       1.7837500       1.6267500      0.44525000       341.18100       1.9894455     0.018080343
       565.99999       289.33662       99790.887       7660.6832     -0.32800000       1.5327500     0.051500000       340.90200       1.9740930     0.012443655
       571.00000       289.30995       99785.065       7650.6441      0.21000000       1.7022500     -0.36625000       341.11500       1.9514335     0.017633157
       576.00001       289.27761       99777.717       7624.6764      0.36300000       2.2665000     -0.54275000       341.34600       1.9333397     0.017216478
       580.99999       289.31336       99769.129       7624.4684     -0.13600000       1.9315000     -0.14475000       342.55400       1.9654338     0.013875880
       586.00000       289.29942       99763.135       7606.8542     -0.79475000       1.3960000      0.62000000       342.99600       2.0098914     0.010282208
       591.00001       289.27459       99748.275       7565.4639       1.0975000       2.0555000    -0.037750000       341.10500       2.0142496     0.013066451
       597.00002       289.23243       99748.478       7548.4183       1.3242500       2.2735000     -0.36300000       340.77800       1.9495012     0.017067378
       601.99999       289.17955       99761.009       7556.6085       2.0995000       1.9492500      0.21225000       340.90500       1.9574891     0.012389922
       607.00001       289.11326       99770.321       7538.5282       1.8397500      0.51475000      0.54050000       342.04300       1.9495941     0.010881680
       612.00002       289.00506       99790.871       7503.2510       1.8790000       1.4157500      0.13350000       342.19900       1.9637436     0.012564715
       616.99999       288.96810       99795.704       7506.7940      0.82825010       1.6667500   0.00025000000       342.73800       2.0113530     0.011214639
       622.00001       288.90982       99794.906       7483.6937     -0.66525000       1.5895000      0.28925000       343.07400       1.9833108     0.011215757
       627.00002       288.95016       99788.787       7535.6851     -0.24425000       2.4550000     -0.45200000       341.01700       1.9897381    0.0099236411
       631.99999       289.09859       99768.089       7692.6766      0.22575000       2.2297500   -0.0097500000       341.55900       1.9988761     0.011731206
       637.00000       289.20534       99759.326       7757.6788     -0.25450000       1.7422500      0.18325000       342.20000       1.9732711     0.011303261
       642.00002       289.33639       99747.578       7797.8070      0.53425000      0.73400000      0.60500000       343.52100       1.9784159     0.011426754
       646.99999       289.48382       99748.441       7876.6808       1.0800000      0.74650000      0.23200000       341.93500       2.0043159    0.0098018857
       652.00000       289.68063       99763.021       7931.4911      0.38925000       1.5912500     -0.20700000       341.57300       1.9908697     0.011596954
       657.00002       289.77265       99769.001       8000.1251      0.75175010       2.7697500     -0.34950000       341.18000       1.9701605     0.018756555
       661.99999       289.86668       99780.158       8164.7295       1.2085000       2.6995000     -0.26100000       341.74900       1.9956575     0.011025166
       667.00000       289.88547       99784.306       8195.6635       1.4950000       2.3290000      0.10250000       340.98600       2.0051307     0.010398407
       672.00002       289.75974       99783.913       8130.4302      0.84450010       2.3112500      0.27775000       341.81500       1.9967417     0.010416118
       676.99999       289.72618       99779.016       8102.0511       2.0747500       2.9975000     -0.45750000       341.14200       2.0096768    0.0071800469
       682.00000       289.72286       99767.735       8032.5643       2.5245000       2.4430000      0.25000000       341.08400       1.9968691     0.013255502
       688.00001       289.66522       99760.590       7964.7788       2.4770000       1.9707500     -0.30125000       341.16500       1.9905776    0.0086309428
       693.00002       289.59771       99747.503       7915.7101      0.34700000       1.4987500    -0.071500000       341.02700       1.9755415     0.016673180
       698.00000       289.57663       99747.872       7882.1425      0.61700000       1.7077500     -0.29250000       340.62700       1.9887748     0.012946138
       703.00001       289.51305       99756.871       7813.7695      0.72750000       1.9850000    -0.041500000       341.15800       1.9830729    0.0098064084
       708.00002       289.56661       99766.455       7840.2595      0.83100000       1.1555000      0.36675000       342.20200       1.9824319     0.010437283
       713.00000       289.74081       99786.357       7952.0384       1.3925000       1.9247500      0.16275000       342.16100       1.9696902     0.016477822
       718.00001       289.81168       99790.854       7991.7134       1.6720000       1.9962500     -0.27225000       340.55800       1.9822726     0.010230959
       723.00002       289.92791       99795.049       8067.9864       1.3490000       1.1455000     -0.52125000       341.56000       2.0002438     0.011605617
       727.99999       289.92362       99788.723       8074.4680      0.98225000       1.1437500      0.45100000       341.95800       1.9808013     0.010852365
       733.00001       289.82524       99766.845       8021.0702       1.8357500       1.8625000      0.25875000       341.24300       1.9757100     0.016634804
       738.00002       289.74735       99756.656       7970.7816      0.73075000      0.90925000      0.44150000       342.48100       1.9702591     0.015314591
       742.99999       289.63608       99741.737       7898.2816       1.1845000       1.4312500      0.24500000       342.28500       1.9110804    0.0099337837
       748.00001       289.49901       99741.833       7835.8612       1.0342500      0.93875000     0.063000000       341.44900       1.9737126    0.0093252607
       753.00002       289.31001       99751.202       7750.3889      0.97575000      0.39250000      0.23425000       342.74300       1.9661393     0.010270926
       757.99999       289.20834       99761.664       7691.9136       1.8547500      0.63575010     0.049250000       341.95600       1.9195498     0.014109904
       763.00001       289.10729       99786.776       7646.8471       1.5342500       1.4217500      0.25400000       342.24300       1.9731962    0.0094906393
       768.00002       289.02534       99792.371       7608.2475       1.7385000       1.4380000     0.062500000       342.67100       1.9700541    0.0099620671
       773.99999       288.99957       99793.970       7569.7409       1.4222500       1.1540000     0.085500000       341.79400       1.9216036     0.014713388
       779.00000       288.90025       99773.916       7515.3986       1.1592500       1.3250000     -0.50975000       341.06800       1.9555912     0.014442457
       784.00001       288.87470       99763.482       7519.1491      0.72900000       1.6337500     0.062750000       341.90000       1.9663777     0.010877699
       788.99999       288.90104       99750.194       7555.0660       1.7542500       1.5310000      0.71475010       342.53400       1.9491707     0.011854673
       794.00000       288.97612       99746.597       7614.6200      0.75825010       1.6822500    -0.019500000       342.08900       1.9487457     0.010546374
       799.00001       289.20488       99759.406       7777.7392       1.3150000      0.88750000      0.51700000       342.05300       1.9385896     0.016977519
       804.00002       289.31776       99765.391       7882.4663       1.5540000       1.9082500     -0.28550000       341.65200       1.9746708     0.012597500
       809.00000       289.39371       99771.376       7967.0109      0.71800010       1.5647500     -0.34900000       341.93000       1.9508970    0.0091303635
       814.00001       289.46958       99784.233       8032.3387      0.32750000       1.2342500      0.23225000       343.17700       1.9278308     0.011881422
       819.00002       289.50559       99780.430       8119.8771    -0.010500000       1.1117500      0.32800000       341.43800       1.9680363     0.010882708
       824.00000       289.44987       99766.113       8184.5308     0.035750000      0.29025000      0.20400000       342.20500       1.9653377    0.0097136591
       829.00001       289.43967       99750.176       8298.1127     -0.34225000      0.49925000    -0.025500000       341.38900       1.9244240     0.019147348
       834.00002       289.44947       99742.459       8358.0594      0.90200010       1.2977500    -0.082250010       343.72100       1.9786745    0.0095428614
       839.00000       289.43007       99740.377       8378.4198      0.18600000      0.88375000     -0.34700000       340.64400       1.9703681    0.0082926505
       844.00001       289.43760       99742.913       8357.2407    -0.029000000      0.55575000    -0.035500000       340.60000       1.9970490    0.0080689666
       849.00002       289.46971       99750.352       8297.6150      0.48325000       1.1790000      0.11825000       341.81500       2.0185497    0.0079402053
       853.99999       289.58164       99765.720       8192.4355      0.26700000       1.3967500      0.36325000       341.53000       1.9794194    0.0096848842
       859.00001       289.52413       99772.652       8090.4773       1.1507500      0.80975000     -0.58150010       342.24400       1.9689486     0.010254218
       865.00002       289.39215       99783.289       7922.3633       1.7982500      0.70950000     -0.46375000       340.96700       1.9725738    0.0090163524
       869.99999       289.23777       99780.893       7835.5832       2.1910000     -0.30925000     -0.23650000       341.04100       2.4260870    0.0080884509
       875.00000       289.16193       99775.495       7779.1513       1.4765000     -0.20000000      0.64800000       341.91500       1.9648420    0.0082006552
       880.00001       289.21411       99756.777       7776.2819       1.6352500      0.38400000     -0.13125000       341.35700       1.9614440    0.0095478201
       884.99999       289.20272       99752.392       7751.6788       1.3725000      0.41675000     -0.14025000       341.53800       1.9488008    0.0091229822
       890.00000       289.16610       99749.174       7745.8156      0.71175000      0.31475000      0.87375000       343.10500       1.9514573     0.010706419
       895.00001       289.14631       99752.886       7723.7738      0.84425000       2.6235000     -0.73650000       341.52500       1.9743592     0.010829345
       899.99999       289.12505       99781.963       7661.1138       1.6777500       2.7737500     -0.31350000       341.89900       1.9216090    0.0098817520
       905.00000       289.09527       99790.290       7640.1215       1.8102500       2.5680000     -0.15925000       341.44200       1.9587215    0.0096939387
       910.00001       289.02407       99791.238       7613.1509     -0.10975000       2.7970000      0.64100000       342.98200       1.9615338    0.0095858435
       914.99999       289.03809       99787.520       7634.7444       1.3072500       2.6052500     -0.43700000       342.43000       1.9506384     0.016454702
       920.00000       289.11321       99761.270       7743.7692     -0.93625000       1.9130000     -0.13975000       342.22400       1.9586712    0.0068755521
       925.00001       289.15457       99750.549       7795.6014      0.77700000       2.4460000      0.21075000       343.06000       1.9101306     0.014218063
       929.99998       289.27139       99742.410       7833.7489     -0.21250000       2.6852500     -0.75000010       340.79500       1.9973888    0.0093203907
       935.00000       289.32720       99742.232       7887.5254      0.21350000       1.8265000      -1.4035000       340.80200       1.9627450    0.0090665524
       940.00001       289.28547       99760.694       7905.8396    -0.026250000       1.8557500      0.37925000       342.33000       1.9511613     0.010511435
       945.00002       289.29688       99767.370       7947.6827     -0.92075000       1.0532500      0.88100000       342.21300       1.9413195     0.016077626
       950.00000       289.33380       99776.508       8037.1504     -0.40050000       2.6852500     0.078000000       341.54800       1.9661545    0.0099167894
       956.00000       289.35764       99777.303       8112.8851     -0.10550000       3.1822500     -0.60950010       340.84500       1.9620729    0.0085120669
       961.00002       289.34384       99763.016       8163.7475      0.26675000       3.2445000     -0.34500000       341.11700       1.9808012    0.0097078360
       965.99999       289.41490       99757.372       8209.2443       1.0525000       2.7822500    -0.085250010       341.13200       1.9867089    0.0090885483
       971.00000       289.52719       99747.311       8269.8994      0.28850000       3.3110000     -0.22800000       340.97100       1.9838042    0.0073864140
       976.00002       289.63394       99748.183       8280.1300       1.4020000       2.3365000     -0.52900000       340.99600       2.0129953    0.0074938249
       980.99999       289.88165       99761.911       8284.7705       1.7700000       1.6087500      0.16625000       341.78700       1.9522873    0.0090471264
       986.00000       289.95900       99767.956       8224.5810      0.78400000       2.1387500     -0.24150000       342.27800       1.9710750    0.0087798011
       991.00002       289.90291       99782.911       8046.3502       1.5057500       3.2160000     -0.55200000       341.42700       1.9676001    0.0081383463
       995.99999       289.90921       99783.629       7968.9265       1.5030000       4.6045000     -0.25125000       340.71600       2.0047484    0.0073324970
       1001.0000       289.86137       99770.222       7884.4963       1.1982500       3.2937500     0.098000000       341.02000       1.9922264    0.0070369750
       1006.0000       289.83460       99762.842       7844.6358      0.20950000       3.1175000     0.055250000       341.28200       1.9895769    0.0075432608
       1011.0000       289.84313       99744.115       7912.9899      0.88975010       3.2002500     -0.14450000       340.80400       1.9780771    0.0081235090
       1016.0000       289.85286       99741.279       7911.4624      0.69125000       2.5705000      0.21125000       341.84500       1.9692479     0.013927132
       1021.0000       289.84302       99750.929       7888.6191       1.2792500       3.0557500     0.051750000       340.88600       1.9948726    0.0075441549
       1026.0000       289.84663       99756.594       7859.2455     -0.48725000       3.2162500     0.013750000       340.90600       2.0086900    0.0083677194
       1031.0000       289.88182       99773.899       7793.5415      0.67350010       1.8005000     -0.32925000       341.42900       1.9963619    0.0074164015
       1036.0000       289.91193       99779.328       7755.9439       1.3147500       2.3400000     0.067750010       342.88900       2.0070426    0.0071281298
       1041.0000       289.97600       99779.704       7712.5831      0.81175010       2.6740000      0.82325010       342.62000       1.9866194    0.0082427177
       1047.0000       289.94536       99773.596       7697.0576      0.10975000       2.8735000     -0.54025000       340.54700       1.9937002    0.0084987843
       1052.0000       289.88222       99754.106       7734.0469      0.36050000       2.1860000     0.097500000       341.32500       1.9999518    0.0087733954
       1057.0000       289.81984       99751.550       7715.8334     0.032750000       2.5412500      0.22700000       342.21000       1.9930201    0.0069670955
       1062.0000       289.65961       99756.617       7683.4037     0.070750010       3.1952500     -0.21750000       340.82900       2.0038153    0.0078869378
       1067.0000       289.59917       99753.669       7657.7284     -0.71500000       3.5300000      0.14100000       342.21500       1.9535937     0.017019698
       1072.0000       289.58974       99754.259       7583.8097      -1.2687500       2.5997500      0.18125000       341.65700       1.9753632     0.010914357
       1077.0000       289.59203       99757.296       7570.8829     -0.78175000       3.1492500     -0.18075000       341.04600       1.9738790     0.010213596
       1082.0000       289.64110       99755.237       7589.1172      0.45100000       2.7510000     0.010250000       341.25900       1.9631746    0.0086989956
       1087.0000       289.66122       99753.922       7625.3364     -0.12325000       2.0082500      0.26000000       342.69200       1.9902315    0.0078512713
       1092.0000       289.72024       99759.235       7714.3058     -0.23975000       1.7300000     -0.21750000       341.87100       2.0006157    0.0062935022
       1097.0000       289.70131       99762.625       7747.5085     -0.27350000       2.4127500      0.13900000       341.85300       1.9793552    0.0080974923
       1102.0000       289.62584       99757.832       7790.9682      0.49150000       3.6115000     -0.36325000       340.56100       1.9905428    0.0079384810
       1107.0000       289.56959       99760.686       7789.2419      0.27725000       1.5820000      0.35725000       342.73900       1.9623138    0.0099437623
       1112.0000       289.45943       99777.649       7729.9967       1.0775000       1.5637500     -0.48825000       340.57100       1.9827542     0.010428700
       1117.0000       289.41221       99777.466       7691.6751      0.79550000       1.4175000     -0.11400000       341.97100       1.9835534    0.0084501471
       1122.0000       289.37689       99769.117       7606.3059     -0.15525000       1.8820000      0.60325000       341.88000       1.9802343    0.0070951685
       1127.0000       289.39595       99762.805       7610.7022       2.3887500       1.0665000      0.25325000       341.15600       1.9813903    0.0091147574
       1132.0000       289.47312       99743.210       7632.6940       1.9617500       1.8062500      0.12125000       341.38200       1.9692284    0.0070282056
       1138.0000       289.54250       99742.734       7736.3024       1.8987500       2.0132500     -0.35025000       341.05600       1.9558001    0.0097861599
       1143.0000       289.63661       99752.952       7938.0155       1.8285000       1.3432500     -0.18100000       340.58700       2.0024144    0.0070546221
       1148.0000       289.71674       99759.577       8041.6012      0.98975000       1.3880000     -0.39100000       340.75300       1.9973393    0.0073624459
       1153.0000       289.76837       99778.424       8133.6678      0.77575000      0.66025000     0.060250000       341.24700       3.4898176     0.010325377
       1158.0000       289.87493       99778.102       8230.1812       1.1670000      0.34275000      0.21950000       341.81900       1.9859560    0.0097461179
       1163.0000       290.06114       99767.876       8329.4903      0.30700000      0.55775000      0.45725000       342.92300       1.9949303    0.0070376389
       1168.0000       290.10597       99761.219       8330.9952       1.3027500       1.2620000     -0.34475000       340.65000       2.0077954    0.0076845972
       1173.0000       290.09995       99741.279       8302.4864      0.84225000       1.3722500     -0.23125000       341.19300       1.9544575    0.0090273672
       1178.0000       290.13094       99743.511       8265.3091       1.2182500       1.0560000     -0.22275000       340.78300       2.0153947    0.0078071410
       1183.0000       290.07801       99758.328       8119.1424      0.72250000      0.79825000     -0.15975000       341.13000       2.0491553    0.0073013065
       1188.0000       290.11423       99765.205       8068.9525      0.85175000      0.45025000     -0.28800000       341.41100       2.0050251    0.0069722019
       1193.0000       290.27188       99785.369       8083.1955      0.87175010      0.50275000     0.065500010       341.87800       1.9864529    0.0071159360
       1198.0000       290.27770       99782.508       8060.0181       1.1895000      0.35825000    -0.079250000       341.33400       2.0082551    0.0076799165
       1203.0000       290.21973       99761.765       8033.2097      0.73625000       1.5200000    -0.084750000       341.51100       1.9691250    0.0095516050
       1208.0000       290.17256       99753.778       7997.1623      0.28950000      0.78925000     -0.68250000       341.38300       2.0036280    0.0078447213
       1213.0000       290.05795       99735.354       7950.5933     -0.60700010       1.1627500      0.31775000       342.51100       2.0234489    0.0082650108
       1218.0000       289.99656       99738.621       7928.6934     -0.69225000       1.9375000      0.25125000       342.35300       1.9825394    0.0095715407
       1223.0000       289.97784       99759.755       7910.7690     -0.76750000       1.7502500      0.61850010       342.97300       1.9945390    0.0082282917
       1229.0000       289.82267       99775.680       7900.2016     -0.81925000       1.7687500     0.017250000       341.49200       1.9924742    0.0072672789
       1234.0000       289.74044       99779.616       7878.2621     -0.22650000       2.1907500     -0.23775000       341.21300       1.9872214    0.0077486591
       1239.0000       289.65871       99761.109       7821.2166     -0.38850000       2.5232500     0.053500000       341.63700       2.0011425    0.0079528071
       1244.0000       289.58706       99753.917       7777.3021     -0.59475000       1.6965000      0.11275000       342.90700       2.0049584    0.0071583207
       1249.0000       289.49482       99743.163       7694.4753      -1.6932500       1.2380000      0.64525000       341.76000       1.9860248    0.0075151390
       1254.0000       289.51809       99741.368       7679.0678     -0.90925000       1.9390000     -0.21275000       340.65000       1.9691110    0.0079656314
       1259.0000       289.60287       99746.961       7700.3631     -0.68775000       2.1217500     -0.14925000       340.72700       2.0256620    0.0096498718
       1264.0000       289.74535       99766.321       7761.0598     -0.47200000      0.91150000     -0.46725000       341.09300       1.9918560    0.0077170076
       1269.0000       289.81612       99771.139       7794.7632      -1.6457500       1.3335000     0.063750010       342.03400       1.9986166    0.0075339032
       1274.0000       289.97975       99778.982       7871.5706      -1.0707500       1.1380000     -0.20075000       341.64800       2.0027736    0.0088040584
       1279.0000       289.91531       99758.263       7887.7358     -0.74200000      0.84175000      0.43250000       341.89700       1.9405397    0.0083949022
       1284.0000       289.89381       99752.605       7915.9467      -1.5505000       1.0912500     -0.12575000       340.84300       2.0487556    0.0091079992
       1289.0000       289.92979       99753.762       7997.2424      -1.4200000      0.91375010      0.22175000       341.51700       1.9845867    0.0068557564
       1294.0000       289.91231       99753.427       8029.9842     -0.68550000       1.3622500      0.17300000       341.98600       2.0060161    0.0065223850
       1299.0000       289.87024       99756.787       8037.7322     -0.56525000       1.3782500      0.26050000       341.02700       1.9967531    0.0085348316
       1304.0000       289.80799       99774.023       8023.0750      -1.2455000      0.54100000     0.058000000       340.57700       1.9924158    0.0097230938
       1309.0000       289.74602       99770.101       7997.8926      -1.3977500      0.67675000     -0.28525000       340.55900       2.0232063     0.010442146
       1314.0000       289.63251       99754.853       7935.6596     -0.74050000      0.59000000    -0.042250000       340.66600       2.0358305    0.0084955632
       1320.0000       289.65841       99742.265       7915.6162     -0.22775000      0.96775010   -0.0067500000       340.73100       2.0120767     0.012473281
       1325.0000       289.64859       99741.903       7877.0844     -0.15175000       1.0680000    -0.088500000       340.73800       1.9994865    0.0072360700
       1330.0000       289.68491       99763.843       7825.7126      0.17425000      0.85400000      0.10275000       341.89200       2.0652548     0.023278412
       1335.0000       289.66103       99768.249       7776.7570      0.32625000      0.70800000     -0.19775000       341.60700       2.0217248    0.0068808985
       1340.0000       289.55627       99771.383       7701.4595     -0.16225000      0.68225000     -0.43550000       341.21400       1.9936493    0.0070165888
       1345.0000       289.48694       99767.692       7647.7966    -0.063500000     -0.10750000     -0.52750000       341.67600       2.0183791    0.0075363942
       1350.0000       289.38664       99738.817       7610.7155     0.093500000      0.33375000    -0.015500000       341.67700       2.1673378    0.0095118898
       1355.0000       289.32933       99730.587       7573.2576    -0.065250000      0.12050000      0.34200000       342.66900       2.3397170    0.0075373977
       1360.0000       289.28234       99730.882       7517.4548     -0.27575000      0.51000010     -0.13700000       342.00000       2.2373422    0.0090018725
       1365.0000       289.28612       99733.571       7508.5362      0.72300000      0.48350000      0.18275000       341.69000       1.9776682    0.0075412965
       1370.0000       289.35481       99758.354       7524.4394      0.93100010      0.69150000     -0.29700000       341.25200       1.9707547    0.0058757562
       1375.0000       289.40617       99764.693       7553.9916      0.87175010      0.94775000     -0.40725000       340.67500       2.0091795    0.0070795099
       1380.0000       289.51500       99756.693       7646.5141      0.42075000      0.93875000     -0.38425000       340.82700       2.0204977     0.010383003
       1385.0000       289.57200       99755.557       7703.1664     0.053750000      0.91275010    -0.025750000       341.73400       2.0082711    0.0063361946
       1390.0000       289.60580       99743.618       7765.9442      0.37775000       1.3085000     -0.30800000       340.70300       1.9938817    0.0065369872
       1395.0000       289.61323       99742.322       7795.3759      0.10950000       1.3690000     0.065000010       342.36600       1.9885740    0.0082876025
       1400.0000       289.58011       99758.867       7796.8964     -0.12850000       1.6412500      0.16450000       342.44700       2.0277015    0.0079110576
       1406.0000       289.54088       99762.751       7783.2239      0.16750000       1.1650000      0.25525000       341.35600       1.9932146    0.0053982157
       1411.0000       289.44006       99765.305       7719.6697       1.9042500       1.1777500      0.33925000       342.04300       1.9733275    0.0061150205
       1416.0000       289.43079       99760.405       7700.1523      0.98425010       1.1170000      0.14925000       342.02200       1.9860892    0.0074438466
       1421.0000       289.49446       99733.330       7689.0298       1.5870000      0.85675000      0.10825000       341.50800       1.9962412    0.0062714531
       1426.0000       289.50453       99731.062       7687.2600       1.1642500       1.1297500      0.29050000       342.92900       2.0164502     0.011386900
       1431.0000       289.55183       99740.742       7736.2071       1.5697500       1.2155000      0.16025000       343.28800       1.9879421    0.0058168882
       1436.0000       289.56425       99745.785       7732.3688       2.2280000      0.76925000     0.054750000       343.43200       5.3940507     0.012088792
       1441.0000       289.49230       99774.726       7687.4448       3.1527500       1.0262500     -0.16650000       341.89800       2.0973373    0.0073547570
       1446.0000       289.49035       99775.972       7675.8580       2.6715000      0.98300000     -0.58300000       340.90600       4.4874624    0.0079935528
       1451.0000       289.55052       99747.393       7666.4928       2.0350000      0.74300000      0.57625000       342.65200       1.9817194    0.0087883168
       1456.0000       289.55677       99741.460       7640.7953      0.64600000       1.1180000     -0.10350000       343.10600       2.0080368    0.0063354261
       1461.0000       289.54357       99731.798       7621.4106      0.74325000       2.1585000     -0.42700000       341.63500       1.9827273    0.0080950934
       1466.0000       289.55357       99732.346       7608.3957      0.69250010       1.4547500    -0.062250000       342.09300       1.9941821    0.0068974117
       1471.0000       289.52988       99760.308       7552.6718      0.10150000       1.5790000      0.19725000       342.36200       1.9646859    0.0061103786
       1476.0000       289.54713       99764.997       7552.4565       1.4112500       2.5570000     -0.43250000       341.19500       2.0089198    0.0062156317
       1481.0000       289.61953       99758.239       7597.7289       1.2295000       1.6447500     -0.35750000       341.96700       2.0129885    0.0066343124
       1486.0000       289.66977       99755.482       7644.2554      0.26850000      0.85925010      0.14000000       342.48700       2.0125297    0.0071294235
       1491.0000       289.70768       99738.014       7692.1158     -0.27400000       1.4797500      0.21000000       342.34200       2.0381212    0.0064072364
       1497.0000       289.78641       99738.024       7810.3558     -0.30775000       2.0347500    -0.054000000       340.93000       2.0005707    0.0060360104
       1502.0000       289.90723       99756.450       8005.8858     -0.47300000       1.2092500    -0.012250000       341.01800       2.0368117    0.0094464309
       1507.0000       289.92873       99757.605       8062.1767    0.0067500000       1.1045000     0.052750000       341.63800       1.9718422    0.0093793416
       1512.0000       289.91492       99759.726       8097.3313     -0.14250000       2.3457500     -0.31275000       341.25400       2.0050622    0.0057556173
       1517.0000       289.90251       99754.576       8092.9759      0.62575000       2.2800000   -0.0035000000       342.32100       2.0038256    0.0063697703
       1522.0000       289.80172       99726.624       7952.6950      0.14675000       2.7985000    0.0095000010       341.72600       2.0155136    0.0080440746
       1527.0000       289.77415       99726.594       7902.0255    -0.076750000       2.2317500     -0.26075000       341.07200       2.0251239    0.0074513020
       1532.0000       289.76522       99744.542       7866.0842    -0.044500000       2.7502500     -0.42500000       340.67900       2.0118383    0.0061531036
       1537.0000       289.81445       99746.985       7874.3327     -0.17425000       1.9235000    -0.092250000       341.46200       2.0159129    0.0062878819
       1542.0000       289.91436       99759.277       7923.1229      0.11925000       1.4057500     -0.19950000       341.18600       2.0482621    0.0070310813
       1547.0000       289.99072       99756.984       7948.3099    -0.026750000       1.5862500    -0.013750000       341.97400       1.9878990    0.0064444740
       1552.0000       290.18598       99726.187       8045.6542      0.25850000       1.5445000     -0.10525000       341.15500       2.0425647    0.0062379146
       1557.0000       290.18373       99725.980       8032.1838      0.49175000      0.37550000      0.23775000       342.05200       2.0411651    0.0078919568
       1562.0000       290.03109       99743.961       7923.5565     0.040500000       1.0167500      0.12250000       342.59800       2.0004799    0.0062404883
       1567.0000       289.96532       99748.035       7874.9679      0.30600000      0.46900000    -0.064750000       342.86700       2.0157878    0.0064392437
       1572.0000       289.79075       99765.068       7770.3763     0.066500000       1.8235000      0.26450000       342.70400       2.0283530    0.0057240923
       1577.0000       289.75296       99762.793       7757.9731     0.076000010       1.3350000      0.56875000       342.33800       1.9819212    0.0065335308
       1582.0000       289.84169       99734.623       7824.2111     -0.23450000       1.3620000      0.49675000       342.41200       1.9648897    0.0062822052
       1588.0000       289.86551       99730.762       7860.4189      0.20625000       1.0542500      0.46250000       342.58600       1.9668190    0.0076588246
       1593.0000       289.93901       99733.336       7925.9793     -0.22975000       2.1505000      0.53975000       342.46500       2.0255573    0.0069194344
       1598.0000       289.87559       99735.977       7946.4460      0.38175000       1.6950000    -0.037000000       340.79400       1.9847120     0.010380518
       1603.0000       289.72384       99754.956       7945.7018      0.43450000       1.8122500     0.012750000       341.68800       1.9792037     0.011467719
       1608.0000       289.62564       99750.858       7927.5563      0.38350000       1.6805000     -0.31475000       341.22300       1.9999385    0.0091023253
       1613.0000       289.42477       99728.297       7876.5735     0.069000010      0.64775000     -0.40275000       341.16200       1.9861792    0.0070322457
       1618.0000       289.39687       99727.758       7862.1181     0.078000000       1.1167500      0.18650000       341.76600       2.0218225    0.0060300147
       1623.0000       289.47776       99727.000       7838.5601     0.055250000       1.5047500     0.024500000       341.82800       1.9989026    0.0096332467
       1628.0000       289.52596       99730.606       7837.5551     -0.69175000      0.73400000     -0.35775000       341.99000       2.0062069    0.0059650486
       1633.0000       289.65983       99754.044       7874.3758     -0.94325010      0.63225000    -0.023500000       342.15600       2.0091389     0.010517824
       1638.0000       289.68397       99752.959       7876.0203     -0.60675000      0.97200010    -0.044250000       341.19900       1.9802127    0.0066785132
       1643.0000       289.65626       99734.368       7852.2294     -0.36900000      0.97250000     -0.28775000       342.61100       1.9853156    0.0065264469
       1648.0000       289.64756       99732.094       7872.3629      0.12075000       1.8585000    -0.074500000       341.25900       2.0073365    0.0055251661
       1653.0000       289.59706       99727.777       7898.1079      0.46600000       1.7505000      0.10250000       341.80100       1.9993745    0.0063876766
       1658.0000       289.58583       99730.299       7942.0243      0.36850000       1.4435000    -0.051000000       341.18400       1.9990093     0.010024856
       1663.0000       289.59066       99745.634       8011.2761       1.0267500      0.67500000      0.52025000       342.24600       2.0040068    0.0061222626
       1668.0000       289.60967       99749.926       8098.5241       1.0525000       2.0330000     -0.23775000       340.94800       2.0284181     0.010971223
       1673.0000       289.67199       99750.592       8233.1429       1.4900000       1.6852500     -0.12925000       340.78600       2.0030210    0.0069163538
       1679.0000       289.59283       99750.331       8288.2774       1.1892500       1.8987500    -0.066000000       341.02300       1.9997410    0.0069980829
       1684.0000       289.55346       99750.391       8293.6513      0.92900000      0.91125010     -0.19950000       340.75000       10.428661     0.057537531
       1689.0000       289.41342       99756.372       8133.8289       1.0252500      0.87150000     -0.13375000       340.92500       5.8704064     0.025764124
       1694.0000       289.36798       99752.872       8074.5692      0.51200000       1.2452500     -0.12175000       341.59300       5.4672403     0.013299418
       1699.0000       289.49026       99732.279       8088.6520       1.0490000       1.7690000     0.010000000       341.78600       2.3108999    0.0068858025
       1704.0000       289.51279       99727.795       8068.4352      0.24175000       2.9545000     -0.57975000       341.37200       2.0368265    0.0098820277
       1709.0000       289.51074       99728.241       8056.0353      0.93400000       2.8180000     -0.25425000       341.11900       3.3364537    0.0082474657
       1714.0000       289.51454       99727.505       8095.5882      -1.2020000       2.6500000     -0.18850000       342.39100       1.9964267    0.0062716665
       1719.0000       289.49141       99732.116       8068.5629      -1.3287500       1.3780000     -0.21100000       341.45900       1.9944992    0.0093366001
       1724.0000       289.37031       99754.353       7967.1721     -0.92950000      0.94500010     -0.10325000       342.10800       2.0069640    0.0073075571
       1729.0000       289.49158       99736.690       8041.5044     -0.74825000       2.4150000     -0.52375000       340.99200       2.0021518    0.0065219573
       1734.0000       289.55245       99733.221       8090.3214    -0.061250000       2.0627500      0.18425000       341.47800       1.9999195    0.0068990610
       1739.0000       289.67081       99733.707       8248.3601     -0.66925000      0.93850000     -0.45775000       340.85400       2.0001898    0.0079273566
       1744.0000       289.72514       99733.277       8310.6911     -0.20850000       2.1097500     -0.50725000       340.84400       1.9921180    0.0073572913
       1749.0000       289.73021       99736.528       8315.8608     -0.40025000       1.8110000    -0.029250000       342.02300       1.9645678    0.0084005007
       1754.0000       289.65710       99754.838       8246.1941      0.19075000       1.3450000     -0.53975000       340.74900       1.9817053    0.0089402254
       1759.0000       289.61503       99748.753       8199.5406      0.31075000       1.5760000     -0.13675000       341.97300       1.9768884    0.0099486708
       1764.0000       289.55006       99728.077       8103.1549      0.30725000       1.8970000     0.028250000       341.81700       2.0007881    0.0089995320
       1770.0000       289.47515       99728.009       8048.3741     -0.23450000       1.0985000      0.42875000       343.21300       2.0062495    0.0061473414
       1775.0000       289.43610       99728.499       8007.0927    -0.063250010      0.50300000      0.64000000       343.99100       2.1823812    0.0091640238
       1780.0000       289.40936       99750.801       7976.6466     -0.61250000      0.34500000      0.32050000       341.17300       2.0052497    0.0082284820
       1785.0000       289.39082       99754.833       7935.9371     -0.26000000      0.52950000      0.38500000       342.08100       1.9573480    0.0080596155
       1790.0000       289.37125       99735.742       7869.0412      0.21775000       1.5772500     0.051000000       341.67700       2.0025045    0.0070602577
       1795.0000       289.39323       99733.056       7847.4492     -0.24950000       1.5700000     -0.13625000       341.70500       1.9598544     0.014991896
       1800.0000       289.46649       99734.612       7864.8142      0.26050000       1.5367500     0.015750000       341.23800       1.9735804    0.0071825023
       1805.0000       289.50655       99733.865       7851.0241      0.21400000       1.5997500     -0.50100000       342.36000       2.0049885    0.0079605781
       1810.0000       289.60752       99746.506       7865.9289     -0.35375000       1.1962500   -0.0027500000       341.20400       1.9613057     0.011598681
       1815.0000       289.62283       99747.884       7852.7493     -0.56075000      0.58800000      0.35050000       342.35400       1.9749375     0.010562912
       1820.0000       289.51667       99727.298       7766.7461     -0.18450000      0.53050010    -0.021750000       342.61600       1.9807677    0.0080207452
       1825.0000       289.48737       99726.907       7734.3828     -0.30175000      0.95475010     0.033000000       343.21900       1.9835743    0.0075688188
       1830.0000       289.46730       99746.328       7734.8638     -0.42950000       1.3010000     0.015000000       342.62700       1.9996870    0.0092915177
       1835.0000       289.43863       99746.894       7728.3066     -0.77650000       2.1262500     -0.34450000       342.58100       1.9740884    0.0091410958
       1840.0000       289.47205       99745.990       7754.2262      0.53200000       1.6997500     -0.57450000       341.31600       1.9960292    0.0087665901
       1845.0000       289.45926       99747.568       7757.4390      0.87575010       1.5505000     -0.12475000       341.22300       2.0145721    0.0061255086
       1850.0000       289.37586       99730.777       7732.8088      0.62275000       1.5862500    -0.051000000       340.81500       2.0253504    0.0073920993
       1855.0000       289.33685       99726.534       7728.8755      0.84375010       1.4037500    -0.036500000       341.34100       1.9519696     0.010691619
       1861.0000       289.30497       99748.281       7738.4690       1.0327500      0.84975000      0.12275000       341.39300       1.9768032    0.0076682610
       1866.0000       289.28864       99748.055       7733.2943      0.51175000       1.4492500      0.37850000       343.28300       1.9973463    0.0066208165
       1871.0000       289.26107       99729.413       7711.4515      0.55475000      0.33400000     -0.23000000       340.83900       1.9992452    0.0076045901
       1876.0000       289.30221       99728.589       7726.8087      0.59250000      0.38425000      0.10425000       340.91800       2.0039242    0.0076659822
       1881.0000       289.41393       99727.477       7757.5362      0.45225000      0.49675000    -0.037750000       341.70100       2.0092575    0.0088475483
       1886.0000       289.47338       99728.894       7777.9113      0.10200000      0.77600000   -0.0057500000       342.12200       1.9798997    0.0066309965
       1891.0000       289.58490       99753.621       7809.9991      0.85150000       1.3330000     0.048750000       341.53800       1.9772658    0.0074812211
       1896.0000       289.63341       99754.513       7863.3776      0.80650000       1.1075000    -0.055000000       341.38700       1.9880456    0.0099201796
       1901.0000       289.54910       99730.140       7896.4080     -0.50950000       1.0252500    -0.080250000       341.56400       1.9756717    0.0080407876
       1906.0000       289.60445       99727.735       7972.0546    -0.053750000      0.42150000      0.26900000       342.24700       1.9946643    0.0068005050
       1911.0000       289.74228       99731.600       8118.3004    -0.021000000      0.89750000      0.33400000       342.99400       1.9802386    0.0079900676
       1916.0000       289.83658       99728.998       8229.0514     -0.50325000       1.5010000     0.076000010       341.41200       1.9660460    0.0082653221
       1921.0000       289.96611       99736.815       8372.7466      0.43375000       1.5592500      0.56025000       342.98800       2.0049996    0.0079216076
       1926.0000       290.10472       99737.273       8443.3570      0.88750000       1.0402500      0.54675000       341.78300       2.0181933    0.0072734523
       1931.0000       290.23071       99717.647       8461.6185      0.20225000      0.88025000     -0.52300000       341.65300       1.9999575    0.0095000158
       1936.0000       290.34095       99717.008       8484.9828     -0.35300000      0.70650010      0.42275000       341.79100       2.0425030    0.0096930370
       1941.0000       290.54202       99736.714       8476.2171     -0.18475000      0.43000000      0.56975000       341.88700       1.9908131    0.0092063609
       1946.0000       290.59951       99737.145       8442.5653      -1.5110000      0.88225010      0.69475000       342.20600       2.0033657    0.0085909509
       1952.0000       290.52494       99728.517       8392.9403     -0.80975000       1.9287500      0.32200000       342.09300       2.0194275    0.0076050061
       1957.0000       290.48255       99731.081       8333.9762     -0.44400000     -0.30600000      0.75850000       343.91700       2.0016787    0.0070390375
       1962.0000       290.35881       99728.498       8209.4899      -1.3560000       1.2970000      0.76175000       343.54700       1.9997625     0.010071428
       1967.0000       290.31189       99729.402       8149.0508      -1.9710000       1.4015000     -0.20325000       341.81000       1.9904336    0.0076774181
       1972.0000       290.28921       99749.049       8120.1222      -2.5685000       1.4317500     -0.27425000       340.80400       2.0097320    0.0081165776
       1977.0000       290.29144       99747.715       8080.1943      -2.0315000      0.90975000      0.53625010       342.18000       1.9825349    0.0086350667
       1982.0000       290.35266       99723.286       8060.6427      -1.3045000       1.3120000     -0.39825000       342.31400       1.9696824     0.010973392
       1987.0000       290.35641       99722.413       8025.7116      -1.2445000      0.76175000     -0.15775000       341.96000       2.0015384     0.012388612
       1992.0000       290.36817       99730.786       7980.4901      -1.9395000      0.80425010      0.19825000       342.50500       1.9912778    0.0083031316
       1997.0000       290.34586       99729.763       7939.2025      -1.4745000       1.9685000     0.014750000       341.61700       1.9749256    0.0084697019
       2002.0000       290.26861       99737.207       7881.5415      -2.1375000       1.4870000     -0.25150000       341.46200       2.0224012    0.0080565087
       2007.0000       290.21839       99736.766       7864.7367      -1.8757500      0.71300010      0.35700000       341.55500       1.9547890    0.0086978125
       2012.0000       290.18112       99717.154       7882.1593      -1.6760000       1.4025000   0.00050000000       341.94400       2.0083521    0.0069710250
       2017.0000       290.11541       99717.895       7863.9733      -1.2795000       1.2295000      0.29700000       341.40300       1.9680231    0.0092736849
       2022.0000       290.00686       99737.516       7847.6720      -1.2572500       1.7320000     -0.21525000       341.19000       2.0072253    0.0065865554
       2027.0000       289.96971       99737.039       7844.2534      -2.1260000       1.6745000     0.043500000       341.77600       1.9738993    0.0074157784
       2032.0000       289.93331       99728.905       7811.4585      -1.1810000       1.2460000     -0.34725000       341.51900       2.0067419     0.025620860
       2038.0000       289.94839       99732.379       7820.4740     -0.67250000       1.9455000      0.12875000       342.08700       1.9627248    0.0071842852
       2043.0000       290.05007       99730.152       7880.0138     -0.24475000       1.8632500     -0.21125000       340.88000       1.9744284    0.0089968985
       2048.0000       290.08125       99727.960       7901.8161     -0.21650000       2.1075000      0.12775000       342.06900       1.9699847    0.0096422714
       2053.0000       290.11237       99737.804       7901.7876      0.60225000       1.2205000     0.065250000       342.58500       1.9969832    0.0080361728
       2058.0000       290.10488       99736.344       7942.4474     -0.18025000       1.7435000    -0.087750000       342.18100       1.9686347    0.0072007745
       2063.0000       290.07263       99716.740       8014.6728    -0.038500000       1.6855000     0.082000000       343.03300       1.9732251    0.0071694936
       2068.0000       290.01594       99718.912       8026.8109     -0.46750000       1.5520000     -0.23675000       342.08600       1.9720093    0.0071985787
       2073.0000       289.89768       99737.463       8043.8017     -0.20900000       1.1097500      0.29075000       342.79600       1.9673454    0.0079675867
       2078.0000       289.86509       99735.928       8028.6473      0.57750000       1.8507500    -0.064500000       341.76900       1.9705826    0.0070479983
       2083.0000       289.78877       99730.145       7917.7745     -0.37925000       1.4532500     -0.22725000       342.80800       1.9571973    0.0072863523
       2088.0000       289.89923       99731.257       7952.2116     -0.54425000       1.5625000      0.23375000       342.89900       1.9738557    0.0069586807
       2093.0000       290.16585       99724.628       8048.3102      0.47375000       2.4132500     -0.52175000       341.48800       1.9652905    0.0081339488
       2098.0000       290.33460       99722.278       8139.1581    -0.090000000       1.3625000     0.084000010       343.13400       1.9536269    0.0084378609
       2103.0000       290.58345       99730.327       8313.1736    -0.087500010       3.0185000     -0.59250000       341.49600       1.9618303    0.0073852349
       2108.0000       290.74607       99733.448       8415.7189       1.4770000       1.3220000     0.042250000       343.02000       2.0185202    0.0071621293
       2113.0000       290.87013       99727.918       8509.7776    -0.044750000       1.8112500     -0.32675000       342.36700       1.9876231    0.0065667455
       2118.0000       290.89572       99731.701       8540.3512      0.72025000       1.3297500      0.21000000       341.86600       1.9895561    0.0074938243
       2123.0000       290.88718       99748.869       8535.8070      0.24575000       2.1562500      0.30150000       343.17600       1.9655215    0.0070838858
       2129.0000       290.69805       99730.528       8480.5226     -0.46800000       1.3922500      0.41600000       343.07900       1.9761445    0.0076992704
       2134.0000       290.58450       99727.979       8420.1908     -0.87575010       2.0207500      0.13575000       342.15400       1.9787199    0.0069305577
       2139.0000       290.52896       99732.716       8369.8945     -0.90500000       1.4865000     -0.57175000       341.15500       1.9728695    0.0080319789
       2144.0000       290.44968       99729.624       8288.2105      0.47550000       1.4665000      0.17775000       342.96200       1.9819027    0.0067567951
       2149.0000       290.34009       99736.772       8123.8412     -0.44900000       1.7697500      0.50975000       344.19200       1.9509558    0.0073070334
       2154.0000       290.28782       99738.383       8026.4654    -0.047750000       3.7137500      -1.0367500       341.85900       1.9360968    0.0084303806
       2159.0000       290.26012       99733.827       7952.3866      0.26250000       3.1460000     -0.13275000       341.76400       1.9550743    0.0088884922
       2164.0000       290.24403       99711.159       7885.0518     -0.99050000       1.9075000      0.32675000       342.76300       1.9546868    0.0098741195
       2169.0000       290.22569       99715.238       7835.2637      0.19375000       2.4480000     -0.16550000       343.35400       1.9456167    0.0092815646
       2174.0000       290.24992       99732.102       7825.0604     -0.35675000       3.1302500      -1.3435000       341.15400       2.0038829    0.0067003028
       2179.0000       290.24545       99726.072       7843.7023      -2.4042500       2.2922500      0.38800000       342.02200       1.9572730    0.0075710285
       2184.0000       290.24411       99729.979       7840.8726     0.053750000       1.5232500      0.42525000       342.34000       2.0039340    0.0063267448
       2189.0000       290.27052       99732.746       7878.3717      0.58025000       1.9217500      0.81400000       342.12400       1.9672422    0.0063507719
       2194.0000       290.30038       99729.644       7889.8591      0.98375000       3.4880000     -0.29975000       342.58200       1.9702047    0.0068405910
       2199.0000       290.33024       99727.778       7879.1538       1.1600000       3.1122500      0.74650000       342.10900       1.9837595    0.0069198324
       2204.0000       290.34881       99738.010       7818.0994      0.37700000       4.9197500     -0.62100010       341.12000       2.0098922    0.0075060011
       2209.0000       290.36894       99735.362       7807.2904      -1.5100000       3.6522500      0.38900000       341.33700       1.9939407    0.0074101721
       2214.0000       290.39485       99717.212       7796.3252     -0.92400000       3.7030000      -1.0327500       341.58600       1.9702337    0.0065104457
       2220.0000       290.48330       99731.395       7860.6191      -1.8375000       4.1915000     -0.32075000       340.94100       1.9520464    0.0096164389
       2225.0000       290.51238       99732.075       7915.5368      -1.1350000       3.9935000    -0.033500000       340.98500       1.9517165     0.010098087
       2230.0000       290.53290       99722.511       8015.6540      -1.4197500       3.3082500      0.15025000       341.64600       2.0003698    0.0061842223
       2235.0000       290.56136       99724.782       8085.7598     -0.19200000       3.9085000      0.11225000       341.34400       1.9982993    0.0083596461
       2240.0000       290.55860       99732.465       8162.8679      0.73925010       3.8325000      -1.1097500       341.07300       1.9928107    0.0066647012
       2245.0000       290.54891       99730.331       8195.5831     -0.19875000       3.3167500     -0.16375000       341.52300       2.0133711    0.0062032272
       2250.0000       290.61631       99728.925       8202.8026     -0.32225000       1.2997500     -0.20350000       341.00600       1.9692284    0.0074591721
       2255.0000       290.56992       99731.900       8187.0098    -0.096250010       2.3832500      0.32275000       341.81900       1.9825176    0.0073673088
       2260.0000       290.38891       99727.359       8116.3305      0.63200000       3.3000000    0.0062500000       341.00100       1.9619339    0.0069927727
       2265.0000       290.27841       99723.538       8059.0187     0.031250000       2.2805000      0.31125000       342.12600       1.9737797    0.0072171985
       2270.0000       290.10434       99731.871       7977.4537     -0.52750000       1.4227500      0.25550000       343.36200       1.9837251    0.0057280217
       2275.0000       290.00802       99732.433       7923.1964     -0.22125000       1.7092500     -0.11475000       342.81100       1.9736304    0.0064212451
       2280.0000       290.03802       99714.621       7903.9360      0.81800000      0.96675000      0.31525000       342.97500       1.9596259    0.0056194757
       2285.0000       289.99698       99712.337       7850.1815      0.74500010       2.8765000      0.10550000       341.92900       1.9494780    0.0093143360
       2290.0000       289.96287       99728.546       7792.0380       1.5312500       2.4577500      0.10350000       342.61000       1.9567439    0.0062819096
       2295.0000       289.90004       99726.937       7732.0327       1.1945000       1.5637500    0.0012500000       342.85900       1.9662737    0.0062389266
       2300.0000       289.72411       99713.210       7612.9418       1.5732500       2.7785000     -0.65125000       340.85900       1.9633890    0.0068973761
       2305.0000       289.66913       99714.511       7559.8191       1.0587500       2.6292500    -0.062250000       341.43100       1.9366667    0.0086428832
       2311.0000       289.68661       99718.329       7552.6160      0.50450000       2.3642500      0.20350000       342.71600       1.9430087    0.0062026366
       2316.0000       289.69389       99713.305       7545.6660      0.27875000       1.8100000     0.023500000       342.57700       1.9526659    0.0070794135
       2321.0000       289.81619       99712.301       7583.3688      0.86150000       2.5055000     0.016000000       341.49400       1.9800377    0.0067579631
       2326.0000       289.82061       99717.220       7589.5774     0.014500000       1.7925000     -0.28375000       341.20600       1.9430124    0.0075120439
       2331.0000       289.73719       99715.893       7574.5671      0.42150000       1.7307500     -0.29200000       341.45000       1.9964951    0.0060702388
       2336.0000       289.68399       99713.698       7571.9343    -0.074250010       1.4215000      0.26225000       342.41200       1.9543990    0.0082028074
       2341.0000       289.57299       99722.562       7564.1128      0.30750000       1.3307500     -0.43525000       341.05800       1.9692289    0.0077368176
       2346.0000       289.52049       99728.755       7564.4914     -0.76475010      0.89050010     -0.11825000       341.88700       1.9955531    0.0066235372
       2351.0000       289.50571       99725.700       7560.5083      0.31800000       1.8667500     -0.16750000       340.79200       1.9739006    0.0059045094
       2356.0000       289.48936       99723.931       7584.1390      0.35925000       1.6642500      0.10825000       341.31800       1.9647378    0.0064442514
       2361.0000       289.47434       99732.319       7619.4176      0.28450000       1.5957500     -0.12725000       341.75800       1.9795319    0.0099755081
       2366.0000       289.50167       99731.863       7670.3382     -0.31725000       1.2612500     -0.39775000       341.57000       1.9863303    0.0059556465
       2371.0000       289.54980       99713.588       7780.1930      0.12900000       1.1905000     -0.16075000       340.89300       2.0016314    0.0071794453
       2376.0000       289.61659       99712.455       7828.3457     -0.13975000      0.50950000     -0.22550000       341.01100       1.9705309     0.010574701
       2381.0000       289.76481       99728.625       7845.9889    -0.086000000      0.45950000     -0.32700000       341.41200       1.9796872    0.0061590332
       2386.0000       289.83712       99726.013       7878.2922   -0.0040000000      0.36400000      0.12075000       341.94000       1.9592164    0.0063463632
       2391.0000       289.87673       99713.272       7863.6204      0.54750000      0.24800000      0.13900000       341.80200       1.9689560    0.0057278716
       2396.0000       289.92342       99715.069       7900.5422      0.53650000      0.70475010     -0.17450000       341.39600       1.9595543    0.0079978497
       2402.0000       289.96517       99717.332       8036.6436       1.0400000      0.95550010    -0.071000000       341.85300       2.1216624    0.0060738230
       2407.0000       289.95294       99712.289       8051.9857      0.44825000      0.76675000     -0.30550000       341.07700       1.9664326    0.0074311533
       2412.0000       289.91494       99713.285       8027.9141    -0.089750010       1.1222500    -0.049750000       340.96300       1.9498263    0.0078804582
       2417.0000       289.88860       99718.203       8007.3638     -0.46850000      0.61025010     0.012000000       341.90400       1.9574734    0.0071802881
       2422.0000       289.77934       99717.334       7891.4803    -0.066250000      0.33275000     -0.31100000       341.24800       5.4334477     0.010196430
       2427.0000       289.78398       99712.400       7880.2259      -1.2362500      0.76925000     -0.23275000       341.85600       5.1030565     0.010935639
       2432.0000       289.84678       99713.485       7917.3699      -1.1990000      0.75600000     0.022000000       341.13400       11.263833     0.058777349
       2437.0000       289.93603       99718.410       7973.1848      -1.4822500       1.4317500     -0.29225000       342.40400       2.0100213    0.0086212680
       2442.0000       290.09022       99715.127       8075.7267      -1.9050000      0.95475010      0.47400000       342.14700       1.9644515    0.0073518847
       2447.0000       290.22730       99713.297       8174.6118      -2.1515000      0.93525000     -0.12575000       340.81500       1.9957255    0.0081629991
       2452.0000       290.43741       99725.996       8334.0575      -1.5620000       1.0852500     -0.34350000       341.53200       1.9818048    0.0054628862
       2457.0000       290.52350       99728.550       8404.4251     -0.37275000      0.58725010     -0.11800000       340.88400       3.6877725    0.0077660386
       2462.0000       290.55565       99714.865       8444.3361     -0.38750000      0.24925000     0.069500010       341.29800       2.9642926    0.0072928119
       2467.0000       290.57669       99712.764       8466.9305      -1.5227500      0.96900000     -0.43200000       341.80200       5.1280986     0.010854687
       2472.0000       290.50060       99721.381       8403.0033      -1.6730000      0.20775000    -0.010500000       341.65500       5.9154325    0.0097870888
       2477.0000       290.48693       99721.065       8412.3685      -1.6357500      0.19700000     -0.12275000       341.31900       6.8131105     0.011324486
       2482.0000       290.53280       99715.087       8484.0263      -1.9975000     -0.43875000      0.13950000       342.05000       9.8888707     0.040243701
       2487.0000       290.48348       99714.788       8464.3993      -1.6097500     -0.54075000      0.14100000       341.25200       6.2169725     0.011733246
       2493.0000       290.34184       99717.257       8392.6421      -2.3127500     -0.42650000     -0.21700000       341.54300       6.7397613     0.012706208
       2498.0000       290.31917       99712.483       8383.7059      -2.1752500     0.064000000     0.022500000       342.31400       5.0609622     0.013042279
       2503.0000       290.31835       99702.445       8372.6915      -2.1402500      0.83650000     0.024250000       342.11000       3.5693275    0.0087225993
       2508.0000       290.25002       99706.987       8297.7909      -1.5942500      0.70975010      0.19150000       341.09100       2.2936234    0.0065567251
       2513.0000       290.22266       99716.890       8249.4328      -1.5615000      0.38350000     -0.14325000       341.23000       2.0130703    0.0073773674
       2518.0000       290.16596       99714.144       8159.4945      -1.3257500      0.53150000    -0.019000000       341.01900       1.9972326    0.0066446739
       2523.0000       289.97895       99714.479       7942.8299     -0.46925000     0.077000010      0.11500000       342.04900       1.9537722    0.0080988404
       2528.0000       289.95337       99719.382       7865.3880     -0.39400000      0.60950010      0.27025000       342.12700       1.9796372    0.0071970202
       2533.0000       290.05468       99716.314       7849.1371     -0.18900000      0.70900010     0.046750000       341.71800       2.0153600    0.0079506844
       2538.0000       290.05596       99711.250       7852.0212      0.27200000      0.37425000    -0.031750000       341.92400       1.9559250    0.0084276338
       2543.0000       290.04808       99713.879       7907.7659     -0.54700010      0.22150000     -0.30700000       341.34800       1.9791463    0.0063756520
       2548.0000       290.05816       99718.790       7927.8892     -0.70150010    -0.037000000      0.12850000       342.37100       5.5079232     0.012663131
       2553.0000       290.01557       99716.356       7957.0407     -0.72425000      0.69125000      0.23525000       343.06900       3.8620960     0.012163375
       2558.0000       290.07969       99711.437       8005.5298      -1.3622500     -0.11150000      0.18775000       343.26300       3.4598301    0.0092567333
       2563.0000       290.22970       99714.629       8052.6923      -1.5162500     -0.45200000      0.10825000       342.35400       2.1415353    0.0059077861
       2568.0000       290.32049       99719.624       8092.9376     -0.56675000      0.23525000      0.22100000       343.14100       2.1332192    0.0075144855
       2573.0000       290.43747       99716.273       8160.9988     -0.92025010      0.69200000     -0.38925000       341.38100       2.0418310    0.0092810375
       2578.0000       290.52969       99711.210       8209.8329     -0.52525000       1.1677500     -0.24775000       342.27300       1.9855667     0.011983531
       2584.0000       290.62033       99714.874       8238.1116     -0.13400000       1.2687500     -0.11425000       341.74300       1.9549237    0.0070619274
       2589.0000       290.59551       99720.253       8264.0326     -0.22475000      0.55600010      0.15600000       342.01400       1.9991526    0.0079622437
       2594.0000       290.60652       99715.311       8290.6391     -0.46325000      0.45075000      0.18775000       341.58400       1.9819232    0.0073824053
       2599.0000       290.55985       99710.221       8290.3701      -1.2427500      0.55550000     0.029500000       343.13600       1.9498511    0.0087289832
       2604.0000       290.53732       99715.175       8296.9186      -1.7257500       1.1077500      0.26350000       341.02300       1.9494458    0.0079636598
       2609.0000       290.53937       99720.143       8308.9704      -1.1010000      0.26175000      0.62700000       341.61900       2.0381669    0.0075767056
       2614.0000       290.61332       99714.844       8351.6790     -0.30875000      0.38150000     0.040000000       342.79400       2.0443056    0.0075695507
       2619.0000       290.60067       99709.855       8323.2892     -0.57200000       1.5980000     -0.35325000       341.46700       1.9647059     0.010652702
       2624.0000       290.55014       99715.390       8260.7696      -1.4790000      0.95325010     -0.31450000       341.23900       1.9804032    0.0058789035
       2629.0000       290.54509       99720.408       8228.9275     -0.46450000      0.77150010      0.31725000       341.88100       1.9774297    0.0089731170
       2634.0000       290.50658       99715.450       8174.3850     -0.85825000      0.89925000      0.41850000       343.18200       1.9684597    0.0080235900
       2639.0000       290.46939       99710.261       8132.6771    -0.064000000       1.6677500     -0.28675000       341.36300       1.9337090     0.010361170
       2644.0000       290.41206       99715.215       8079.1710     -0.48500000       1.3145000    0.0067500000       341.46300       1.9709088    0.0078840227
       2649.0000       290.33011       99720.183       8008.4166     -0.22250000       2.4182500    -0.087250000       341.41300       1.9655543    0.0086902471
       2654.0000       290.17605       99714.804       7883.3804       1.5365000       1.4830000     -0.32425000       342.06300       1.9514082    0.0098311264
       2659.0000       290.16175       99709.815       7851.6080      0.58825000       2.4602500      0.72800000       343.31100       1.9254757     0.010533539
       2664.0000       290.18890       99715.432       7847.6823       1.9485000       1.7545000      0.35375000       342.76800       1.9400432    0.0074341465
       2670.0000       290.23919       99719.226       7880.3304       1.0735000       4.5367500     -0.42300000       341.12300       1.9336790     0.013235189
       2675.0000       290.31062       99714.201       7923.4995       1.3640000       2.6272500     -0.35200000       340.89200       1.9152544     0.010614018
       2680.0000       290.41716       99714.247       8007.4562    0.0097500000       2.3645000     -0.17700000       341.06700       1.9621756    0.0069273876
       2685.0000       290.46538       99716.953       8049.3237     -0.88475010       3.0412500      0.15050000       343.76500       1.9648829     0.017020325
       2690.0000       290.55119       99709.537       8080.2238       1.7847500       2.0275000      0.89200000       343.46200       1.9678764     0.013850159
       2695.0000       290.57642       99702.783       8119.5971      0.46550000       3.1197500     -0.61650000       341.42000       1.9248338     0.012236240
       2700.0000       290.49095       99700.133       8136.8665     -0.79800000       2.4925000     -0.24775000       341.88200       1.9616337    0.0085698356
       2705.0000       290.44066       99705.424       8148.6108     -0.23150000       1.8395000     -0.23925000       342.54100       1.9331244    0.0093539318
       2710.0000       290.37659       99717.247       8198.4380      0.63725000       1.4705000     -0.38075000       342.02200       1.9176740     0.012452845
       2715.0000       290.33760       99715.945       8196.6223      0.24400000       1.6935000    -0.035250000       343.23600       1.9377394     0.019041431
       2720.0000       290.25274       99710.935       8102.7658       1.9187500       1.6335000      0.13875000       341.94600       1.9155719     0.011710203
       2725.0000       290.27763       99715.820       8084.3020       1.0472500       3.5300000     -0.26675000       342.57500       1.9542254    0.0078857488
       2730.0000       290.43653       99719.303       8083.3358      0.33525000       2.8490000     -0.30325000       342.19200       1.9694681    0.0096539306
       2735.0000       290.51596       99714.364       8093.2560      0.39075000       1.6822500      0.85175000       344.16300       1.9379739     0.011073867
       2740.0000       290.64722       99714.665       8173.9214      0.41475000       2.3070000    -0.039000000       342.92100       1.9281166     0.018195986
       2745.0000       290.73305       99717.469       8219.3409      0.36750000       1.3197500      0.15800000       343.08600       1.9630161    0.0096049206
       2750.0000       290.69208       99709.725       8235.1314      0.39550000       1.6652500      0.21500000       343.60200       1.9911657    0.0082139275
       2755.0000       290.74641       99702.902       8268.7964      0.57200000       4.0137500     -0.34975000       341.55900       1.9038992     0.018363622
       2761.0000       290.92473       99700.762       8324.0499       1.5510000       2.0060000     -0.72900000       342.41700       1.9819890     0.010167915
       2766.0000       290.98800       99706.436       8353.0507     -0.19825000       2.3817500     -0.10425000       343.21100       1.9604186     0.012150630
       2771.0000       291.08672       99717.339       8389.1046     -0.32500000       1.9642500      0.15925000       342.14400       1.9659594    0.0086997305
       2776.0000       291.07381       99715.625       8402.0694      0.54175000       2.6540000    -0.083000000       342.63300       1.9400590     0.012807093
       2781.0000       290.89131       99712.222       8378.8210      0.15375000       2.6157500     -0.25025000       342.18400       1.9628057    0.0078435216
       2786.0000       290.81562       99717.141       8375.5345      0.25100000       3.1070000    -0.094500010       341.61700       1.9606998     0.010023732
       2791.0000       290.70206       99718.193       8366.9266     -0.19850000       2.6595000    0.0087500000       341.04000       1.9757329    0.0097656630
       2796.0000       290.66750       99713.244       8367.2170      0.69775000       3.0505000      0.30375000       342.56600       1.9598518     0.011571542
       2801.0000       290.77675       99714.793       8401.3393      0.28450000       1.5060000      0.38050000       341.09600       1.9992811    0.0066032123
       2806.0000       290.75555       99717.144       8387.7877      0.38275000       1.4192500      0.32050000       342.10900       2.0108458    0.0092286567
       2811.0000       290.71801       99708.011       8377.3021     -0.86125000       2.5702500     -0.21450000       341.79800       1.9615374     0.010233531
       2816.0000       290.63351       99701.671       8310.9252     -0.23075000       2.5882500     -0.33200000       341.10000       1.9336174     0.012037902
       2821.0000       290.38769       99703.563       8146.1460     -0.84450010       1.2177500     0.051250000       341.49600       1.9525034     0.012323162
       2826.0000       290.29352       99706.567       8067.1784     -0.36550000       1.0617500     -0.13500000       341.35100       1.9580277    0.0098000998
       2831.0000       290.19825       99707.113       7957.9106     -0.37075000       1.3765000      0.22350000       342.15100       1.9445589    0.0076084024
       2836.0000       290.22595       99704.195       7933.6449     -0.46625000       1.4652500    -0.090500000       341.75200       1.9477537    0.0070870555
       2841.0000       290.51022       99704.754       8038.8326     -0.60350000       2.1582500     -0.21075000       342.27600       1.9941837    0.0091333593
       2846.0000       290.53713       99706.435       8053.4414     -0.68250000       2.1515000     -0.42675000       341.99800       1.9709736    0.0078128001
       2852.0000       290.48411       99698.960       8067.2259     -0.96650000       2.6550000     -0.40725000       341.16100       1.9249960     0.010395536
       2857.0000       290.43925       99698.823       8060.8324     -0.96175000       2.6887500    0.0057500000       341.70500       1.9334826     0.013072257
       2862.0000       290.19190       99713.573       7973.6761     -0.21850000       3.1265000     0.099250000       341.43200       1.9688258     0.010135414
       2867.0000       290.14057       99711.430       7978.5449     -0.40475000       2.1572500     0.058250000       341.40800       1.9911425    0.0094247346
       2872.0000       290.21952       99696.596       8028.9311     -0.14975000       1.0450000    -0.031500000       341.39600       1.9520259     0.011924848
       2877.0000       290.27152       99692.227       8076.1929      0.41150000      0.72125010    -0.035750000       340.94900       1.9568326    0.0080541282
       2882.0000       290.40469       99686.042       8186.0758      0.48450000       1.4327500     -0.20875000       341.19300       1.9397417     0.010239705
       2887.0000       290.42566       99682.428       8225.0148     -0.12375000      0.98100010    -0.014000000       342.05300       1.9481230     0.013025129
       2892.0000       290.40259       99681.629       8230.0142     -0.38500000      0.55450000     -0.14925000       341.38600       1.9861919    0.0087548670
       2897.0000       290.40665       99687.593       8246.5353     -0.89175000      0.85500000     -0.29000000       342.05900       1.9575763    0.0086062869
       2902.0000       290.31076       99700.752       8219.5258     -0.56650000      0.66450010     -0.33575000       342.06700       1.9398412     0.012684888
       2907.0000       290.35153       99702.530       8242.7480     -0.20425000      0.89850000     -0.35450000       340.96000       1.9322788     0.011446755
       2912.0000       290.53708       99704.215       8312.9673     -0.82250010      0.33600000     -0.45100000       341.64700       1.9564670     0.010050331
       2917.0000       290.59432       99708.634       8341.4512     -0.25525000      0.61850010      0.48325000       342.70200       1.9551098     0.010938385
       2922.0000       290.64539       99707.551       8380.1229     -0.59050010       1.0957500     -0.15500000       342.86700       1.9516707    0.0085033893
       2927.0000       290.68246       99702.923       8386.1352     -0.49800000       1.0697500     -0.15650000       341.60100       1.9551897    0.0071994627
       2932.0000       290.63221       99698.717       8335.7181      0.27725000      0.84475000      0.10775000       341.87000       1.9577810    0.0073105124
       2937.0000       290.65483       99701.397       8342.7464      0.89075010      0.75250010      0.30925000       342.60800       1.9387852    0.0085477992
       2943.0000       290.77692       99701.182       8383.8682      0.55875000       2.4567500    -0.010000000       341.64600       1.9437305     0.012581549
       2948.0000       290.75227       99697.173       8375.6082       1.3875000       3.3302500     -0.31450000       341.75500       1.9644274     0.012014002
       2953.0000       290.65586       99699.527       8365.1862       2.2035000       1.5875000     0.085500000       341.43800       1.9593314    0.0072937079
       2958.0000       290.62605       99703.451       8367.4141       1.5555000       1.8700000     -0.20100000       341.35100       2.0032429    0.0064828996
       2963.0000       290.54623       99701.294       8342.2513       1.8222500       1.8427500     -0.36475000       341.02500       2.0073242    0.0072902075
       2968.0000       290.51387       99697.383       8328.2326       1.2387500       2.0387500    -0.075250010       341.20400       1.9355105     0.010782125
       2973.0000       290.57716       99700.500       8359.3712      0.96725000       2.0307500     -0.15475000       341.18700       1.9715240     0.011461719
       2978.0000       290.53041       99702.522       8330.6674       1.3760000       1.8637500     -0.24400000       341.89300       2.0024019    0.0052928818
       2983.0000       290.43247       99694.867       8258.7826       2.4430000       1.7712500     -0.34475000       342.20300       1.9818077    0.0071597123
       2988.0000       290.32473       99692.543       8197.8272       2.1807500       1.3185000     -0.37125000       341.43700       1.9397481    0.0076291046
       2993.0000       290.15299       99701.636       8114.9511       2.0010000       2.7565000      0.13075000       342.11900       1.9871828    0.0065379428
       2998.0000       290.07003       99700.981       8068.4288       1.3450000       2.8560000     -0.48975000       341.29500       1.9416143    0.0078915569
       3003.0000       289.96425       99688.012       8013.1934      0.73175000       1.6115000      0.42150000       343.01900       1.9590044    0.0091014924
       3008.0000       289.98660       99689.539       8009.7642       1.7865000       2.3350000     -0.32975000       342.32400       1.9556431     0.010281235
       3013.0000       290.14488       99702.134       8061.7793      0.95400010       2.9350000      0.98850010       342.40100       1.9949602    0.0071659173
       3018.0000       290.18630       99700.419       8069.1007       1.1525000       2.5622500     -0.19975000       341.54100       2.0040700    0.0066973968
       3023.0000       290.27027       99693.482       8093.6155       1.6347500       2.4880000      0.24325000       342.42200       1.9782914    0.0088256403
       3028.0000       290.26501       99697.235       8083.8285       2.3145000       3.3205000     -0.16750000       341.41000       1.9661753    0.0074230900
       3034.0000       290.13636       99701.161       8028.0834      0.32000000       2.8400000      0.10700000       342.23400       1.9748503    0.0086903009
       3039.0000       290.10031       99696.378       8007.4118       1.0337500       3.9785000     -0.14575000       341.57800       1.9223538     0.010145346
       3044.0000       290.12585       99700.313       8005.3925       1.9975000       3.7652500     -0.38425000       341.43000       1.9527954     0.010067911
       3049.0000       290.23010       99702.984       7992.3412      0.57575010       2.8367500      -1.1442500       342.15900       1.9972801    0.0065961631
       3054.0000       290.33676       99699.990       8036.6919      0.39700000       3.0890000     -0.51425000       340.97300       1.9686333    0.0066677875
       3059.0000       290.46806       99698.232       8118.6295      0.43900000       1.2070000      0.38050000       342.16800       2.0012222    0.0062396836
       3064.0000       290.65196       99706.719       8239.4320      0.42525000       2.3877500     0.084000010       342.45800       1.9812666    0.0076000901
       3069.0000       290.78142       99708.360       8355.7697      0.86075000       3.3442500     -0.23475000       341.58000       2.0044649    0.0080857136
       3074.0000       290.92314       99699.541       8537.8161      0.40475000       1.8780000     -0.22875000       341.98100       2.0112289    0.0080155242
       3079.0000       290.99865       99701.209       8628.3423      0.17875000       2.5637500      0.29700000       341.40700       2.0246327    0.0082070193
       3084.0000       290.98747       99701.508       8657.3568      0.96650000       3.5805000     -0.37950000       341.99800       1.9877191     0.010819890
       3089.0000       290.82445       99688.869       8589.9514      0.22750000       3.0915000      0.48100000       341.95100       1.9662264    0.0064373790
       3094.0000       290.70672       99687.296       8535.3160       1.5902500       3.7512500     -0.21025000       341.15600       2.0111634    0.0095297135
       3099.0000       290.57664       99691.861       8461.2734       1.4182500       3.8685000     -0.19400000       341.40400       1.9655078    0.0074298014
       3104.0000       290.36323       99709.184       8331.8434      0.84700010       3.3007500     -0.20725000       341.49100       1.9882577    0.0097279122
       3109.0000       290.33167       99702.338       8277.3614      0.55950000       1.2490000      0.54325000       342.32600       1.9631978     0.011776807
       3114.0000       290.38221       99688.748       8246.0900      0.71500000       1.4792500     0.064750000       342.08000       1.9649886     0.010081129
       3119.0000       290.45716       99693.532       8208.6657      0.58750000       2.9610000     -0.44150000       341.08800       1.9513561     0.012045317
       3125.0000       290.56580       99688.825       8211.9677     0.011750000       2.9197500     -0.31750000       340.93900       1.9758386    0.0085036348
       3130.0000       290.67967       99696.710       8214.8773      0.36275000       2.4647500      0.26800000       341.25800       1.9919872    0.0078885863
       3135.0000       290.76914       99703.269       8278.5258       1.3385000       2.2572500     -0.11500000       341.51100       1.9920303     0.011788027
       3140.0000       290.93337       99697.166       8471.7597      0.15725000       2.0867500     -0.55000000       340.87800       1.9947311     0.011550978
       3145.0000       290.98715       99693.374       8565.9191     -0.27250000       1.2595000    -0.090500000       342.01000       1.9980164     0.010922645
       3150.0000       290.95350       99700.772       8663.3803     -0.28825000       1.3480000    -0.048250000       342.30500       2.0242491    0.0068458140
       3155.0000       290.90962       99702.426       8715.2341      0.25500000       1.9192500      0.35700000       343.46600       1.9920545    0.0082981565
       3160.0000       290.80863       99689.526       8705.6067      0.39500000       1.3562500      0.17300000       341.83500       1.9878543    0.0091762075
       3165.0000       290.68516       99688.014       8651.7182      0.44000000       1.6250000     -0.55875000       341.39800       1.9960361    0.0067274783
       3170.0000       290.49481       99701.310       8539.4916       1.1662500       1.5492500     0.048750000       341.61300       1.9730550    0.0075760424
       3175.0000       290.36472       99701.967       8448.7793      0.11025000      0.74325000     -0.35475000       341.87400       1.9832389     0.011250414
       3180.0000       290.21868       99692.367       8287.1939     0.094000000       1.2750000   -0.0042500000       341.15300       1.9151682     0.012173710
       3185.0000       290.11348       99694.522       8187.7531     -0.67475000       1.4302500     -0.24550000       342.23100       1.9496432    0.0074273597
       3190.0000       290.09104       99702.446       8148.7341     -0.70250000       1.3847500      0.59250000       342.01500       2.0125381    0.0084681629
       3195.0000       290.04097       99700.339       8096.2190     -0.60925000       1.3022500     -0.22425000       340.89300       1.9543091     0.010126317
       3200.0000       289.96219       99698.454       8056.4025     -0.85050000      0.69775000     -0.25350000       341.16800       1.9642640    0.0095440204
       3205.0000       289.93479       99701.445       8019.4322     0.059000000      0.91600010     0.048750000       341.44900       1.9316775     0.011035923
       3211.0000       289.95672       99696.576       7971.3391    -0.027500000      0.72775010     0.068500000       342.38500       2.0122166    0.0080432023
       3216.0000       289.94695       99693.393       7945.9235     0.083500010      0.59925000     -0.24625000       341.41900       1.9892622    0.0066748765
       3221.0000       289.94441       99702.389       7922.6143    -0.076500010      0.46100000     -0.19850000       341.65800       1.9978084    0.0091513154
       3226.0000       289.95448       99701.799       7925.2609     -0.25200000      0.23550000    -0.047250000       341.30200       3.6094696    0.0086355011
       3231.0000       289.92943       99683.703       7963.9476    0.0087500000    -0.022250000     -0.18200000       341.14200       11.172460     0.061108488
       3236.0000       289.94620       99682.580       7976.0811     0.061250000     -0.23200000      0.32250000       342.06800       12.866752     0.055127544
       3241.0000       290.04583       99698.635       7983.5419      0.52375000     -0.44600000      0.28175000       342.19100       6.1441157     0.012079822
       3246.0000       290.06834       99696.104       8010.3396      0.66525000     -0.55375000    -0.080250000       341.90800       4.3184260    0.0086579047
       3251.0000       290.06964       99683.448       8044.6112       1.0587500      -1.1962500      0.42875000       342.55700       4.8517092     0.017537913
       3256.0000       290.05234       99685.326       8058.0907       2.4885000      0.62650000     -0.14750000       342.61800       4.7024088     0.013127639
       3261.0000       289.96664       99684.496       8085.4742     0.010250000      0.92450000      0.12350000       345.05400       1.9552277    0.0070875558
       3266.0000       289.93005       99683.533       8098.2149     -0.19650000       1.4690000     -0.13650000       341.93300       1.9434393    0.0078431725
       3271.0000       289.89204       99701.433       8066.5015      0.26575000      0.88975010     0.080000010       342.07300       1.9651353    0.0074713044
       3276.0000       289.88961       99704.125       8066.2317     -0.23675000       1.7667500      0.51400000       342.97800       1.9431058     0.011706557
       3281.0000       289.91018       99683.350       8078.6898     -0.39450000       1.8400000    -0.049750000       341.93200       1.9508120    0.0071765241
       3286.0000       289.95805       99682.231       8102.8002     -0.43700000       2.3052500     0.017500000       342.00800       1.9739014    0.0060480664
       3291.0000       290.05810       99698.618       8138.9462     -0.16050000       1.7547500     -0.60000000       342.11800       1.9637969     0.017469057
       3296.0000       290.12851       99696.068       8178.1612      0.30575000       2.8500000    -0.012750000       342.60400       1.9472623    0.0099364878
       3302.0000       290.20863       99683.207       8246.5256      0.39450000       1.7582500      0.62300000       343.99600       1.9727515    0.0069042247
       3307.0000       290.30497       99685.463       8295.5588       1.9162500       2.1270000     -0.10350000       342.39100       1.9540299    0.0077726007
       3312.0000       290.40377       99681.926       8333.9148       1.3905000       2.6677500      0.71825000       342.30400       1.9852253    0.0082250628
       3317.0000       290.50916       99685.152       8393.1259     -0.14175000       2.8267500     -0.62850000       343.04400       1.9421136     0.016619611
       3322.0000       290.69278       99713.280       8483.9638       1.0432500       1.6607500      0.37850000       344.13700       1.9574454     0.010745032
       3327.0000       290.75765       99715.368       8522.6324      0.98000000       2.1750000     -0.24175000       343.22300       2.0258965    0.0069587122
       3332.0000       290.78008       99694.431       8584.5990      0.40000000       3.3570000      0.28700000       341.73600       1.9782359    0.0092712990
       3337.0000       290.75418       99693.304       8555.3982      0.54075000       1.5720000      0.28150000       342.30400       1.9985586    0.0065178450
       3342.0000       290.62841       99696.564       8437.1694       1.7442500       1.0667500     0.053750000       341.92600       1.9865814    0.0064881447
       3347.0000       290.55809       99693.569       8354.6795       2.1510000       1.6457500      0.57200000       342.37400       1.9890471    0.0079978522
       3352.0000       290.44764       99696.154       8212.1167       2.4010000     -0.28700000       1.0950000       342.65900       1.9672824     0.010164264
       3357.0000       290.41600       99695.945       8146.0976       3.4882500       2.2530000     -0.17525000       341.96100       1.9362348     0.012359666
       3362.0000       290.44238       99682.483       8129.6180       1.7895000       1.8072500     0.067000000       342.15000       1.9862057    0.0072595009
       3367.0000       290.44831       99683.585       8093.9040       1.1920000       2.4847500     -0.55550000       341.79800       1.9559060    0.0071501117
       3372.0000       290.48794       99704.486       8064.3568      0.22625000       1.3445000     0.081500000       343.25700       1.9567513    0.0061905217
       3377.0000       290.51813       99701.708       8068.9604    -0.014750000       2.3272500     -0.10100000       342.11400       1.9827335    0.0066520538
       3382.0000       290.58569       99683.653       8117.2244    -0.031500000       1.3540000     0.086000000       342.31100       1.9709844    0.0094698780
       3387.0000       290.53993       99684.654       8091.9057      0.79450010       1.5652500      0.44425000       342.14600       1.9892029    0.0087975244
       3393.0000       290.42451       99684.688       8061.2016       1.3945000       1.8360000     -0.24800000       342.48400       1.9879825    0.0064281237
       3398.0000       290.33711       99683.450       8013.8018       1.1540000       1.6770000     -0.61125000       341.22900       1.9843818    0.0064107293
       3403.0000       290.14092       99697.051       7879.8083       1.0330000      0.95925000     -0.47300000       342.09000       1.9310704     0.010432525
       3408.0000       290.07649       99698.460       7839.0512      0.32025000      0.60400000      0.26825000       342.63200       1.9790074    0.0071004622
       3413.0000       290.08811       99682.125       7830.2455      0.24025000       2.1925000      0.14125000       342.24000       2.0027336    0.0083158213
       3418.0000       290.09532       99684.405       7860.5305      0.36225000      0.99500010      0.50625000       342.40300       1.9675030     0.010927607
       3423.0000       290.12601       99704.229       7916.6882      0.79850010       1.0105000     0.037000000       341.62500       1.9821602    0.0096711236
       3428.0000       290.18397       99699.854       8012.1128      0.67875000       1.2452500     -0.18475000       342.34900       1.9333489     0.010351288
       3433.0000       290.29452       99685.197       8193.1921      0.31200000      0.77375000     -0.11050000       341.52000       1.9621649     0.010006698
       3438.0000       290.34614       99683.126       8278.5791      0.69950000       1.2732500     -0.19900000       342.11500       1.9565099    0.0087427927
       3443.0000       290.42462       99672.476       8367.9721       1.0745000       1.3275000      0.43550000       341.95900       1.9423795     0.011976311
       3448.0000       290.41046       99672.696       8396.2828     0.044750000       1.2602500      0.36875000       343.84900       1.9654280     0.011551218
       3453.0000       290.32591       99694.024       8351.9895      0.81125000       1.4745000     -0.59525000       341.04200       1.9767850     0.012871685
       3458.0000       290.24900       99691.852       8325.3104     -0.24375000       1.5162500      0.17100000       341.96800       1.9496213     0.010287810
       3463.0000       290.10412       99677.050       8270.8600      0.10250000       1.1950000     0.024750000       341.49100       1.9415740     0.017088002
       3468.0000       290.04185       99671.095       8241.2536      0.16700000    0.0020000000      0.57425000       343.64700       1.9444266     0.010433399
       3473.0000       289.99461       99657.033       8205.5080      0.64000000      0.84825000      0.29225000       343.04100       1.9438533     0.015787613
       3478.0000       289.97195       99659.405       8182.0995       1.2322500      0.88125000     -0.15100000       341.55500       1.9453016     0.016802115
       3484.0000       290.00646       99677.375       8177.2513       1.3295000       1.3292500     0.063750010       341.74900       1.9080467     0.020602658
       3489.0000       289.92493       99669.493       8091.5136       1.3227500       1.8135000     -0.47750000       341.65400       1.9289189     0.017679910
       3494.0000       289.93163       99674.295       8089.0220       1.8992500      0.54400000    -0.052750000       341.99100       1.8881781     0.013151660
       3499.0000       289.99012       99687.306       8161.2913       1.3767500       1.2810000     -0.27425000       343.42500       1.9137973     0.013466287
       3504.0000       290.03717       99686.538       8194.2562       1.1500000       2.6942500     -0.26575000       341.96800       1.9142976     0.018432207
       3509.0000       290.10886       99683.298       8235.6668      0.12275000       3.5122500       1.1487500       342.53700       1.9153728     0.015375437
       3514.0000       290.24106       99686.822       8335.2358       1.5927500       2.7965000     0.029750000       341.56300       1.9379773    0.0089020809
       3519.0000       290.37318       99687.505       8374.1007      0.81150000       4.2395000     -0.16200000       341.08500       1.9279513     0.017937532
       3524.0000       290.51123       99671.104       8349.7530     -0.45550000       2.5685000      0.41950000       342.17100       2.0059860    0.0077013713
       3529.0000       290.63905       99699.245       8412.8571       2.3530000       4.0992500     -0.63125000       341.92400       1.9304842     0.012048901
       3534.0000       290.68811       99705.504       8459.2689       1.9117500       4.1585000     -0.71525000       341.61300       1.9452435     0.014210385
       3539.0000       290.53951       99684.846       8486.0195       2.0117500       2.5242500     -0.21750000       342.01000       1.9333549     0.013812120
       3544.0000       290.48755       99683.539       8534.6962       1.8397500       1.1942500    -0.050000000       342.13700       1.9534377    0.0087559132
       3549.0000       290.46017       99685.940       8591.1432       2.1227500       2.8860000     -0.81275000       342.55300       2.0065132    0.0064372244
       3554.0000       290.41079       99681.592       8653.7420       3.4667500       2.6025000     -0.49275000       342.40900       1.9587218    0.0068542979
       3559.0000       290.50053       99687.390       8697.6515       1.8430000       2.9352500     -0.25750000       341.63800       2.0201612    0.0061615612
       3564.0000       290.70654       99716.542       8759.9540       3.0432500       3.2227500    -0.093500000       341.02800       1.9771686    0.0082416215
       3569.0000       290.84088       99687.464       8759.4093       2.5355000       2.7090000     -0.30050000       341.90800       1.9627567    0.0080539416
       3575.0000       290.93801       99681.198       8751.3601      0.27550000       2.0205000      0.19025000       342.21400       2.0130475    0.0063717428
       3580.0000       290.90009       99685.086       8730.7637      0.15675000       1.9680000     0.013750000       342.85500       2.0087735    0.0053745568
       3585.0000       290.90005       99683.564       8705.3444      0.94350000       2.7170000      0.54325000       342.91700       2.0056192    0.0067525829
       3590.0000       290.94291       99702.789       8655.3626    -0.016500000       2.5462500     -0.16350000       342.04900       1.9972218    0.0083827429
       3595.0000       290.90966       99704.786       8624.9434      0.99350010       2.4847500      0.21125000       342.50600       1.9812478    0.0088845141
       3600.0000       290.84542       99675.137       8626.3348       1.7415000       3.5567500     -0.30500000       341.85800       1.9927731    0.0057091223
       3605.0000       290.75163       99671.145       8584.1131       1.2055000       2.5705000    -0.045750000       341.50600       2.0118606    0.0068094519
       3610.0000       290.54382       99683.098       8514.2432       1.2870000       2.3005000     -0.14500000       342.41400       1.9574569     0.012840531
       3615.0000       290.41582       99685.166       8463.4408      0.84550010       2.1322500     -0.63275000       342.21400       2.0363172    0.0061058240
       3620.0000       290.35128       99702.683       8403.3002     0.022750000       1.5270000      0.63900010       343.71700       2.0005468    0.0088777568
       3625.0000       290.22984       99704.844       8328.4408       1.1060000       2.2645000     -0.35550000       342.49700       1.9690858    0.0086908349
       3630.0000       290.07314       99674.951       8244.2981      0.55250000       2.5370000      0.10200000       342.26200       1.9845312    0.0067429773
       3635.0000       289.97525       99670.910       8189.2860      0.42900000       3.1047500     -0.28175000       340.95600       1.9735048    0.0088657125
       3640.0000       289.82351       99682.659       8102.0633       1.0162500       1.3655000     -0.74050000       341.00000       1.9796580    0.0083013848
       3645.0000       289.76052       99684.766       8065.6672       1.3570000       2.0582500     -0.24275000       341.18800       1.9303023     0.016170043
       3650.0000       289.83374       99702.475       8095.7596      0.18875000       2.1670000     -0.28375000       341.43400       1.9329629     0.011129145
       3655.0000       289.85361       99704.357       8112.5623     -0.24475000       2.2790000      0.32725000       342.16600       2.0030028    0.0068371488
       3660.0000       289.86249       99677.460       8141.1023     -0.14200000       1.6760000      0.34700000       342.66500       1.9360683    0.0093420563
       3666.0000       289.91370       99670.446       8182.5541     -0.23850000       2.2895000     0.073500000       342.24600       1.9343512     0.012629492
       3671.0000       289.95111       99673.231       8208.1294     -0.77325000       2.5977500      0.35875000       342.95700       1.9672213    0.0085213003
       3676.0000       290.01844       99674.362       8269.0657     0.040500000       3.5410000      0.29650000       342.86900       1.9703221    0.0066974649
       3681.0000       290.14001       99692.617       8338.4708      0.53125000       2.6695000     -0.31450000       341.55100       1.9562146    0.0075683382
       3686.0000       290.23931       99693.395       8447.4875     -0.86475000       2.3870000      0.11925000       342.34000       1.9676205     0.011226715
       3691.0000       290.35086       99675.060       8631.1883     -0.79450010       2.6977500   -0.0047500000       342.26500       1.9624428     0.012809437
       3696.0000       290.43717       99673.151       8758.2463     -0.15250000       3.5385000    -0.083500010       341.80500       1.9567452     0.010921360
       3701.0000       290.53924       99673.187       8943.9536   -0.0080000000       2.7675000     -0.30625000       341.50800       1.9575863     0.016030166
       3706.0000       290.57819       99674.225       9000.0128     -0.72075000       2.8840000    -0.040000000       341.52500       1.9529317     0.014345702
       3711.0000       290.54335       99694.004       8931.3288     -0.26950000       4.1005000      0.15550000       341.77900       1.9701367     0.010927016
       3716.0000       290.55324       99693.553       8906.7074     -0.67150000       2.0842500     -0.16500000       342.22900       1.9530034     0.013952793
       3721.0000       290.54326       99670.028       8830.6475      0.14900000      0.83500000      0.18600000       342.69000       1.9652338    0.0081896487
       3726.0000       290.54697       99667.591       8763.0030       1.0735000      0.19525000     -0.27000000       342.75200       1.9591120     0.011559246
       3731.0000       290.59517       99667.128       8717.2475       2.3177500      0.93350010      0.10625000       342.77600       1.9327223     0.019135610
       3736.0000       290.61113       99668.704       8657.7941       1.7740000       1.7872500      0.34200000       343.40600       1.9411147     0.017106106
       3741.0000       290.59976       99693.096       8557.2831       2.0237500       2.4115000     0.032250000       341.73000       1.9606371     0.012865090
       3746.0000       290.59960       99693.976       8489.3308       2.1005000       1.6962500     -0.14600000       341.68300       2.0052392    0.0074418868
       3751.0000       290.58737       99669.526       8428.5635       2.2132500       1.4575000      0.18925000       341.19400       1.9560672     0.011731997
       3757.0000       290.60550       99667.030       8399.1462       1.5340000      0.67750000     -0.23825000       341.08700       1.9683140     0.010297298
       3762.0000       290.61950       99665.245       8381.8025       1.3217500       1.4760000      0.54300000       341.65200       2.0041313    0.0058462194
       3767.0000       290.67149       99671.038       8412.5666       1.4007500       1.5525000    -0.099000010       341.26000       2.0450046    0.0064420912
       3772.0000       290.80576       99704.156       8540.3244       1.8027500      0.65775000     -0.36100000       342.13300       1.9834214    0.0092690598
       3777.0000       290.82732       99705.695       8561.2214       1.2200000       1.4692500      0.23725000       341.99100       1.9532210    0.0072181068
       3782.0000       290.81631       99687.172       8569.8061      0.29200000       1.4455000     -0.73025010       341.13000       1.9423872    0.0093384060
       3787.0000       290.80333       99683.106       8551.7636      0.32525000       1.4940000     -0.44575000       341.12600       1.9787765    0.0066670473
       3792.0000       290.70229       99668.018       8439.4979     -0.30250000      0.95350000     -0.10125000       341.45900       1.9945294    0.0076522407
       3797.0000       290.67436       99666.618       8407.1240     -0.61150000      0.48150000      0.41675000       342.05800       1.9777699    0.0076441933
       3802.0000       290.68933       99685.512       8408.2724     -0.41550000      0.44925000     0.068500000       342.26200       1.9929910     0.011670504
       3807.0000       290.70571       99688.681       8409.0219       1.1875000      0.43000000     -0.17250000       341.52300       1.9573590     0.019813659
       3812.0000       290.73058       99688.117       8444.3043      0.69775000      0.52625000     -0.15875000       342.03000       2.0128286    0.0067166504
       3817.0000       290.76643       99684.221       8442.7826      0.51200000      0.87850000     -0.24125000       342.05000       1.9636246    0.0086672565
       3822.0000       290.84072       99668.630       8423.8647      0.77200000       1.4342500      0.21575000       343.12100       1.9718418    0.0060371762
       3827.0000       290.87439       99668.188       8420.9801      0.99700000      0.17300000      0.32775000       343.18500       1.9734776    0.0091588127
       3832.0000       290.94332       99673.297       8419.7159       2.1175000       2.4022500     -0.46500000       342.39600       1.9948201    0.0062534752
       3837.0000       290.89181       99676.627       8396.6606      0.27400000       1.2105000      0.55675000       343.34200       1.9644605    0.0083210416
       3843.0000       290.74007       99694.919       8390.2253       1.8955000       1.6377500      0.11425000       343.24200       1.9736703    0.0072080877
       3848.0000       290.60421       99690.863       8320.1785       2.6210000       1.4512500     -0.27575000       343.98400       1.9759422    0.0068781489
       3853.0000       290.34882       99669.051       8176.0752       2.1332500       2.1445000     -0.24925000       341.04300       1.9900397    0.0064181021
       3858.0000       290.24506       99666.677       8107.6729       1.6495000       1.3257500     -0.31250000       341.20200       1.9737887    0.0063257125
       3863.0000       290.18202       99662.086       8018.7499       1.5610000       1.0505000     -0.13700000       341.60300       1.9810693    0.0068512485
       3868.0000       290.16645       99665.375       7999.0796       1.4277500      0.83800010     -0.13450000       342.11200       1.9486669    0.0098575336
       3873.0000       290.23559       99688.481       8044.5217       1.7275000      0.83875010     -0.11625000       342.62900       1.9808454    0.0066305088
       3878.0000       290.27469       99688.135       8070.2316      0.66525000       1.2530000     0.052750000       343.20700       1.9564602    0.0075035113
       3883.0000       290.34003       99676.645       8115.4478      0.28750000       1.7440000      0.10925000       343.94900       1.9641945    0.0074483274
       3888.0000       290.39055       99671.756       8163.4947      0.56325000       1.9355000     -0.52775000       341.55000       1.9896561    0.0064226464
       3893.0000       290.45011       99656.576       8237.2959      0.22625000       1.9955000    -0.051250000       341.25900       1.9954689    0.0064226958
       3898.0000       290.48151       99658.694       8257.0721     -0.14925000       1.3540000      0.36450000       342.19200       1.9832434    0.0067539217
       3903.0000       290.48468       99675.015       8248.8462     -0.66325000      0.98150000     0.092250000       343.52900       1.9509959    0.0090084604
       3908.0000       290.53300       99679.144       8278.2261     -0.64000000       1.6695000     0.016750000       342.14700       1.9766148    0.0076517484
       3913.0000       290.59974       99689.439       8294.4643     -0.96900000       2.4085000      0.30000000       342.79300       1.9553294    0.0096723994
       3918.0000       290.62103       99684.995       8305.5567    -0.082000000       2.0097500     -0.45550000       341.01600       1.9750193     0.011350472
       3923.0000       290.65986       99663.793       8351.3173    -0.053500000       1.2597500     0.013750000       341.12700       2.0173548    0.0085741991
       3928.0000       290.66274       99662.405       8363.5453     -0.16375000       1.0197500     0.016750000       342.15400       1.9340782    0.0069403679
       3934.0000       290.59978       99662.838       8332.2527     -0.65950000      0.72875010     -0.22450000       342.32200       1.9993111    0.0074715848
       3939.0000       290.58448       99683.545       8325.9967      -1.2325000      0.50850000    -0.022500000       341.48400       1.9833974    0.0054169097
       3944.0000       290.55579       99689.192       8308.9722     -0.74000000      0.99275000     -0.43200000       341.68500       1.9780419    0.0073162480
       3949.0000       290.47012       99681.117       8252.5721      -1.0552500      0.76525000     -0.20150000       341.10100       1.9543730    0.0073926040
       3954.0000       290.43787       99676.355       8216.5654     -0.50250000       1.0625000     -0.21300000       341.16400       1.9993934    0.0066028719
       3959.0000       290.43020       99669.134       8188.7576     -0.94900010    -0.060500000     0.073250000       342.00000       2.6243617    0.0090651062
       3964.0000       290.44252       99650.938       8168.9384     -0.55300000      0.25350000      0.12225000       341.33100       5.8831148     0.010000463
       3969.0000       290.45397       99654.919       8152.1805      -1.1962500      0.54400000     -0.21850000       341.60500       1.9741327    0.0072174070
       3974.0000       290.51174       99670.318       8143.7198     -0.26525000      0.37000000      0.55175000       343.09300       1.9597720     0.010854070
       3979.0000       290.49953       99685.756       8155.8727      0.53650000       1.0687500    0.0087500000       342.31800       1.9921225    0.0073420067
       3984.0000       290.46238       99689.847       8144.1382      0.57125000       1.1632500     -0.15300000       341.44700       1.9752799     0.010905875
       3989.0000       290.35425       99671.114       8114.6869     -0.12700000       1.1087500      0.21775000       342.84800       1.9566790    0.0071032803
       3994.0000       290.29337       99663.902       8094.6478     0.056500000       1.4220000     -0.24700000       341.40300       1.9473194    0.0072719424
       3999.0000       290.24479       99659.162       8070.9860       1.0102500       1.4605000     0.095500010       341.84900       1.9464115    0.0064974439
       4004.0000       290.18063       99651.309       8016.4135      0.30975000       1.9782500      0.37675000       343.14200       1.9387817    0.0071748983
       4009.0000       290.18509       99657.217       8035.5754    0.0057500000       1.3112500      0.39550000       343.31400       1.9668786    0.0071699040
       4014.0000       290.25611       99676.521       8098.1343      0.16825000       1.8542500     0.035500000       342.15700       1.9366958    0.0066736736
       4019.0000       290.26882       99687.046       8134.0928      0.25600000       1.7067500    -0.061750000       342.77900       1.9680478    0.0068151187
       4025.0000       290.25651       99688.219       8156.4402      0.83975010       2.0982500     -0.41050000       341.50600       1.9623020    0.0072642035
       4030.0000       290.18948       99666.676       8131.5705      0.95650010       1.6692500    -0.061750000       342.19900       1.9760917    0.0078858581
       4035.0000       290.13998       99662.249       8111.8604       1.4102500      0.46350000      0.25400000       342.75100       1.9338554    0.0081173115
       4040.0000       290.07547       99661.956       8091.0380       2.1205000       2.7182500     -0.33025000       342.09700       1.9504022    0.0073642953
       4045.0000       290.03674       99663.419       8069.9867      0.83950010       3.9545000      0.13925000       342.47200       1.9445944     0.010662943
       4050.0000       289.99484       99685.095       8018.9487       1.6480000       3.4570000     -0.55675000       341.08700       1.9478893    0.0094249192
       4055.0000       289.98745       99689.321       8005.5453      0.82925000       2.2915000     -0.25625000       341.10900       1.9757174    0.0067813120
       4060.0000       290.03423       99676.309       8017.0643       1.5260000      0.74275000      0.90500000       342.56400       1.9698462    0.0068794112
       4065.0000       290.05448       99674.487       8030.7802       1.2530000       2.2907500     -0.46750000       341.36100       2.0088267    0.0066408190
       4070.0000       290.09044       99672.982       8079.1773      0.84375010       1.2537500    0.0045000000       341.81100       1.9432866    0.0073242009
       4075.0000       290.10955       99669.147       8107.2353     -0.51200000      0.53950000      0.34900000       343.17700       1.9468533    0.0099191441
       4080.0000       290.08588       99667.272       8104.8704     -0.24800000      0.81500010      0.18250000       343.08700       1.9338755     0.010900530
       4085.0000       290.09702       99670.364       8138.4961      0.55375000       1.7125000      0.74825000       342.87300       1.9554783    0.0084194755
       4090.0000       290.13387       99676.767       8219.4111     -0.49200000       2.0672500      0.20300000       341.85600       1.9261995    0.0099344594
       4095.0000       290.15409       99675.705       8243.9878       1.3505000       2.9347500      0.57425000       342.51600       1.9642158    0.0065498490
       4100.0000       290.19005       99678.375       8260.1601       1.0405000       2.7652500     -0.56275000       342.55700       1.9521113    0.0077125303
       4105.0000       290.20895       99676.862       8268.8276     -0.98500010       3.9942500      0.30500000       342.45700       1.9557875    0.0083054378
       4110.0000       290.19951       99658.121       8217.2513      0.70775000       3.6145000     -0.57200000       342.12700       1.9498918    0.0083853708
       4116.0000       290.19927       99650.740       8186.6172     -0.27650000       2.8042500     -0.64225000       341.32200       2.0057500    0.0064692046
       4121.0000       290.20001       99650.810       8201.4328     -0.56375000       4.0252500     -0.16925000       341.47700       1.9516498     0.010225722
       4126.0000       290.20001       99655.329       8176.8373      0.39925000       2.4947500      0.45325000       343.26800       1.9677992    0.0081244520
       4131.0000       290.18726       99675.085       8115.0384       1.2970000       3.0692500    -0.042500000       341.88400       1.9809812    0.0068562921
       4136.0000       290.20092       99678.586       8086.4424      0.35475000       1.7490000      0.41125000       343.30400       1.9615767    0.0072946968
       4141.0000       290.22400       99681.913       8025.0311    0.0050000000       1.2260000      0.17200000       342.67500       1.9756449    0.0090716081
       4146.0000       290.25805       99676.679       8034.9419      0.29575000       1.0252500      0.26800000       343.14000       1.9681461    0.0097008840
       4151.0000       290.33207       99646.680       8136.5364      0.98075000       1.0432500     0.018250000       341.84500       1.9594254    0.0085566385
       4156.0000       290.36848       99639.871       8166.4886       1.1417500     0.044250000      0.13175000       343.04100       1.9735942    0.0091001946
       4161.0000       290.38220       99639.491       8189.7656       1.3705000       1.0152500      0.15600000       343.06300       1.9645202    0.0070058477
       4166.0000       290.41232       99644.689       8223.0243       1.1635000       1.1345000      0.19200000       341.85600       1.9568068    0.0095664113
       4171.0000       290.42552       99671.537       8207.0206       1.6467500       1.2190000     -0.14300000       341.59800       1.9979613    0.0064732281
       4176.0000       290.45924       99680.943       8232.4105       2.0632500      0.27950000     -0.58675000       342.48300       2.0033721    0.0068889304
       4181.0000       290.50628       99689.126       8304.9604       2.8447500      0.32375000    -0.040500000       341.20500       2.1425609    0.0068332184
       4186.0000       290.57062       99687.768       8366.0661       2.2790000    -0.090500000      0.13175000       341.28500       3.6495264    0.0088243219
       4191.0000       290.64510       99669.525       8389.8911       1.8027500       1.2875000     -0.20325000       341.23100       5.8608118     0.012131594
       4196.0000       290.72924       99661.944       8493.3870      0.91475000       1.2910000    -0.028250000       341.56100       6.0872896     0.012229701
       4201.0000       290.86837       99647.777       8679.0610      0.75425000      0.73275010     -0.19725000       341.42100       3.9978228     0.011559955
       4207.0000       290.95299       99647.700       8834.8405      0.53125000       1.0225000     0.037750000       342.13800       2.6355247    0.0085643721
       4212.0000       290.98780       99662.936       9044.0718       1.2542500       1.1980000      0.29100000       342.55100       2.0421294    0.0067531808
       4217.0000       291.03114       99668.862       9099.3779       1.2600000       1.1297500     -0.13000000       342.60000       1.9920883    0.0070180618
       4222.0000       291.05320       99683.673       9036.3421      0.64300000       1.8607500     -0.29150000       341.51800       1.9831365    0.0058015733
       4227.0000       291.05703       99683.094       9002.1542      0.82725010       1.8325000     -0.24425000       341.86500       2.0034527    0.0076306732
       4232.0000       291.07049       99670.238       8885.0302       1.6412500       1.8762500     -0.20000000       341.40600       1.9529594    0.0093647060
       4237.0000       291.04783       99660.867       8826.8976       1.4002500       1.7390000     -0.19450000       341.23300       1.9739633    0.0083485892
       4242.0000       290.94877       99640.251       8775.1575       1.2430000       1.2705000     -0.34350000       341.26800       1.9647743    0.0087583046
       4247.0000       290.93136       99635.421       8766.1083       1.2482500       1.1677500     -0.25925000       341.51800       1.9558878    0.0072849212
       4252.0000       290.97725       99635.740       8814.8871       1.4152500       1.3860000     0.063500000       342.09200       1.9369992    0.0078439224
       4257.0000       290.93524       99641.864       8797.1098      0.22575000       2.3037500     -0.18825000       342.86500       1.9833231    0.0068935896
       4262.0000       290.88448       99662.793       8801.0047      0.72950010       2.4557500     -0.44275000       342.17000       1.9528895    0.0080252277
       4267.0000       290.82262       99671.470       8746.7575      0.46375000       2.1927500    -0.086250010       342.04100       1.9394349     0.011259439
       4272.0000       290.67244       99682.426       8616.3550     -0.21800000       2.6377500    -0.071250010       342.00800       1.9510804    0.0090167607
       4277.0000       290.59513       99683.182       8512.3364     0.017250000       2.6690000     -0.42225000       342.06900       1.9471862     0.010551814
       4282.0000       290.53671       99672.843       8367.5236     -0.55100000       1.2517500      0.54425000       343.58000       1.9390346    0.0099407257
       4287.0000       290.53551       99667.113       8304.5397     -0.56475000       2.1537500      0.23525000       343.11400       1.9584249    0.0072327440
       4292.0000       290.59709       99652.666       8265.9785     0.098250000       2.5895000    -0.048500000       341.95600       1.9566412    0.0099210760
       4298.0000       290.60909       99653.522       8247.5530      0.23675000       2.1865000     -0.20200000       342.46500       1.9422570    0.0083080856
       4303.0000       290.66894       99663.859       8305.4553      0.90325000       1.3747500     0.098500010       342.74200       1.9285964     0.010230028
       4308.0000       290.65249       99668.701       8319.2103       1.4012500       2.3307500    -0.033000000       342.44000       1.9457944     0.010923649
       4313.0000       290.54246       99681.153       8315.6607      0.11250000       2.7950000      0.23425000       341.96700       1.9668725    0.0082583248
       4318.0000       290.52994       99684.547       8335.4073       1.1727500       3.6465000     -0.36925000       341.63200       1.9567079    0.0071814661
       4323.0000       290.58036       99682.308       8389.3396     -0.28725000       2.6082500     -0.21950000       342.97900       1.9272659     0.011533188
       4328.0000       290.51380       99678.586       8371.0791      0.17525000       2.5745000     -0.21525000       341.68200       1.9630195    0.0082368690
       4333.0000       290.40201       99673.831       8313.7602       1.1195000       2.3070000     -0.32600000       342.57600       1.9543981    0.0091420446
       4338.0000       290.37111       99664.241       8308.2770      0.60925000       1.5940000      0.33975000       342.66600       1.9002951     0.015074176
       4343.0000       290.28953       99643.653       8284.1710       1.3632500       1.5632500      0.52825000       342.91200       1.9202079     0.011057310
       4348.0000       290.26526       99639.080       8266.8684      0.49875000       2.6257500     -0.40900000       342.38400       1.9761617    0.0077380137
       4353.0000       290.35134       99636.028       8295.1405       2.6105000       3.2045000     -0.25550000       342.11800       1.9322139     0.011692406
       4358.0000       290.37252       99642.276       8296.1472       1.7397500       2.9925000     -0.33700000       341.93000       1.9485374    0.0092169369
       4363.0000       290.33308       99663.648       8240.8470       1.3012500       2.7002500     -0.10925000       342.44100       1.9143667     0.012618229
       4368.0000       290.36123       99673.836       8263.4311       1.0420000       2.4627500    -0.026750000       342.02700       1.9434636     0.011878835
       4373.0000       290.43993       99688.232       8339.8922      0.65900000       2.6360000    -0.065500010       342.41100       1.9216813     0.012039647
       4378.0000       290.49016       99687.920       8386.6979       1.0537500       1.9415000     -0.48100000       341.46200       1.9361889     0.013336674
       4384.0000       290.57624       99676.282       8467.5436       1.3770000       1.8970000     -0.17525000       341.74400       1.9121001     0.012514164
       4389.0000       290.50910       99664.659       8487.2898       1.1195000       1.9690000     -0.35975000       341.55800       1.9156988     0.014157616
       4394.0000       290.46142       99654.633       8485.2682       1.0200000       1.4735000     -0.35300000       342.25200       1.9013305     0.011051222
       4399.0000       290.31518       99638.374       8420.6979      0.40475000       2.1517500      0.53625010       342.04700       1.9251737     0.016388682
       4404.0000       290.23191       99636.661       8392.9801      0.56775000       1.7622500     -0.41025000       341.73500       1.9197933     0.016739941
       4409.0000       290.18551       99642.323       8374.6531      0.74150000       1.6657500    -0.010500000       342.61700       1.9233206     0.011441294
       4414.0000       290.20703       99653.567       8364.6901      0.12875000       1.9590000     -0.25850000       342.55800       1.8844039     0.017631472
       4419.0000       290.15531       99661.960       8322.2679      0.48450000       4.0095000      0.19700000       342.50900       1.8784505     0.013320344
       4424.0000       290.10051       99683.230       8291.5496      0.18375000       3.4327500     -0.17500000       341.61300       1.9220794     0.010336353
       4429.0000       290.03009       99684.719       8201.5668       1.6457500       3.9987500      0.19600000       341.69400       1.9255298     0.012305561
       4434.0000       289.98701       99682.184       8143.1296       1.5907500       2.9490000     -0.13450000       341.10000       1.9330451     0.010378186
       4439.0000       289.99983       99674.277       8123.1534      0.75450000       2.2710000     -0.48875000       342.00800       1.9162633     0.012246773
       4444.0000       289.99971       99666.555       8094.3688      0.82550000       2.5475000     -0.50550000       342.17300       1.9658925    0.0081513036
       4449.0000       289.99960       99656.362       8068.1903       1.2562500       2.7620000     -0.22425000       341.52400       1.9676264     0.011052236
       4454.0000       289.98045       99637.327       8031.9785      0.32500000       4.2195000     -0.47850000       342.34500       1.9034807     0.017541160
       4459.0000       290.04516       99635.028       8067.1507       1.7802500       4.9075000      -1.5082500       341.62600       1.9314438     0.011415145
       4464.0000       290.16181       99637.488       8134.6677      0.27525000       3.0855000     -0.40750000       342.46600       1.9422297     0.016277408
       4469.0000       290.19440       99656.521       8198.6845       1.0465000       3.0442500    -0.083750000       342.32700       1.9278666     0.011771157
       4475.0000       290.21870       99668.652       8258.3662       1.7267500       3.5787500      0.14300000       342.10100       1.8815685     0.016917610
       4480.0000       290.11916       99680.158       8255.0828       1.5235000       3.9725000     -0.39175000       342.66000       1.9226424     0.012199345
       4485.0000       290.08239       99683.379       8265.5786      0.19750000       3.9545000     -0.13000000       342.37200       1.9085366     0.019097286
       4490.0000       290.10022       99677.840       8302.3704       1.6235000       3.7487500      0.80700000       342.58600       1.9257731     0.010060381
       4495.0000       290.10019       99670.516       8313.3131       1.2512500       4.9487500     -0.47900000       341.68400       1.9314939     0.017528124
       4500.0000       290.08567       99652.436       8291.6436      0.90075000       2.8967500      0.34725000       343.29200       1.9302752     0.011433861
       4505.0000       290.09710       99642.743       8286.1760      0.37425000       3.2227500     0.043500000       343.09300       1.9101665     0.014529166
       4510.0000       290.14769       99629.117       8282.1923     -0.31025000       3.3385000      0.33125000       342.29800       1.9127231     0.017639265
       4515.0000       290.15633       99626.811       8273.7752      0.19500000       2.8470000     -0.54100000       342.11600       1.8767208     0.017030816
       4520.0000       290.12710       99637.746       8253.8112       1.1847500       1.9817500    -0.088250000       342.59200       1.9046931     0.017835537
       4525.0000       290.14787       99645.970       8260.5542       2.0995000       1.8450000      0.25225000       342.03800       1.8929871     0.020041288
       4530.0000       290.17765       99664.361       8279.8792       1.2355000       3.1795000     -0.38025000       342.13200       1.9168646     0.010767795
       4535.0000       290.19863       99673.933       8298.3038      0.93025000       2.9620000     -0.63300000       342.19900       1.9218778     0.012351157
       4540.0000       290.25157       99681.287       8341.3718      0.22525000       2.0952500     0.025000000       342.37000       1.8887004     0.016891989
       4545.0000       290.31154       99682.726       8378.9632      0.71100000       2.8672500     -0.20900000       342.58100       1.8986533     0.013852835
       4550.0000       290.31204       99677.705       8403.6279      0.68650000       3.6057500   -0.0050000000       342.54000       1.9416220     0.010333253
       4555.0000       290.39785       99670.276       8440.2022     -0.71525000       1.9072500       1.3367500       343.11300       1.9327729     0.017984441
       4560.0000       290.60614       99653.248       8480.7668    -0.063000000       3.6742500     -0.46950000       342.36000       1.9064532     0.018295252
       4566.0000       290.76019       99640.246       8549.6524     -0.33075000       3.6145000      0.23175000       342.41000       1.9098389     0.015838224
       4571.0000       290.94492       99623.934       8629.0643       2.3627500       4.7312500      -1.3822500       342.08900       1.9524574     0.013143676
       4576.0000       291.00118       99621.260       8693.7139       1.6960000       2.7432500      0.18275000       342.36700       1.9402165     0.011562210
       4581.0000       290.91882       99630.901       8792.6581      0.61325000       1.0330000      0.79200010       343.16700       1.9261234     0.019020766
       4586.0000       290.89525       99636.565       8831.8948       1.2052500       3.4565000     0.064250000       342.41100       1.9174775     0.015479038
       4591.0000       290.78337       99649.790       8830.5013      0.70400010       4.5707500     -0.28750000       341.65800       1.8958948     0.019704059
       4596.0000       290.77877       99659.361       8825.1392      0.63875000       5.6640000     -0.70825000       341.16100       1.8784044     0.015046935
       4601.0000       290.88878       99667.263       8791.1530      0.73300000       3.6425000      0.14050000       341.70900       1.9187911     0.015147677
       4606.0000       290.91524       99672.902       8747.5429      0.84150000       1.1992500      0.76700000       342.65600       1.9742136     0.010595690
       4611.0000       290.95209       99682.045       8683.8130       1.0275000       3.1720000     -0.98175010       342.03300       1.9023180     0.015408886
       4616.0000       290.96509       99682.673       8631.1915    -0.021750000       4.5637500     -0.40550000       341.43600       1.9475909     0.017673675
       4621.0000       290.90501       99676.387       8562.8276       1.0622500       4.0700000     -0.57225000       341.89500       1.8930233     0.016329212
       4626.0000       290.88898       99668.252       8507.5288     -0.26425000       3.6047500     -0.18425000       342.76100       1.9157647     0.013186857
       4631.0000       290.89959       99651.408       8457.5959     -0.76750000       3.1552500    -0.040750000       341.89100       1.8980244     0.019321002
       4636.0000       290.89931       99640.773       8424.2195      0.28725000       3.9387500     -0.38250000       342.04800       1.9307384     0.013863418
       4641.0000       290.91257       99624.415       8400.6215     -0.13700000       3.6100000     -0.40325000       341.75800       1.9489934     0.011937516
       4646.0000       290.89866       99621.774       8379.3781     -0.33225000       2.0575000      0.46350000       342.99300       1.9298833     0.017961808
       4651.0000       290.91285       99631.054       8405.3685      0.26200000       3.3707500     -0.24450000       342.44900       1.9227218     0.019566848
       4657.0000       290.81737       99638.239       8358.8712      0.73775010       1.3757500      0.42575000       342.22900       1.8974978     0.018536304
       4662.0000       290.64291       99657.744       8279.2092      0.78700010       4.4940000      -2.3452500       341.41600       1.9316598     0.019735193
       4667.0000       290.53377       99658.943       8214.6428      0.82175000       3.8077500     -0.51350000       341.64000       1.8857398     0.023245914
       4672.0000       290.35048       99644.310       8077.5663      0.73525010       3.9207500     0.031500000       341.81800       1.9154992     0.017259697
       4677.0000       290.29179       99644.562       8061.0207     -0.68475000       4.3102500      -1.4077500       341.98000       1.9106470     0.019422658
       4682.0000       290.30667       99640.416       8116.3337     -0.67675000       4.9617500      0.14950000       342.28100       1.8920901     0.017878077
       4687.0000       290.36232       99645.592       8152.4012    -0.073000010       3.3700000     -0.78125010       342.20800       1.8641517     0.016635460
       4692.0000       290.49134       99671.835       8250.7619      0.16150000       3.5932500    -0.062000000       342.37600       1.9122238     0.012878167
       4697.0000       290.61439       99675.250       8314.3806    -0.057500000       3.9507500     -0.72800000       342.34300       1.9042227     0.019656905
       4702.0000       290.80407       99670.692       8323.0705     -0.13350000       3.6485000    -0.012000000       342.42100       1.9489813     0.016186015
       4707.0000       290.93828       99662.650       8413.1437     -0.42525000       3.4387500     -0.55900000       342.03600       1.9525556     0.012575279
       4712.0000       291.07099       99636.803       8557.5829      0.69225000       1.9707500     -0.12000000       342.59100       1.9444857     0.011198363
       4717.0000       291.16776       99628.383       8684.8038     -0.13725000       4.4550000     -0.70250000       342.66600       1.9528686     0.018204868
       4722.0000       291.25259       99624.731       8908.8313      0.92350010       1.8397500    -0.034000000       342.41400       1.9571551     0.010443649
       4727.0000       291.28380       99622.739       8972.3601    -0.035250000       4.0892500     0.090500000       341.70800       1.9220702     0.017600347
       4732.0000       291.24601       99626.855       8953.1010      0.66675000       3.7490000     -0.17125000       342.43700       1.9413794     0.016181306
       4737.0000       291.25625       99633.175       8930.5314      0.17525000       3.8565000     -0.76125000       341.21300       1.9240130     0.011862460
       4742.0000       291.25448       99641.012       8809.7932      0.25475000       3.4170000     -0.23250000       341.40400       1.8856100     0.022712627
       4748.0000       291.24260       99652.514       8713.0043      -1.5200000       3.4170000     -0.44775000       341.54500       1.9216238     0.012246127
       4753.0000       291.23933       99672.303       8619.7404    -0.090250010       2.0502500     -0.40900000       342.57200       1.9324711     0.016819842
       4758.0000       291.26796       99675.862       8597.0687     -0.53375000       3.5360000     -0.19250000       342.38100       1.9027766     0.012760375
       4763.0000       291.27091       99671.719       8578.8211       1.1105000       3.3185000     -0.53950000       341.76900       1.8919750     0.016170696
       4768.0000       291.33642       99670.027       8610.2061       1.9250000       2.6410000      0.23525000       342.19400       1.8798026     0.020167799
       4773.0000       291.52419       99660.669       8761.2170     -0.80125000       3.0397500      0.61625000       343.00700       1.9265817     0.020313522
       4778.0000       291.52997       99656.524       8769.8753     -0.32725000       3.8885000      -1.1200000       342.22500       1.9543466     0.017377921
       4783.0000       291.52020       99657.499       8762.2585      0.24275000       4.8112500     -0.30225000       342.60200       1.9152848     0.017312001
       4788.0000       291.36999       99651.764       8669.9359     -0.16000000       3.0772500      0.25400000       341.76300       1.9213047     0.016691768
       4793.0000       291.01008       99641.399       8456.6544     -0.72050010       3.6465000      0.40650000       342.81200       1.9262607     0.018324064
       4798.0000       290.85597       99634.418       8348.8319      -1.1100000       2.3800000     0.042000000       342.86400       1.8745956     0.020167766
       4803.0000       290.67274       99624.235       8218.6323     -0.48475000       1.9982500      0.38775000       342.84300       1.9102257     0.012508758
       4808.0000       290.62413       99621.878       8157.5673    -0.014500000       4.3017500      0.53250000       342.98000       1.8863908     0.012494892
       4813.0000       290.73641       99622.864       8162.0780      0.62675010       2.8445000     0.072750000       342.28100       1.9101048     0.017984119
       4818.0000       290.77597       99627.702       8156.5525       1.1020000       1.8982500      0.12625000       343.29500       1.9047372     0.016680026
       4823.0000       290.84834       99639.034       8172.2757     0.050750000       3.4270000      -1.0027500       342.37500       1.9102410     0.017542836
       4828.0000       290.87949       99646.119       8182.4377      0.44875000       2.5645000     -0.73925010       342.35700       1.9149864     0.014141305
       4833.0000       290.90343       99655.582       8215.1743      0.38050000       2.3032500    -0.029750000       342.56000       1.9178462     0.017929617
       4839.0000       290.91545       99658.939       8214.8166    -0.049250000       2.4440000    -0.095000010       342.31200       1.9287285     0.011203920
       4844.0000       290.90692       99661.119       8214.0735      0.17400000       2.8830000      0.12400000       341.77500       1.8972027     0.017744571
       4849.0000       290.85508       99660.308       8181.1433      0.79325000       2.5707500      0.17825000       342.29900       1.9286011     0.011049677
       4854.0000       290.84390       99660.296       8186.2904       1.8092500       2.2730000     -0.44650000       342.12700       1.9047335     0.016581899
       4859.0000       290.84506       99660.257       8210.5626      0.82850000       3.2675000      0.54600000       341.95100       1.9053102     0.016991536
       4864.0000       290.86379       99660.486       8261.5507       1.1940000       2.2895000    0.0035000000       342.23200       1.8998022     0.013885430
       4869.0000       290.81129       99660.545       8271.9912      0.34950000       3.3792500     -0.30675000       341.14100       1.9180002     0.012583162
       4874.0000       290.75619       99660.910       8295.7663      0.96900000       2.6435000     -0.28100000       342.34800       1.8896969     0.013616701
       4879.0000       290.64496       99660.158       8258.0974       1.4422500       3.6135000    -0.048000000       342.10000       1.8912010     0.017605073
       4884.0000       290.58016       99656.392       8243.6681      0.54300000       1.8032500     -0.28475000       342.75500       1.8985205     0.014903113
       4889.0000       290.58535       99647.303       8261.4012      0.69125000       1.8472500     -0.40775000       342.88900       1.9105217     0.022243332
       4894.0000       290.59429       99640.406       8263.6178     -0.14500000       3.7005000      0.14600000       342.68500       1.9125394     0.017667045
       4899.0000       290.61557       99633.522       8262.3154       1.1367500       1.9045000      0.21425000       342.70700       1.8863491     0.021760850
       4904.0000       290.66201       99623.663       8270.9163      0.55950000       2.1077500     -0.23725000       342.58000       1.8995132     0.014168384
       4909.0000       290.63897       99622.173       8230.9266      0.85175000       1.4925000      0.11750000       343.64700       1.9318121     0.011494535
       4914.0000       290.60579       99624.881       8161.6099       2.2377500       1.6727500     0.091250000       342.41400       1.9109618     0.022077368
       4919.0000       290.50029       99625.716       8075.6417       1.0890000       3.4987500     -0.85025010       342.27400       1.9220467     0.011946451
       4924.0000       290.47474       99629.523       8041.0141       1.7067500       4.4112500     -0.67475000       341.24100       1.9121147     0.011177173
       4930.0000       290.55455       99635.855       8063.7270       1.6600000       3.3427500   -0.0025000000       341.77700       1.8858851     0.013187585
       4935.0000       290.60560       99641.010       8086.6511       1.5295000       2.8445000     -0.38275000       342.39400       1.9183643     0.018681645
       4940.0000       290.67144       99651.783       8103.5425       1.1337500       3.1410000     -0.25325000       341.22000       1.8876852     0.014921929
       4945.0000       290.76177       99657.513       8185.2767       2.1240000       2.3467500     -0.65675000       341.26300       1.9164182     0.012029048
       4950.0000       290.90504       99659.516       8334.8551    -0.071250010       2.5802500    -0.045000000       342.41200       1.9300950     0.010306038
       4955.0000       290.97275       99661.474       8451.9676       1.2322500       3.1375000     -0.68700000       341.55700       1.9211317     0.012860803
       4960.0000       291.10538       99660.308       8705.1282     -0.57200000       2.5892500     0.085250010       341.45100       1.8947200     0.019838456
       4965.0000       291.08560       99660.324       8772.1200     -0.32175000       2.0905000     -0.14850000       341.50600       1.8894451     0.018323288
       4970.0000       290.85090       99660.277       8686.6842     -0.85875000       2.9705000   -0.0015000000       341.63900       1.9053420     0.017708199
       4975.0000       290.71985       99660.277       8610.2427     -0.42650000       1.6690000     -0.39925000       341.52500       1.8810524     0.018566099
       4980.0000       290.49978       99664.599       8362.7305      0.96150000       1.5772500     -0.62400000       341.82800       1.8994485     0.016443403
       4985.0000       290.39841       99661.270       8248.3861      0.74500010       1.8987500     -0.39925000       341.62600       1.9089653     0.021980150
       4990.0000       290.44305       99647.402       8219.1417      0.61800000       1.8907500     0.050500000       341.55900       1.9107754     0.014564773
       4995.0000       290.44449       99643.671       8164.9368      0.82725010       1.1770000    -0.078750010       342.02300       1.8791879     0.021653805
       5000.0000       290.48946       99642.928       8168.1602       2.1520000      0.23825000      0.43150000       342.62900       1.9251756     0.011586866
       5005.0000       290.50807       99639.004       8138.4844       1.0975000       1.7567500     0.019250000       342.00500       1.9018219     0.013026191
       5010.0000       290.51379       99642.753       8063.8607      0.98050000       1.3670000      0.35275000       343.53800       1.9104826     0.013245062
       5015.0000       290.50251       99641.347       8012.5656       1.3425000       1.0390000      0.18775000       343.34500       1.8959109     0.012845287
       5021.0000       290.46200       99627.488       7968.4791       2.2792500       1.4535000     -0.34750000       341.17000       1.9243437     0.012979866
       5026.0000       290.44221       99622.310       7924.8969       2.1745000       1.0587500     -0.21050000       341.14200       1.9599504     0.014229306
       5031.0000       290.40503       99620.744       7870.3573       2.1057500       1.2617500    -0.070750010       341.26700       1.9330124     0.014830160
       5036.0000       290.38879       99619.093       7841.9118       2.5475000       1.4705000     -0.21775000       341.25700       1.9228587    0.0091483503
       5041.0000       290.40014       99619.013       7811.7448       2.5895000       1.6422500     0.050500000       341.61300       1.8958944     0.011809300
       5046.0000       290.40010       99620.427       7807.7500       2.0287500       1.7955000     -0.60950010       341.26800       1.9282474    0.0070331404
       5051.0000       290.36184       99621.426       7809.3096       1.7575000       1.3735000     -0.37900000       341.59700       1.9278963     0.019350490
       5056.0000       290.40346       99626.188       7867.2748       1.0697500       1.3107500     -0.36075000       341.41200       1.8918381     0.015194529
       5061.0000       290.51632       99637.464       8009.5692      0.79900000      0.61500000     -0.45225000       341.39400       1.9149691     0.014172253
       5066.0000       290.57691       99643.159       8077.3319      0.58125000     -0.17275000     -0.28925000       341.62000       1.9340471     0.011728371
       5071.0000       290.68536       99649.254       8153.8754      0.10500000      0.14325000    -0.011000000       341.75900       1.9386522     0.012064548
       5076.0000       290.73359       99652.413       8213.7718      0.52925000       2.1915000     -0.71625010       341.67100       1.8843296     0.012393757
       5081.0000       290.70013       99649.051       8207.8793      0.29900000       2.2097500     -0.65850000       341.90000       1.9401551     0.012052246
       5086.0000       290.70013       99650.475       8225.8233      0.80600010      0.59500000      0.29175000       342.72900       1.9077601     0.018738932
       5091.0000       290.71212       99653.953       8277.1060       1.6900000       1.6350000     0.049750000       342.63300       1.9615184     0.010686325
       5096.0000       290.69785       99655.887       8295.1855       1.3500000      0.62075000     -0.46550000       342.94600       1.8750209     0.017890861
       5101.0000       290.63536       99659.872       8258.5307       2.0697500       1.7015000    -0.023750000       343.23200       1.9210095     0.015213705
       5107.0000       290.64692       99661.707       8281.5978       1.3512500       2.1427500     -0.49275000       343.47300       1.9111335     0.015999297
       5112.0000       290.67325       99661.605       8318.8158     -0.43725000       3.6915000     -0.10250000       341.46000       1.9155783     0.014523963
       5117.0000       290.71523       99660.016       8364.8545      -1.0255000       2.5910000     -0.27600000       342.41200       1.9043072     0.021684912
       5122.0000       290.84025       99656.085       8478.7736      0.72725000       3.4512500     0.082500000       342.28700       1.9344968     0.010111399
       5127.0000       290.88756       99654.114       8502.6110      0.61425000       2.3292500     0.074500000       341.99300       1.9405072     0.011299410
       5132.0000       290.89896       99650.368       8489.0911      0.92175010       2.2290000      0.62150000       342.12500       1.9122260     0.013377614
       5137.0000       290.91255       99649.013       8469.7760      0.63625000       1.0227500   -0.0035000000       342.19000       1.9254640     0.020509296
       5142.0000       290.89972       99652.476       8386.9511     -0.89925000       1.4090000      0.85000000       343.22100       1.9539387     0.010920102
       5147.0000       290.89955       99649.210       8353.9475      0.14325000       2.3720000      0.17375000       342.58900       1.9392257     0.013126026
       5152.0000       290.91119       99641.614       8350.1633    -0.083500010       2.5815000      0.13250000       341.42100       1.9259864     0.016742859
       5157.0000       290.89509       99637.563       8322.4648      0.13125000       2.1335000     -0.34350000       341.62800       1.9266965     0.012688048
       5162.0000       290.86897       99631.508       8289.8811      0.41125000      0.96850000     -0.27000000       341.29900       1.9040571     0.014111946
       5167.0000       290.83283       99627.104       8266.8642     -0.37650000       1.1825000     -0.38100000       341.38700       1.9509449     0.012115569
       5172.0000       290.79427       99628.565       8248.7157     -0.46700000    -0.076250000     -0.29300000       341.19800       1.9591859    0.0097391829
       5177.0000       290.71106       99623.258       8208.2933     -0.35725000     -0.35575000      0.40100000       342.49800       1.9297153     0.011330935
       5182.0000       290.57484       99609.865       8172.3383     0.056750000    -0.027500000      0.39100000       342.41600       1.9843553    0.0094532009
       5187.0000       290.50079       99607.801       8119.6999      0.14250000       1.0890000     0.087750000       341.63000       1.9177835     0.011842681
       5192.0000       290.40124       99608.942       8006.9301     0.019000000       1.5235000     -0.56725000       342.20300       1.9352854    0.0088356100
       5198.0000       290.35574       99610.702       7975.6560      0.95900010       1.7040000     -0.30100000       341.43800       1.9511005     0.015322201
       5203.0000       290.37306       99620.844       7976.4695      0.50450000      0.98550000      0.38975000       342.56600       1.9714493     0.010398231
       5208.0000       290.42890       99623.071       8011.3158      0.81800000      0.81800000      0.57425000       342.86700       1.9174156     0.011608249
       5213.0000       290.55517       99620.395       8121.8034      0.44525000      0.77825000     -0.27750000       341.83500       1.9545087     0.013095463
       5218.0000       290.57741       99620.441       8163.5395     0.079250000      0.78975000      0.12725000       342.77300       1.9033429     0.019395334
       5223.0000       290.60903       99620.221       8203.8206      0.14725000       1.0075000      0.30700000       343.09100       1.9358972     0.016461712
       5228.0000       290.62093       99620.175       8226.7537     -0.42400000       1.4327500    -0.096000000       341.89000       1.8943079     0.018139024
       5233.0000       290.54957       99619.461       8207.5334     -0.51500000       1.1635000      0.18725000       341.87600       1.9155430     0.011848997
       5238.0000       290.52799       99621.407       8230.3060     -0.57000010       1.8990000     -0.62125000       341.36100       1.9541138     0.016884789
       5243.0000       290.56575       99625.153       8289.2483     -0.88200000       1.4577500      0.39250000       343.22300       1.8980011     0.014929244
       5248.0000       290.53868       99627.208       8282.0146      -1.5662500       1.5530000     -0.30900000       341.27600       1.9263489     0.011518011
       5253.0000       290.46844       99628.682       8275.0071      -1.3760000       1.9142500     -0.38600000       341.28300       1.9360050     0.014005496
       5258.0000       290.40015       99633.502       8208.3341     -0.26775000       1.7692500     0.064250000       341.78000       1.8914718     0.014699772
       5263.0000       290.30648       99642.220       8051.9149     -0.45200000      0.94000010      0.27800000       342.10600       1.9058252     0.012903530
       5268.0000       290.25508       99640.552       7986.5613     -0.61850010       2.0325000     0.087500010       342.53200       1.9466008     0.010580880
       5273.0000       290.18606       99636.152       7908.9426     -0.94875000       1.2447500      0.21650000       342.67800       1.9695603     0.011632926
       5278.0000       290.18255       99634.335       7902.8632      0.35375000       1.5755000     -0.24375000       341.41100       1.9470108     0.010245460
       5283.0000       290.24658       99623.802       7979.2359      0.19950000      0.67100000     0.045000000       341.50500       1.8997820     0.014585697
       5289.0000       290.28542       99625.865       8026.0453    -0.012000000      0.37625000     -0.12775000       341.34200       1.9375953     0.010903995
       5294.0000       290.30627       99629.729       8037.9450     -0.38675000     -0.19325000      0.17350000       342.22700       1.9501399     0.012786796
       5299.0000       290.29974       99636.281       7982.4965      0.14150000     -0.24200000    -0.030250000       341.30800       1.9208830     0.022015828
       5304.0000       290.29977       99640.251       7969.0303     -0.17100000      0.29850000     -0.15875000       341.44500       1.9372827    0.0096361104
       5309.0000       290.29984       99644.222       7967.8633      0.31825000     -0.52800000      0.10250000       342.70300       1.9473625     0.013577425
       5314.0000       290.29353       99651.303       7957.4909     0.029750000     -0.38175000    -0.048750000       342.37400       1.9221159     0.021030012
       5319.0000       290.31516       99652.942       8003.3683     -0.24200000     -0.43025000      0.15125000       342.61700       1.9570474     0.010303999
       5324.0000       290.36247       99650.485       8119.4846      0.77950000     -0.68125000      0.48300000       341.65300       1.9684592     0.011486576
       5329.0000       290.32431       99650.335       8091.9945       1.1570000     -0.49550000      0.54125010       341.82900       1.9351551     0.014485534
       5334.0000       290.30552       99650.359       8076.4302      0.25375000      0.16575000      0.38525000       342.81400       1.9008572     0.011957624
       5339.0000       290.22958       99650.277       7973.1120     -0.33500000      0.69725000     0.073250000       341.92600       1.9240797     0.012045286
       5344.0000       290.18758       99650.277       7911.2735     -0.37300000       1.0592500     -0.27575000       341.73700       1.8784818     0.015505226
       5349.0000       290.17015       99650.277       7874.2118      -1.1830000       1.1302500     -0.44950000       341.90000       1.9018057     0.012904209
       5354.0000       290.19979       99650.245       7885.7356      -1.6515000       1.6397500     -0.70875000       341.71900       1.9063656     0.012327860
       5359.0000       290.19967       99650.245       7861.4379     -0.68125000       1.2117500      0.42325000       342.21100       1.8856733     0.017314327
       5364.0000       290.19449       99650.485       7827.0913      -1.3582500       1.4352500     -0.11900000       342.33900       1.9098896     0.011403784
       5369.0000       290.25999       99650.277       7855.8534      -1.7810000       1.9890000     0.042500000       341.87100       1.9255517     0.012854955
       5374.0000       290.26283       99650.277       7852.5129      -1.0710000       2.2032500      0.14175000       342.37300       1.9134571    0.0098040280
       5380.0000       290.22238       99650.308       7854.8155      -1.1200000       2.6417500     0.072500010       342.63200       1.9228886     0.016345286
       5385.0000       290.20130       99650.308       7849.3392      0.21225000       2.6532500     -0.20050000       342.41700       1.9417619     0.012010326
       5390.0000       290.11995       99650.277       7806.2133      -1.0772500       2.1250000      0.48075000       342.88100       1.9222112     0.010004488
       5395.0000       290.08278       99650.277       7777.2425     -0.93500010       1.5040000    -0.081750010       343.04300       1.9229076     0.022121728
       5400.0000       290.05614       99650.245       7741.2770     -0.79125010       2.2682500     0.073500000       341.25400       1.9335103    0.0097825649
       5405.0000       290.09023       99650.245       7738.2336     -0.55200000       1.9470000     -0.21325000       341.27800       1.9178894     0.010997422
       5410.0000       290.20208       99650.437       7756.1860     -0.74050000       1.0737500      0.29750000       341.74400       1.9445389     0.011595919
       5415.0000       290.26256       99650.496       7769.1669   -0.0017500000       2.1647500     0.030500000       342.79600       1.9101482     0.019496195
       5420.0000       290.35672       99650.277       7797.1360     -0.18850000      0.48150000      0.57700000       343.33300       1.9041867     0.016016641
