MIRICO/SHELL project - Processed LDS file generated on
Thu Jul 06 20:10:21 2017
Time stamp for record start
05/10/2017  13:24:11.0000
Nb of points in the record
        1073
Beam position index
       6.0000000
Beam angle (degrees)
       13.615000
Open Path length (m)
       58.300000
****************** Temporal data record ************************
Elapsedtime_sec Temp_K Press_Pa Humidity_ppmv WindX_m/s WindY_m/s WindZ_m/s Speedofsound_m/s CH4vmr_ppmv CH4vmrerror_ppmv  
      0.00000000       289.21597       99795.919       7675.4581       1.9002500       2.5392500     -0.65425000       341.04500       1.9230456     0.022727175
       5.0000131       289.16943       99802.680       7636.6754       1.8907500       3.1730000     -0.20000000       340.65600       1.9342892     0.025753919
       9.9999860       288.96095       99803.742       7511.2938       1.5080000       2.3942500     -0.43575000       341.10300       1.9670693     0.025570522
       15.999994       288.85865       99806.207       7430.4713      0.52775000       1.4627500      0.31825000       341.53100       1.9453422     0.023352069
       21.000007       288.74531       99811.143       7348.3389      0.99850000       2.2540000      0.15800000       341.20100       1.9754366     0.025910121
       26.000020       288.71309       99811.457       7305.3245      0.50025000       2.0402500     -0.83375010       341.34100       1.9427965     0.021963058
       30.999993       288.83318       99809.007       7324.5931      0.72925000       1.1470000     0.017500000       341.41300       1.9853084     0.033436750
       36.000006       288.86912       99804.249       7314.4812      0.17675000       2.1950000     -0.36850000       341.80300       1.9977449     0.027864693
       41.000019       288.89550       99794.694       7302.2193      0.92775010       2.2580000      0.17700000       341.79000       1.9969512     0.034084958
       45.999992       288.91162       99787.675       7294.2500      0.71925000       2.2357500     -0.74975000       341.35400       2.0072911     0.028139941
       51.000005       288.91303       99777.451       7283.5360      0.39150000       1.4817500     -0.14450000       342.57200       1.9800272     0.024712818
       56.000018       288.89923       99772.159       7276.5753     0.075000000       1.5182500     0.064000000       341.76200       1.9434994     0.030090140
       60.999991       288.86128       99769.298       7274.3017      0.30450000       2.3497500     0.098750000       342.46300       1.9507298     0.033360570
       66.000004       288.84116       99768.984       7274.6687       1.5137500       2.1375000     -0.21975000       340.82100       1.9690164     0.030236751
       71.000017       288.79189       99771.598       7268.9615       1.5485000       3.4362500     -0.35550000       340.60500       2.0057565     0.035864588
       75.999990       288.78970       99776.357       7279.4480       1.1777500       3.0440000    -0.058000000       340.52100       2.0250529     0.029424653
       81.000003       288.83786       99786.099       7279.9830      0.98475000       2.4485000     -0.15875000       340.97300       1.9771337     0.030438004
       86.000016       288.85765       99793.050       7327.2848      0.75025000       2.1332500     -0.18900000       341.53200       2.0028897     0.030569285
       90.999989       288.85497       99804.523       7394.1126     -0.21350000       1.5342500     0.023750000       341.79500       1.9770645     0.026812238
       96.000002       288.91280       99808.443       7494.6181     -0.40525000       2.0750000    -0.078750010       340.46700       1.9595210     0.032066583
       101.00002       289.01384       99805.925       7706.7185      0.41750000       1.6567500      0.16975000       341.20500       1.9863033     0.029747713
       107.00002       289.08612       99805.369       7806.2979      0.66125010       2.8517500      0.28950000       341.16600       1.9777871     0.033646860
       112.00000       289.20894       99803.654       7862.8900      0.90900000       1.9362500     -0.18050000       340.88900       1.9516972     0.014274606
       117.00001       289.23458       99797.405       7871.3622      0.68000000       1.5250000      0.42500000       341.40000       1.9799365     0.029204864
       122.00002       289.16914       99789.775       7772.5196     -0.25450000       1.9100000     -0.46150000       340.99400       2.0004675     0.025470723
       127.00000       289.13318       99780.584       7717.8948     -0.78325000       2.0402500      0.17325000       341.62600       2.0027619     0.026445481
       132.00001       289.06015       99762.529       7654.4432      0.27450000       2.3312500     -0.14550000       341.12600       2.0063173     0.026241973
       137.00002       289.02671       99754.542       7609.0609      0.18800000       1.3165000      0.16875000       341.30100       1.9859276     0.029600011
       141.99999       289.00111       99747.049       7553.7323    -0.076500010       1.7137500      0.17850000       341.78300       2.0109125     0.027937885
       147.00001       288.98730       99749.159       7526.8375      0.88425000       1.0860000      0.15775000       341.68700       2.0323180     0.025572059
       152.00002       288.96645       99761.009       7505.6745      0.37225000       1.5230000    -0.061250000       341.95500       1.9652901     0.024235279
       156.99999       289.01481       99770.321       7535.1832     -0.39325000       1.5322500     -0.46775000       341.64300       1.9747222     0.026338825
       162.00001       289.10467       99787.538       7599.7540       1.4285000       2.0490000   -0.0025000000       341.65400       1.9456516     0.022362110
       167.00002       289.19677       99797.217       7673.9733      0.17225000       1.3180000      0.14075000       342.39300       1.9766536     0.025798197
       171.99999       289.35880       99805.430       7805.4772      0.49625000       2.6277500     0.013000000       341.36800       1.9686548     0.026855667
       177.00001       289.47178       99808.584       7906.3587     -0.49400000       2.2202500     -0.27300000       341.24900       2.0271220     0.026477798
       182.00002       289.59251       99808.663       8012.7112      -1.1455000       3.0105000     0.034000000       341.51600       1.9803936     0.022448219
       186.99999       289.64373       99804.819       8093.6211     -0.18025000       3.2800000    -0.067750010       341.10000       1.9870674     0.026866650
       192.00000       289.66684       99793.305       8182.1811       1.0530000       1.0522500     0.078250010       342.54100       1.9935384     0.026791471
       198.00001       289.65219       99784.950       8217.9195       1.1642500       1.1227500      0.12825000       342.60600       2.0346918     0.022653256
       202.99999       289.55012       99776.604       8202.8312      0.51050000       1.8472500     -0.33825000       342.43800       1.9784213     0.025894109
       208.00000       289.51866       99768.583       8180.6772      0.82675000       2.8117500     -0.17925000       341.78400       2.0186747     0.022100728
       213.00001       289.50596       99758.962       8117.3323      0.50375000       2.0032500      0.51100000       341.64300       1.9824196     0.014494440
       218.00002       289.47622       99757.565       8074.0484       1.0072500       1.2365000      0.31725000       342.23000       1.9941504     0.026732835
       223.00000       289.46453       99757.862       8027.3318       2.5817500       1.7832500      0.29825000       341.45400       1.9330098     0.027543062
       228.00001       289.42538       99761.600       7978.0723       1.0225000       2.1217500     -0.28600000       341.64400       1.9959458     0.022975793
       233.00002       289.34215       99772.770       7911.7792      0.24675000       2.7725000     -0.41475000       341.35200       1.9533543     0.026571918
       238.00000       289.32943       99782.693       7892.5580       1.1242500       2.4647500    0.0047500000       341.85500       1.9642434     0.025477687
       243.00001       289.34306       99795.641       7897.9510      0.98250010       1.6317500    -0.093250010       342.06700       1.9489641     0.025277727
       248.00002       289.35162       99800.949       7881.7459      0.83875010       2.3617500     -0.45125000       341.71400       1.9997575     0.026286182
       253.00000       289.39375       99806.456       7880.2414      0.44525000       2.0290000      0.13275000       341.79600       1.9742469     0.025591308
       258.00001       289.42320       99807.717       7885.5081      0.50225000       3.3560000     -0.79675000       341.71800       1.9843076     0.026076153
       263.00002       289.47319       99802.956       7877.1000       1.4750000       1.8015000      0.30900000       341.34200       1.9378080     0.025882972
       267.99999       289.43772       99796.392       7877.4385      0.71350000       4.0342500     -0.57025000       341.05400       1.9778643     0.027069954
       273.00001       289.36794       99788.482       7912.0157       1.7757500       3.2532500     -0.41000000       341.14500       2.0366507     0.025644363
       278.00002       289.31866       99778.582       7911.0685     -0.71525000       3.0632500      0.63375000       342.20700       1.9752911     0.023665106
       283.99999       289.18264       99757.335       7875.1736     0.089750010       4.1615000     0.021500000       341.90100       1.9580106     0.025319777
       289.00000       289.22930       99755.041       7884.4878      0.16350000       3.8392500     -0.34300000       340.91400       1.9842306     0.024741610
       294.00001       289.21207       99757.407       7880.0726     -0.31500000       3.0292500     -0.21675000       341.50000       1.9894380     0.028658180
       298.99999       289.18460       99774.908       7892.6485     0.073250000       2.9457500     -0.13400000       341.10500       2.0066767     0.019228496
       304.00000       289.11871       99785.987       7873.2288      0.82350000       2.9145000     -0.50325000       341.16900       1.9828539     0.022451319
       309.00001       289.01590       99795.843       7832.9810     0.092000010       2.7262500     -0.59725000       340.87800       2.0054969     0.021727278
       313.99999       288.84046       99807.714       7764.5940     -0.48225000       2.3155000     -0.40025000       341.27500       1.9883236     0.020871022
       319.00000       288.76284       99810.103       7718.5242   -0.0097500000       1.6387500     -0.52475010       340.55100       2.0334190     0.014638164
       324.00001       288.68246       99806.945       7654.0333     -0.52125000       1.4487500     -0.15875000       340.64300       1.9829814     0.023586332
       328.99999       288.69983       99797.066       7631.3304     -0.45575000       1.4265000    -0.030500000       340.75800       1.9624423     0.022995285
       334.00000       288.69985       99790.010       7613.0176     -0.10200000       1.2380000     -0.14275000       341.10100       1.9831080     0.019781194
       339.00001       288.68483       99783.293       7600.0326    -0.059000000      0.82100000      0.35275000       342.02800       1.9732764     0.026379275
       343.99998       288.69349       99775.412       7595.7812      0.16450000      0.61050000      0.44975000       341.12500       1.9832652     0.026158528
       349.00000       288.69991       99762.778       7576.8366       1.4280000       1.5270000     -0.23300000       341.01700       1.9500883     0.023711167
       354.00001       288.73699       99758.408       7602.6598      0.63925000       1.2070000      0.39550000       341.37600       1.9738453     0.020853419
       359.00002       288.79865       99757.718       7655.9766     -0.13950000      0.93000010     -0.23925000       341.76400       2.0252650     0.028763099
       364.00000       288.89803       99756.762       7743.8649     -0.12400000      0.96050010      0.29550000       342.28100       1.9922898     0.024870568
       369.00001       288.96870       99765.463       7798.9913      0.54850000       1.1107500    -0.070250000       341.38900       2.0115314     0.023016021
       375.00002       289.07076       99788.112       7892.8686      0.32075000      0.80825000      0.14825000       341.03300       1.9255082     0.025688315
       379.99999       289.11855       99799.987       7931.1471      0.84550010       1.3970000     -0.36850000       341.43300       2.0020561     0.017554516
       385.00000       289.11545       99803.411       7936.6161      0.31450000       1.0432500     -0.26900000       341.35500       1.9542158     0.026952812
       390.00002       289.03157       99795.127       7916.5462      0.24025000      0.99925010     0.013500000       341.83700       2.0597201     0.012633080
       394.99999       288.99175       99790.121       7896.8329     0.036250000      0.99725000      0.14700000       341.60200       1.9562515     0.016731413
       400.00000       288.88970       99781.800       7814.0802      0.81300000       1.3732500   -0.0077500000       342.03000       1.9843574     0.028839657
       405.00002       288.87528       99773.749       7783.5388       1.0047500       2.1265000     -0.49625000       340.84600       1.9465281     0.031963694
       409.99999       288.98263       99764.550       7811.2896      0.68025000       1.7970000     -0.17050000       341.38100       1.9474604     0.030915009
       415.00000       289.01160       99758.709       7796.5608       1.2477500       1.7352500     -0.13575000       342.67800       2.0216401     0.025505411
       420.00002       289.04664       99745.273       7782.8905      0.75750010       2.9925000     -0.57775000       341.28700       1.9995810     0.026240535
       424.99999       289.06446       99747.093       7758.1479      0.82225010       2.0252500     0.069250000       340.62400       1.9966494     0.024063079
       430.00000       289.00908       99767.365       7680.6409      0.57275000       1.1072500      0.21100000       340.76200       1.9699973     0.024299603
       435.00001       288.99046       99777.262       7642.5893      0.29775000      0.88750000      0.50925000       341.83700       2.0015840     0.025819032
       439.99999       288.99961       99798.295       7604.7856      0.58500000       1.9755000     -0.48325000       340.70100       1.9922412     0.029216568
       445.00000       288.99934       99805.428       7606.6808      0.39950000       1.6412500      0.42075000       341.72400       1.9698501     0.026438095
       450.00001       288.95616       99794.996       7629.7077       1.0617500       2.1845000     -0.35950000       340.56200       1.9577579     0.029000175
       454.99999       288.99026       99789.793       7688.6351      0.81725000       1.9142500     -0.11375000       340.90400       1.9908767     0.018851049
       460.00000       289.05910       99774.464       7798.3785      0.63275000       1.5252500     -0.13475000       341.53700       1.9901147     0.023888805
       466.00001       289.17647       99772.188       7938.3899      0.66975000       1.3357500      0.15850000       342.18600       1.9385785     0.028538059
       471.00002       289.37513       99784.929       8104.4902      0.53250000       1.8777500     -0.37700000       340.86700       1.9948136     0.021509926
       475.99999       289.51201       99786.591       8243.2492      0.93800000      0.77425000      0.27200000       341.81300       1.9152996     0.022405440
       481.00001       289.67413       99788.670       8431.7915      0.51650000       1.6902500     -0.60875000       341.23600       1.9962401     0.032576818
       486.00002       289.74822       99792.285       8512.6957      0.75525000       1.4892500      0.45550000       341.89800       2.0019880     0.024908054
       490.99999       289.75267       99788.667       8540.8009      0.42950000      0.62575000      0.36450000       343.05200       1.9627118     0.026312143
       496.00001       289.76447       99789.446       8531.8878       1.4117500      0.88950000    -0.064250000       342.27400       1.9897652     0.025969940
       501.00002       289.70554       99801.833       8416.8286      0.65900000      0.64700000      0.15575000       341.53100       2.0097466     0.018618321
       505.99999       289.68934       99802.364       8343.3815     -0.23550000      0.85150000     -0.14800000       342.08500       1.9776216     0.026402002
       511.00000       289.71304       99793.783       8260.2437     -0.13200000       1.1387500     -0.42475000       341.14500       2.0030675     0.026292694
       516.00002       289.69939       99788.353       8186.9287      0.14500000      0.64300000      0.22675000       341.58100       1.9878768     0.023268956
       520.99999       289.63566       99779.862       8107.6628     -0.24825000      0.68050000      0.19350000       342.53100       1.9979789     0.028311104
       526.00000       289.64315       99771.904       8051.5389     0.066500000       1.6315000      0.36600000       342.53300       2.0342511     0.029216363
       531.00002       289.66809       99759.430       8002.7328     -0.46150000       2.1155000     -0.21925000       341.29100       1.9908753     0.021780677
       535.99999       289.70500       99757.944       7973.7242      -1.0685000       3.1310000    -0.017000000       341.68400       1.9841751     0.025714785
       541.00000       289.88112       99759.840       8003.4382      0.39325000       2.3752500     0.041000000       342.45200       1.9820885     0.026675696
       546.00002       289.87812       99765.427       7965.8763      0.46425000       1.5035000      0.28425000       343.04200       1.9840561     0.021317040
       550.99999       289.76869       99788.756       7906.3852       1.7432500       2.7432500     0.013500000       341.25900       2.0439800     0.020650866
       557.00000       289.65471       99795.437       7833.2754      0.83325000       2.2460000     0.037250000       341.82800       2.0250283     0.021649495
       562.00001       289.41742       99791.670       7705.8229      0.44800000       1.6740000      0.19950000       341.82500       2.0574613     0.021243216
       567.00002       289.32157       99790.443       7652.2272     -0.19450000       1.4765000     -0.23525000       341.10400       1.9694630     0.020936062
       572.00000       289.30152       99783.694       7644.8403     0.015250000       1.9290000     -0.22275000       341.31400       1.9955035     0.023666999
       577.00001       289.27409       99776.099       7620.3949      0.24750000       2.1915000     -0.12800000       341.59800       1.9891415     0.026743835
       582.00002       289.31158       99767.937       7621.4542     -0.29625000       1.4000000     -0.52875000       342.10000       2.0068393     0.027336521
       586.99999       289.29511       99761.927       7602.5700     -0.19300000       1.6052500      0.51400000       342.75400       2.0061265     0.023585215
       592.00001       289.26880       99747.555       7561.6467       1.9465000       2.1722500     -0.96000000       341.08100       1.9925452     0.021537411
       597.00002       289.23243       99748.478       7548.4183       1.3300000       2.2682500     -0.13075000       340.76800       1.9752355     0.026359271
       601.99999       289.17955       99761.009       7556.6085       1.6417500       1.9220000     -0.24475000       341.63400       1.9926000     0.013387978
       607.00001       289.11326       99770.321       7538.5282       2.7827500       1.7240000      0.31475000       341.36200       1.9984487     0.023255181
       612.00002       289.00506       99790.871       7503.2510       1.2955000       1.2665000      0.24775000       342.28700       2.0632366     0.017786407
       616.99999       288.96810       99795.704       7506.7940    -0.082750010       2.3992500      0.69350000       343.24500       1.9412324     0.025268839
       622.00001       288.90982       99794.906       7483.6937     -0.17050000       1.3487500      0.11775000       342.84800       1.9702605     0.026265585
       627.00002       288.95016       99788.787       7535.6851     -0.92525010       2.2775000     -0.26725000       341.90900       1.9962908     0.019655367
       631.99999       289.09859       99768.089       7692.6766     -0.10700000       2.0862500     -0.16375000       341.73300       2.0022254     0.028584679
       637.00000       289.20534       99759.326       7757.6788     0.073750000       1.3655000      0.42800000       342.61300       2.0019745     0.018013777
       642.00002       289.33639       99747.578       7797.8070      0.77400000      0.80100010      0.38075000       342.75200       1.9759813     0.024206596
       647.99999       289.51482       99749.518       7892.9483       1.1630000      0.74250000      0.32000000       342.45200       1.9673401     0.019690152
       653.00000       289.70217       99764.225       7944.0858      0.38650000       1.9410000      0.17900000       341.65100       2.0553871     0.019138720
       658.00001       289.78635       99770.185       8015.5532      0.97125010       2.6422500     -0.22050000       341.25700       1.9860134     0.029766003
       663.00002       289.87536       99781.282       8175.5610      0.76425000       2.5805000      0.47400000       341.42900       1.9864606     0.025590660
       668.00000       289.88185       99784.693       8194.8697      0.48650000       2.8245000     -0.35325000       341.36000       1.9877647     0.028159096
       673.00001       289.75205       99783.238       8125.9864      0.79375000       2.7080000      0.29600000       341.91500       1.9612784     0.026444829
       678.00002       289.72094       99777.579       8094.5295       1.3995000       2.4640000      0.57250010       341.22000       1.9382167     0.029172581
       683.00000       289.71451       99766.542       8021.1625       2.1975000       3.1285000     -0.57925000       341.22200       1.9625246     0.021846663
       688.00001       289.66522       99760.590       7964.7788       1.3727500       1.7740000      0.37325000       341.47600       1.9645359     0.021475634
       693.00002       289.59771       99747.503       7915.7101      0.69250010       1.2727500     0.063000000       342.39100       1.9671727     0.020262328
       698.00000       289.57663       99747.872       7882.1425      0.67700000       1.4387500     -0.25050000       340.63800       1.9497152     0.025490352
       703.00001       289.51305       99756.871       7813.7695      0.72925000       1.4822500     -0.37850000       340.98400       1.9753086     0.014444282
       708.00002       289.56661       99766.455       7840.2595      0.86950000       1.3232500      0.20575000       342.68300       1.9835365     0.022135327
       713.00000       289.74081       99786.357       7952.0384       1.4240000       2.7412500     -0.25750000       342.17000       1.9823812     0.022650113
       718.00001       289.81168       99790.854       7991.7134       1.5902500       2.0370000     -0.38750000       340.68900       2.0018132     0.020567152
       723.00002       289.92791       99795.049       8067.9864       1.1030000       1.0320000     -0.58725010       341.88900       2.0195176     0.021593756
       727.99999       289.92362       99788.723       8074.4680      0.85650000       1.1955000      0.33975000       342.49500       1.9489150     0.022857891
       733.00001       289.82524       99766.845       8021.0702       1.6627500       2.5600000     -0.38825000       341.43100       1.9607205     0.023099687
       739.00001       289.72831       99747.151       7944.5657      0.51775000       1.2807500      0.36550000       342.60100       1.9793473     0.022482958
       743.99999       289.61060       99741.146       7886.2013      0.87575010      0.98575000      0.10825000       341.44000       1.9542200     0.028458368
       749.00000       289.40909       99746.382       7804.4050      0.85050000       1.0087500     0.059250000       341.46100       1.9443211     0.022898475
       754.00001       289.28771       99752.900       7737.8955       1.1210000      0.61550000      0.32575000       342.58300       1.9777457     0.016142123
       758.99999       289.19096       99764.349       7681.4082       1.5410000      0.59925000      0.19400000       341.25500       1.9834551     0.017507685
       764.00000       289.08891       99788.392       7638.4831       1.1170000       1.3307500      0.15475000       341.87000       1.9937166     0.011745473
       769.00001       289.01194       99792.745       7601.4902      0.59425000       1.4575000      0.14325000       343.64300       1.9654891     0.021631736
       773.99999       288.99957       99793.970       7569.7409       1.4415000      0.63025000      0.13850000       342.21800       1.9889060     0.018849819
       779.00000       288.90025       99773.916       7515.3986       1.1480000       1.3635000     -0.36500000       340.96100       1.9808950     0.019852588
       784.00001       288.87470       99763.482       7519.1491      0.99600010       1.5470000    -0.083250000       342.04800       1.9476570     0.015364739
       788.99999       288.90104       99750.194       7555.0660      0.61700000       1.8070000    -0.095000010       342.44300       1.9680421     0.021602830
       794.00000       288.97612       99746.597       7614.6200      0.75100000       1.6525000     -0.61675000       340.84500       1.9298188     0.022366196
       799.00001       289.20488       99759.406       7777.7392       1.4122500      0.55775000      0.57500000       342.24200       1.9021088     0.030735062
       804.00002       289.31776       99765.391       7882.4663       1.5850000       1.7570000     -0.14100000       341.91300       1.9493288     0.020335626
       809.00000       289.39371       99771.376       7967.0109      0.48750000       1.5582500      0.24125000       342.88600       1.9802910     0.027793026
       814.00001       289.46958       99784.233       8032.3387      0.34525000      0.59675000      0.49975000       343.27800       2.0129684     0.013217881
       819.00002       289.50559       99780.430       8119.8771      0.15300000       1.0755000     0.012000000       341.98600       1.9199570     0.024009347
       824.00000       289.44987       99766.113       8184.5308      0.15075000      0.19550000      0.22675000       342.29300       1.9941304     0.012279040
       830.00000       289.44161       99748.226       8313.2073     -0.27850000      0.85025010     0.092500000       341.36600       1.9679442     0.013624068
       835.00002       289.45146       99741.526       8365.3865      0.88025000       1.5417500      0.34700000       344.09100       1.9731728     0.023391723
       839.99999       289.42960       99740.492       8377.2460      0.15575000      0.81625000     -0.31000000       340.62800       1.9468083     0.019381782
       845.00000       289.44205       99744.009       8348.4037     0.039250000      0.55825000   -0.0077500000       340.58700       1.9518123     0.016174183
       850.00002       289.58225       99759.334       8260.1081      0.47525000      0.68175010      0.17125000       341.68100       1.9500045     0.011672897
       854.99999       289.57518       99767.200       8173.5602      0.71575000       1.7167500      0.28600000       341.33100       1.9605592     0.011689837
       860.00000       289.45367       99778.752       8021.7957       1.3657500       1.1005000    -0.092500000       342.72300       1.9225224     0.016861460
       865.00002       289.39215       99783.289       7922.3633       1.8850000      0.61650000     -0.69150000       341.09300       1.9200312     0.019345483
       869.99999       289.23777       99780.893       7835.5832       2.1465000     -0.26225000     -0.10600000       341.13900       1.9322143     0.010761237
       875.00000       289.16193       99775.495       7779.1513      0.79400000     0.015500000      0.64275000       342.60700       1.9210246     0.019565179
       880.00001       289.21411       99756.777       7776.2819       1.7620000     0.064250000      0.16225000       342.08500       1.9985685     0.013130000
       884.99999       289.20272       99752.392       7751.6788       1.1162500      0.45150000     -0.39175000       341.44000       1.9413553     0.011792152
       890.00000       289.16610       99749.174       7745.8156      0.41800000      0.73100000      0.75600000       343.24300       1.9440857     0.012143992
       895.00001       289.14631       99752.886       7723.7738       1.3532500       2.7755000     -0.63400000       341.73600       1.9091736     0.013023120
       899.99999       289.12505       99781.963       7661.1138       1.5280000       2.5942500     -0.15925000       342.33800       1.9474134     0.013707479
       905.00000       289.09527       99790.290       7640.1215       2.4145000       2.2402500      0.13675000       341.19500       1.9168270     0.018313534
       910.00001       289.02407       99791.238       7613.1509     0.010750000       2.5132500     -0.22300000       342.18700       1.9499320     0.025162046
       916.00002       289.04542       99785.877       7643.2979      0.91575000       2.0407500    0.0035000000       342.25900       1.9668837     0.011629302
       920.99999       289.12055       99758.713       7755.0096     -0.54475000       2.6725000     0.076500010       342.28900       1.9765568     0.017222966
       926.00001       289.16425       99749.024       7804.6549      0.40175000       1.5680000      0.24075000       342.55000       1.9384432     0.011153736
       931.00002       289.28550       99741.785       7844.9149     -0.47525000       2.3832500     -0.40875000       340.76200       1.9760145     0.020780115
       935.99999       289.33393       99743.081       7897.6559      0.29875000       2.2732500     -0.65525000       340.80100       1.9457178     0.017665059
       941.00001       289.28674       99762.226       7912.8713     -0.70975010       2.0435000   -0.0030000000       342.28600       1.9552238     0.014087925
       946.00002       289.30068       99768.411       7958.0619     -0.12700000       1.4392500      0.41800000       342.49900       1.9730150     0.011457865
       950.99999       289.33778       99777.268       8050.6484     -0.48350000       2.1865000      0.29375000       341.45400       1.9478450     0.013022226
       956.00000       289.35764       99777.303       8112.8851     -0.44125000       2.7770000     -0.52675000       340.76400       1.9590819     0.011769710
       961.00002       289.34384       99763.016       8163.7475     -0.12675000       3.5662500     -0.14300000       341.06000       1.9440919     0.022967144
       965.99999       289.41490       99757.372       8209.2443      0.95475010       2.9247500     -0.12200000       341.05000       1.9234248     0.020613455
       971.00000       289.52719       99747.311       8269.8994      0.77975000       3.3165000     -0.34025000       340.85100       1.9853555     0.013735247
       976.00002       289.63394       99748.183       8280.1300       1.6030000       2.6412500     -0.51100000       340.78100       1.9349240     0.019243105
       980.99999       289.88165       99761.911       8284.7705       1.3895000       1.7840000     -0.12675000       341.27600       1.9358042     0.014738722
       986.00000       289.95900       99767.956       8224.5810      0.24600000       2.3730000     -0.29825000       341.50400       1.9640525     0.014934629
       991.00002       289.90291       99782.911       8046.3502       1.6897500       3.7392500      -1.0715000       341.77500       1.9086363     0.022375722
       995.99999       289.90921       99783.629       7968.9265       1.3490000       4.5222500   -0.0045000000       340.62600       1.9518214     0.013325721
       1001.0000       289.86137       99770.222       7884.4963      0.61225000       3.5655000     -0.65025000       340.94000       1.9675150     0.017514584
       1007.0000       289.83075       99761.215       7841.5109       1.7497500       3.4082500     -0.51500000       341.35400       1.9741225     0.012962752
       1012.0000       289.84506       99742.937       7914.1047       1.0912500       3.9200000    -0.023750000       341.03900       1.9852869     0.013711691
       1017.0000       289.85482       99741.627       7909.0251      0.67750000       2.9460000     -0.22025000       342.14400       1.9363092     0.019166826
       1022.0000       289.84277       99751.866       7883.7903      0.26750000       3.7817500    -0.054250000       341.79200       1.9570531     0.021216682
       1027.0000       289.84881       99758.020       7851.7983    -0.037000000       3.5857500     -0.15250000       340.79600       1.9693614     0.011242910
       1032.0000       289.88783       99775.385       7785.4454       1.0105000       1.7677500     -0.36700000       341.53900       1.9469263     0.011476047
       1037.0000       289.91797       99779.813       7749.2906    -0.047250000       2.2105000      0.66325000       343.00700       1.9263705     0.011478225
       1042.0000       289.97465       99779.189       7708.1441      0.17800000       3.1140000     -0.54325000       341.44400       1.9624284     0.018696133
       1047.0000       289.94536       99773.596       7697.0576      0.13550000       2.7845000     0.084250000       341.75200       1.9271764     0.018210707
       1052.0000       289.88222       99754.106       7734.0469     0.099750000       3.2365000    -0.094500010       341.16900       1.9234790     0.023956626
       1057.0000       289.81984       99751.550       7715.8334      0.91775010       1.9717500     -0.39500000       342.01200       1.9281607     0.021396220
       1062.0000       289.65961       99756.617       7683.4037     0.016500000       3.1445000     -0.66225000       340.67700       1.9361814     0.012611143
       1067.0000       289.59917       99753.669       7657.7284     -0.43925000       3.3970000     -0.59725000       341.50000       1.9084597     0.028712383
       1072.0000       289.58974       99754.259       7583.8097     -0.49075000       2.2335000      0.42125000       342.07900       1.9722630     0.014310389
       1077.0000       289.59203       99757.296       7570.8829      0.57550000       3.2897500     -0.12875000       341.26000       1.9486981     0.019766463
       1082.0000       289.64110       99755.237       7589.1172      0.18250000       3.0380000     -0.24950000       340.92600       1.9599476     0.016549297
       1087.0000       289.66122       99753.922       7625.3364     -0.41700000       2.6417500     -0.36625000       341.46300       1.9318473     0.019350291
       1092.0000       289.72024       99759.235       7714.3058     -0.64475010       1.6867500     -0.55825000       341.54700       1.9469007     0.023533555
       1098.0000       289.69302       99763.151       7752.4835   -0.0027500000       2.0830000    -0.080750000       342.67400       1.9531880     0.019907174
       1103.0000       289.61555       99758.102       7793.0818      0.71200000       3.9165000     -0.29600000       341.25700       1.9460900     0.019082011
       1108.0000       289.55690       99761.707       7785.2193       1.0537500       2.2725000      0.48225000       341.80000       1.9463396     0.020043192
       1113.0000       289.44802       99778.106       7722.7933       1.2300000       1.4442500     -0.37700000       340.60900       1.8890615     0.027089056
       1118.0000       289.40570       99776.690       7683.3188       1.2667500      0.90900000     -0.17025000       342.22100       1.9607988     0.011416356
       1123.0000       289.37767       99768.066       7604.1900      0.85800000      0.85950010      0.12900000       342.19300       1.9118732     0.022532123
       1128.0000       289.40430       99761.226       7616.0796       1.5450000       1.1827500     -0.49425000       341.39500       1.9221580     0.019954836
       1133.0000       289.48343       99742.376       7644.8496       2.4245000       1.3630000     -0.26950000       341.01900       1.9504395     0.010834315
       1138.0000       289.54250       99742.734       7736.3024       1.3420000       1.8485000      0.25375000       342.50300       1.9933692     0.011718393
       1143.0000       289.63661       99752.952       7938.0155       1.7572500       1.5297500     -0.21025000       340.57600       1.9620237     0.018465473
       1148.0000       289.71674       99759.577       8041.6012      0.95375010       1.1185000     -0.31625000       340.73400       1.9332906     0.018120939
       1153.0000       289.76837       99778.424       8133.6678      0.88525000      0.73375000      0.13825000       341.20900       1.9772381     0.012023510
       1158.0000       289.87493       99778.102       8230.1812      0.95100000      0.28550000      0.32375000       341.97800       1.9130272     0.018312442
       1163.0000       290.06114       99767.876       8329.4903      0.33675000      0.74550000      0.30750000       343.21700       1.9645974     0.011084356
       1168.0000       290.10597       99761.219       8330.9952       1.2982500       1.0580000     -0.16550000       340.86600       1.9673167     0.016684674
       1173.0000       290.09995       99741.279       8302.4864      0.76225010       1.3967500     0.048750000       342.40200       1.9920263     0.012412767
       1178.0000       290.13094       99743.511       8265.3091       1.0050000       1.0757500     -0.27900000       340.96000       1.9184362     0.022270519
       1183.0000       290.07801       99758.328       8119.1424      0.58850000      0.77350000     -0.18850000       341.22900       1.9578119     0.017237975
       1189.0000       290.23056       99780.356       8099.9219      0.73550000      0.53500000     0.017500000       341.10500       1.9665281     0.011993206
       1194.0000       290.27712       99785.608       8078.7527      0.82050000      0.19000000      0.14275000       342.06800       1.9901268     0.013107505
       1199.0000       290.23972       99768.145       8058.2916       1.2952500      0.17100000     0.017500000       342.14200       1.9555030     0.013183620
       1204.0000       290.21226       99760.169       8026.4149      0.62850000       1.3812500    0.0017500000       341.74300       1.9710222     0.010961424
       1209.0000       290.16017       99752.178       7989.3345      0.32725000      0.76825000     -0.79125010       340.94200       1.9329498     0.018928864
       1214.0000       290.04470       99735.196       7945.5923     -0.80200000       1.4485000      0.16625000       342.10500       1.9169832     0.013412937
       1219.0000       289.98573       99740.492       7925.2425     -0.34375000       2.4282500      0.31100000       342.91700       1.9863907    0.0094269592
       1224.0000       289.96224       99761.094       7905.6206     -0.99300000      0.94825010     0.089500000       343.28300       1.9768627     0.014887179
       1229.0000       289.82267       99775.680       7900.2016      -1.3087500       1.0887500     -0.37125000       341.83000       1.9920636     0.011097040
       1234.0000       289.74044       99779.616       7878.2621     -0.72875010       2.7322500      0.36275000       342.29500       1.9703160     0.019548664
       1239.0000       289.65871       99761.109       7821.2166     -0.51450000       2.4107500     0.074000000       341.78600       1.9655965     0.012854644
       1244.0000       289.58706       99753.917       7777.3021      -1.5015000       1.1940000     0.059500000       342.31500       1.9536613     0.010233412
       1249.0000       289.49482       99743.163       7694.4753     -0.21875000       1.8455000     -0.16150000       341.21800       1.9267324     0.013298551
       1254.0000       289.51809       99741.368       7679.0678      -1.1077500       2.3695000     0.067750010       341.39100       1.9732307     0.012544837
       1259.0000       289.60287       99746.961       7700.3631     -0.50600000       1.9842500    0.0037500000       340.65300       1.9331753     0.014300869
       1264.0000       289.74535       99766.321       7761.0598     -0.40375000      0.91925010      0.13325000       341.22000       1.9397664     0.015445236
       1269.0000       289.81612       99771.139       7794.7632     -0.94050000       1.4837500     -0.10425000       341.81200       1.9579298     0.020377928
       1274.0000       289.97975       99778.982       7871.5706     -0.85225000       1.2065000     -0.16775000       341.25100       1.9692810     0.014667590
       1280.0000       289.90999       99756.721       7892.5485     -0.63850000      0.52775000      0.34575000       341.67500       1.9384261     0.010462751
       1285.0000       289.89103       99752.089       7922.8353      -1.4785000      0.94175000     -0.13325000       340.70400       2.0073345     0.014738202
       1290.0000       289.92826       99753.400       8005.7866      -1.3805000       1.0912500    -0.062000000       342.10900       1.9848003     0.011739382
       1295.0000       289.90586       99753.804       8033.5343      -1.0610000       1.0155000     0.078750010       342.29400       2.0302806    0.0096030455
       1300.0000       289.84801       99771.710       8030.0444      -1.4277500      0.94775000     -0.28500000       340.92500       1.9345898     0.021305815
       1305.0000       289.79666       99773.844       8019.4982      -1.1090000      0.75425000     -0.14450000       340.55000       1.9497083    0.0087272474
       1310.0000       289.67242       99758.792       7963.4694      -1.3477500      0.49800000     -0.25400000       340.55000       1.9991900     0.011405766
       1315.0000       289.62630       99753.996       7929.1907     -0.37550000      0.76400010     -0.12850000       340.66600       1.9700743     0.011374789
       1320.0000       289.65841       99742.265       7915.6162   -0.0020000000      0.86450000      0.12475000       341.06800       1.9715850    0.0087991231
       1325.0000       289.64859       99741.903       7877.0844     -0.14000000       1.1192500     -0.13100000       340.81000       1.9434515     0.012032759
       1330.0000       289.68491       99763.843       7825.7126      0.33025000      0.84050010    -0.070750010       341.81600       2.0497933     0.010222241
       1335.0000       289.66103       99768.249       7776.7570      0.34000000      0.56300000    -0.092500000       341.68700       2.0126864    0.0071880935
       1340.0000       289.55627       99771.383       7701.4595      0.15150000      0.63125000     -0.20700000       341.26800       2.0016870    0.0089231617
       1345.0000       289.48694       99767.692       7647.7966     0.030500000      0.10550000     -0.51400000       341.72100       1.9812720     0.010188947
       1350.0000       289.38664       99738.817       7610.7155     0.081750010      0.32925000      0.10150000       342.06900       2.0104808    0.0087249282
       1355.0000       289.32933       99730.587       7573.2576     -0.20700000      0.11950000     0.044250000       342.00400       2.0009380     0.010057412
       1360.0000       289.28234       99730.882       7517.4548     -0.20700000      0.53975000    -0.034000000       341.70600       1.9775454     0.015995412
       1365.0000       289.28612       99733.571       7508.5362      0.42475000      0.46725000     -0.10125000       341.67400       2.0475465     0.011331141
       1371.0000       289.36413       99760.233       7528.5151      0.71125000      0.62250000     -0.22725000       341.54500       1.9867018     0.015843949
       1376.0000       289.41788       99765.044       7562.6642      0.80550000      0.94250010     -0.41775000       340.63100       2.0355356    0.0090919597
       1381.0000       289.52837       99756.564       7658.5927      0.56000000      0.77875010     -0.34325000       340.82300       2.0098749     0.010290447
       1386.0000       289.58045       99755.183       7713.3656      0.45775000       1.2397500     -0.18975000       341.93900       1.9795847    0.0099399218
       1391.0000       289.60931       99742.851       7773.6296      0.35225000       1.2312500     -0.26725000       340.71200       2.0080806     0.013011439
       1396.0000       289.61168       99742.825       7798.5579      0.23175000       1.6102500      0.10700000       341.00100       2.0445635     0.011508905
       1401.0000       289.57482       99759.886       7796.4016      0.25675000       1.6117500      0.40075000       342.95800       1.9969712     0.016965050
       1406.0000       289.54088       99762.751       7783.2239      0.19825000       1.4192500      0.21000000       341.87800       1.9832374    0.0073391090
       1411.0000       289.44006       99765.305       7719.6697       1.6720000      0.97025010      0.51025000       341.53800       1.9771740     0.015989877
       1416.0000       289.43079       99760.405       7700.1523       1.1612500      0.17100000      0.52975000       342.51800       1.9585628    0.0078552630
       1421.0000       289.49446       99733.330       7689.0298       1.5902500      0.81200000    -0.054750000       341.47900       1.9879763     0.013528853
       1426.0000       289.50453       99731.062       7687.2600      0.34250000       1.7557500      0.21000000       342.55200       1.9760473     0.011705827
       1431.0000       289.55183       99740.742       7736.2071       1.1010000       1.2312500     -0.17650000       342.00500       1.9827189     0.010512608
       1436.0000       289.56425       99745.785       7732.3688       1.7560000      0.18450000      0.13000000       343.01100       1.9288905     0.012398486
       1441.0000       289.49230       99774.726       7687.4448       2.9697500       1.8637500     -0.41050000       342.13000       1.9418605     0.020516516
       1446.0000       289.49035       99775.972       7675.8580       3.3722500      0.92175010     -0.26775000       341.14800       1.9726214     0.014795354
       1451.0000       289.55052       99747.393       7666.4928       1.8835000       1.6072500    -0.079750000       342.67000       2.0014125    0.0094915108
       1456.0000       289.55677       99741.460       7640.7953       1.0452500       1.4090000      0.49550000       343.55500       1.9628824     0.017533360
       1462.0000       289.54555       99731.203       7619.0262       1.2610000       2.5902500     -0.82100000       341.23400       1.9710026     0.012263447
       1467.0000       289.55560       99733.512       7605.4648      0.78625010       1.1655000     0.028500000       342.30300       1.9929693     0.010991786
       1472.0000       289.53137       99761.836       7550.3251      0.75900010      0.70450000      0.48650000       342.64400       1.9459982     0.022712860
       1477.0000       289.55353       99765.050       7555.8715       1.6630000       2.1120000     -0.39450000       341.12600       1.9636427     0.022028617
       1482.0000       289.62954       99757.895       7605.8075       1.8345000       2.2590000     -0.50175010       341.93600       1.9889661     0.011977769
       1487.0000       289.67987       99754.619       7655.4074      0.26775000      0.72550000      0.38000000       342.58400       1.9548631     0.020721857
       1492.0000       289.71955       99737.263       7708.7862     -0.55625000       1.3622500      0.14925000       342.16500       1.9927995     0.011347307
       1497.0000       289.78641       99738.024       7810.3558     -0.92050000       1.9065000    -0.052750000       340.85100       2.0053947    0.0075878558
       1502.0000       289.90723       99756.450       8005.8858     -0.14525000       1.2330000      0.12425000       341.70000       1.9821728     0.012266817
       1507.0000       289.92873       99757.605       8062.1767     -0.39875000       1.6022500      0.27925000       342.19900       1.9742098     0.026107709
       1512.0000       289.91492       99759.726       8097.3313    -0.083750000       2.2105000     -0.12450000       341.72500       1.9807850     0.011402916
       1517.0000       289.90251       99754.576       8092.9759      0.91575000       1.8635000     -0.42500000       341.69500       1.9755349     0.019144950
       1522.0000       289.80172       99726.624       7952.6950      0.18225000       2.4220000     -0.45000000       341.38900       2.0195248     0.011369733
       1527.0000       289.77415       99726.594       7902.0255    -0.088500000       2.2535000    -0.055500000       341.48800       1.9606194     0.019165878
       1532.0000       289.76522       99744.542       7866.0842     -0.18050000       2.3935000     -0.20475000       340.89400       2.0007418     0.011139069
       1537.0000       289.81445       99746.985       7874.3327      0.37800000       1.4950000     0.099250000       340.96600       1.9921156     0.015067497
       1542.0000       289.91436       99759.277       7923.1229      0.32025000       1.4242500     -0.29150000       340.86000       1.9730246     0.022292188
       1548.0000       290.00750       99755.477       7954.2030      0.15875000       1.4755000     -0.26550000       340.83800       1.9701351    0.0076067207
       1553.0000       290.19262       99725.332       8047.0571      0.11275000       1.3240000     -0.10325000       341.49500       2.0251387     0.012578860
       1558.0000       290.17264       99727.159       8023.3573    -0.051000000      0.60100000      0.27650000       341.85800       1.9722026     0.022095264
       1563.0000       290.01892       99744.775       7913.9331     0.085750010       1.6005000     -0.26475000       342.27600       2.0390609     0.012944736
       1568.0000       289.95068       99748.851       7865.1100      0.14500000      0.91250000      0.22550000       343.38500       1.9810109     0.012243851
       1573.0000       289.77815       99765.426       7764.3512     0.038750000       1.7130000     -0.30325000       341.45700       1.9736376     0.018601966
       1578.0000       289.75296       99761.118       7760.8032      0.39250000      0.84175000      0.73550000       342.40000       2.0261222     0.010046076
       1583.0000       289.84567       99733.354       7829.5643    -0.033250000       1.4220000    -0.024250000       342.14600       1.9466164     0.015986101
       1588.0000       289.86551       99730.762       7860.4189      0.36875000      0.78750000      0.49775000       343.50200       2.0017770     0.011432127
       1593.0000       289.93901       99733.336       7925.9793      0.16175000       1.7325000     -0.29900000       341.08800       2.0198408     0.017563014
       1598.0000       289.87559       99735.977       7946.4460      0.34225000       1.8502500     0.079750000       340.81500       1.9850522     0.011396335
       1603.0000       289.72384       99754.956       7945.7018      0.13025000       1.4525000     0.084000010       341.60300       1.9614049     0.010051384
       1608.0000       289.62564       99750.858       7927.5563     0.050250000       1.7215000     -0.46125000       340.98700       2.0480951     0.013186388
       1613.0000       289.42477       99728.297       7876.5735   -0.0062500000      0.99725000     -0.54125010       341.15800       1.9926308     0.012115456
       1618.0000       289.39687       99727.758       7862.1181     -0.11750000      0.98350010      0.34875000       342.19400       2.0291116     0.010837729
       1623.0000       289.47776       99727.000       7838.5601      0.21325000       1.0817500     -0.14425000       341.75800       2.0227958    0.0074323886
       1628.0000       289.52596       99730.606       7837.5551     -0.46100000      0.41725000     -0.11400000       342.46000       1.9681422     0.012598742
       1633.0000       289.65983       99754.044       7874.3758     -0.51025000       1.1012500    -0.053750000       342.62800       2.0286783     0.012073651
       1639.0000       289.65429       99738.088       7847.0400     -0.93550000      0.71550010      0.10325000       341.31600       2.0280074    0.0099180393
       1644.0000       289.65551       99733.702       7855.0443     -0.25375000       1.0560000     -0.17750000       342.46600       1.9630329     0.015710044
       1649.0000       289.61489       99729.309       7875.5610     0.069500010       1.9312500     -0.11725000       341.08000       2.0603245    0.0094732930
       1654.0000       289.59383       99727.887       7905.4913    -0.048500000       1.8080000     -0.25475000       341.52600       1.9724483     0.011194667
       1659.0000       289.58506       99731.395       7952.9105      0.33925000       1.4150000   -0.0072500000       341.10000       2.0151222     0.010781108
       1664.0000       289.59345       99746.692       8027.3522      0.87575010       1.5175000     -0.16075000       342.52400       1.9734789     0.011106598
       1669.0000       289.61500       99750.484       8118.0443      0.77175000       1.9597500     -0.37475000       340.93900       2.0145339     0.011134276
       1674.0000       289.66764       99750.919       8242.4853       1.2245000       1.6885000     -0.37950000       340.73100       1.9423558     0.023765045
       1679.0000       289.59283       99750.331       8288.2774      0.91075000       1.4847500     -0.11525000       340.77600       2.0253290    0.0078503472
       1684.0000       289.55346       99750.391       8293.6513       1.0790000      0.80875000    -0.070750010       340.76200       1.9849377     0.012726375
       1689.0000       289.41342       99756.372       8133.8289       1.3862500       1.0392500     -0.10625000       341.18000       2.0389333     0.011266333
       1694.0000       289.36798       99752.872       8074.5692      0.36350000       1.7252500      0.14650000       341.68100       2.0327030     0.015533392
       1699.0000       289.49026       99732.279       8088.6520      0.87075010       1.6255000     -0.15150000       342.04800       1.9839674     0.014838231
       1704.0000       289.51279       99727.795       8068.4352      0.66400000       2.7872500      0.19600000       341.85700       1.9995007     0.014054425
       1709.0000       289.51074       99728.241       8056.0353      0.97050010       3.1032500      -1.1345000       341.40700       1.9927375     0.010308691
       1714.0000       289.51454       99727.505       8095.5882     -0.14400000       2.4780000      0.74425010       342.46400       2.0429870    0.0078893028
       1719.0000       289.49141       99732.116       8068.5629      -1.0990000       1.1270000      0.56800000       341.64500       2.0044724     0.013647572
       1724.0000       289.37031       99754.353       7967.1721     -0.70425000       1.0817500      0.33925000       342.46500       1.9431873     0.017869508
       1730.0000       289.50383       99735.686       8049.8153     -0.59375000       2.3710000     -0.49175000       340.77700       2.0317824     0.012835954
       1735.0000       289.56451       99732.993       8102.2718     -0.81550000       2.7005000      0.53700000       342.51100       2.0036611    0.0083338715
       1740.0000       289.68561       99733.327       8265.3679     -0.51075000       1.6745000   -0.0025000000       342.26600       2.0115699    0.0091075430
       1745.0000       289.73010       99733.633       8316.3123     -0.34275000       2.2622500     -0.49575000       340.87400       1.9677884     0.012550500
       1750.0000       289.68131       99753.325       8268.4539     -0.58400010       1.3745000      0.17600000       342.42200       1.9641859     0.013834269
       1755.0000       289.64973       99754.330       8238.5321      0.31500000       1.3792500     -0.10400000       340.85400       2.0175401    0.0092031342
       1760.0000       289.59027       99731.179       8151.4368     0.081250000       1.4435000    -0.067500000       342.14400       2.0068704     0.012947481
       1765.0000       289.54001       99727.806       8092.0221     0.096000000       1.6065000      0.00000000       341.51200       2.0521581     0.012194732
       1770.0000       289.47515       99728.009       8048.3741     -0.27950000      0.75725000      0.28425000       343.18000       1.9800337     0.011968288
       1775.0000       289.43610       99728.499       8007.0927     -0.31925000      0.62450000      0.51375000       344.35400       2.0297523     0.010851004
       1780.0000       289.40936       99750.801       7976.6466     -0.74500010      0.29475000      0.12350000       341.21400       2.0177724     0.012791426
       1785.0000       289.39082       99754.833       7935.9371     -0.26875000       1.2447500      0.29350000       341.81400       2.0211123     0.014980204
       1790.0000       289.37125       99735.742       7869.0412    -0.014000000       1.5500000    -0.095000010       341.98200       2.0123528     0.011395910
       1795.0000       289.39323       99733.056       7847.4492      0.63775000       1.8997500     0.023250000       342.06600       1.9606228     0.019348015
       1800.0000       289.46649       99734.612       7864.8142      0.70325010       1.6107500    -0.036250000       341.01900       1.9950911     0.012473015
       1805.0000       289.50655       99733.865       7851.0241    -0.097250010       1.4545000     -0.35725000       342.95400       2.0404591     0.012703074
       1810.0000       289.60752       99746.506       7865.9289    0.0050000000      0.98925010     -0.12375000       342.27800       2.0466097    0.0088029670
       1815.0000       289.62283       99747.884       7852.7493     -0.53775000      0.37175000     -0.28150000       341.61800       2.0176155    0.0081594632
       1821.0000       289.50975       99726.610       7758.6358     0.037000000      0.67550000     -0.19525000       342.31700       2.0039372     0.010755980
       1826.0000       289.48309       99727.744       7730.3604     -0.26475000       1.1655000      0.21075000       343.65800       2.0014591     0.015818494
       1831.0000       289.46059       99746.738       7732.8555     -0.36400000       1.4457500      0.14350000       343.06000       2.0403824     0.012897695
       1836.0000       289.43437       99746.562       7728.0396     -0.82375000       1.9797500      0.16500000       342.41000       1.9659948     0.014390844
       1841.0000       289.47154       99746.621       7755.6644      0.46075000       1.4570000     -0.68100010       340.71100       2.0611952     0.014418482
       1846.0000       289.45362       99747.410       7756.8872      0.64450000       1.5575000   -0.0027500000       341.04100       2.0172633     0.010778005
       1851.0000       289.36705       99729.328       7731.5742      0.74400000       1.4487500     0.059000000       340.85700       2.0175072     0.011947458
       1856.0000       289.33055       99726.587       7728.7606       1.1325000      0.89325000     0.098750000       342.32500       1.9962972     0.011903745
       1861.0000       289.30497       99748.281       7738.4690       1.0940000      0.60800000     -0.10575000       341.92400       2.0134234     0.010117247
       1866.0000       289.28864       99748.055       7733.2943      0.87925000       1.3940000     0.025000000       342.78700       2.0304796     0.014623295
       1871.0000       289.26107       99729.413       7711.4515      0.61500000      0.13000000     -0.50075000       340.98800       1.9905252     0.011821112
       1876.0000       289.30221       99728.589       7726.8087      0.52525000      0.37600000     0.013750000       340.92800       2.0302362     0.012052669
       1881.0000       289.41393       99727.477       7757.5362      0.41350000      0.57525000     -0.19300000       341.58000       2.0157795     0.012004671
       1886.0000       289.47338       99728.894       7777.9113      0.14600000      0.86550000      0.10600000       341.87100       2.1077098     0.013917818
       1891.0000       289.58490       99753.621       7809.9991      0.74875000       1.2217500    -0.057250000       341.21700       2.0274845    0.0072148231
       1896.0000       289.63341       99754.513       7863.3776      0.69700000       1.2232500    -0.056750000       341.82400       2.0067337    0.0086947805
       1901.0000       289.54910       99730.140       7896.4080     -0.25275000      0.94175000      0.14800000       341.61100       2.0201641     0.011650141
       1906.0000       289.60445       99727.735       7972.0546     -0.24700000      0.58775000      0.26275000       342.10800       2.0074121     0.013693227
       1912.0000       289.76024       99730.985       8140.7145      0.27300000      0.85400000      0.15575000       343.35900       2.0796136     0.015242457
       1917.0000       289.85679       99728.620       8250.8083     -0.42050000       1.4422500   -0.0015000000       341.42900       2.0453094     0.010686887
       1922.0000       289.99383       99737.301       8389.8766      0.66225000       1.8490000     0.020500000       342.65300       2.0416498     0.010487295
       1927.0000       290.13244       99736.773       8452.9261      0.80600010       1.4347500      0.65300010       342.62500       2.0419352     0.011652548
       1932.0000       290.25265       99716.912       8467.9695      0.43775000       1.0107500     -0.69050000       341.98500       2.0300840     0.013919672
       1937.0000       290.36316       99717.790       8487.1208    -0.071500000      0.43125000    0.0045000000       342.06400       2.0299336    0.0095529453
       1942.0000       290.55953       99737.201       8470.8997     -0.54650000      0.17350000      0.58050000       343.01600       2.0120521     0.011327590
       1947.0000       290.60198       99736.629       8433.7457      -1.6537500      0.84075000      0.61450000       341.50700       2.0512987     0.012465856
       1952.0000       290.52494       99728.517       8392.9403     -0.73075000       2.1092500     0.091250000       342.42100       2.0170173     0.012501325
       1957.0000       290.48255       99731.081       8333.9762     -0.51625000     -0.21725000      0.75925000       343.01500       2.0242215     0.013490967
       1962.0000       290.35881       99728.498       8209.4899      -2.1730000       1.4137500    -0.083000000       342.24600       1.9988118     0.011401366
       1967.0000       290.31189       99729.402       8149.0508      -1.4565000      0.72500000      0.25725000       342.20500       2.0107465     0.015615564
       1972.0000       290.28921       99749.049       8120.1222      -2.4622500       1.9340000     -0.27250000       341.08500       2.0397388    0.0087957658
       1977.0000       290.29144       99747.715       8080.1943      -1.8240000       1.4405000      0.61950000       341.17300       2.0272042     0.013621092
       1982.0000       290.35266       99723.286       8060.6427      -1.1362500       2.1312500     -0.11125000       342.20800       2.0417752     0.014027178
       1987.0000       290.35641       99722.413       8025.7116     -0.42500000       1.1912500      0.30450000       341.80200       1.9862278     0.012520451
       1992.0000       290.36817       99730.786       7980.4901      -1.4897500       1.0647500      0.84875010       343.28900       2.0569509     0.014300569
       1997.0000       290.34586       99729.763       7939.2025      -2.0635000       2.1265000    -0.051750000       341.67000       2.0307921     0.012795819
       2003.0000       290.25853       99737.516       7876.7161      -1.0007500      0.83800010      0.56825000       341.52700       2.0075184     0.012154619
       2008.0000       290.20841       99736.081       7863.5655      -2.2525000       1.4882500     -0.25425000       341.37500       2.0165677     0.012083766
       2013.0000       290.16896       99716.711       7878.8697      -1.5340000       1.9417500    0.0095000010       341.94500       2.0138544     0.010384175
       2018.0000       290.10079       99718.929       7859.8149      -1.5605000       1.7417500      0.30650000       341.70800       2.0264454    0.0098431285
       2023.0000       289.99745       99737.817       7846.9537      -1.1747500       1.8067500     -0.17625000       341.08800       2.0574981     0.014298596
       2028.0000       289.96524       99736.348       7843.6245      -2.3487500       1.8197500    0.0087500000       340.98500       2.1023034     0.015011034
       2033.0000       289.93206       99729.356       7810.8474      -1.0417500      0.99725000     -0.56175010       341.90600       2.0008901     0.014274239
       2038.0000       289.94839       99732.379       7820.4740     -0.56325000       1.7442500      0.16150000       342.87300       2.0066028     0.013707109
       2043.0000       290.05007       99730.152       7880.0138     -0.24150000       2.0275000     -0.40675000       340.96200       1.9899902     0.011863160
       2048.0000       290.08125       99727.960       7901.8161      0.48400000       1.7877500      0.34650000       342.76600       1.9737001     0.010541179
       2053.0000       290.11237       99737.804       7901.7876     -0.11000000       1.3862500     -0.30750000       342.02900       1.9939044     0.014995507
       2058.0000       290.10488       99736.344       7942.4474     -0.39400000       1.7647500     -0.24000000       341.68100       1.9813288     0.011920399
       2063.0000       290.07263       99716.740       8014.6728      0.49075000       1.0665000      0.24725000       343.29500       1.9997056    0.0086724536
       2068.0000       290.01594       99718.912       8026.8109     -0.42675000       1.7002500     -0.48050000       342.22600       1.9686592     0.010237757
       2073.0000       289.89768       99737.463       8043.8017     -0.45975000       1.2510000      0.25100000       343.48800       1.9845063     0.013629060
       2078.0000       289.86509       99735.928       8028.6473    -0.099500010       1.8762500      0.14750000       341.89200       1.9968421     0.011535297
       2083.0000       289.78877       99730.145       7917.7745     -0.50600000       1.6667500     0.029750000       343.16800       1.9932474     0.012750096
       2089.0000       290.03847       99728.289       7996.0984      0.20975000       2.1745000     -0.13700000       342.16300       2.0158745     0.015055896
       2094.0000       290.19875       99723.960       8064.1828     -0.17575000       1.5167500     -0.55250000       341.61700       2.0218165     0.011362472
       2099.0000       290.42680       99726.940       8218.0921     -0.51550000       1.0102500     -0.63700000       342.84900       1.9925201     0.016483974
       2104.0000       290.61892       99731.050       8335.1502     -0.75675000       3.1735000      0.22650000       341.63300       2.0468844     0.012612956
       2109.0000       290.77416       99733.923       8434.0016       1.4840000       1.5475000     0.071250010       341.87000       2.0254634     0.012639641
       2114.0000       290.88023       99728.366       8519.0225     -0.24250000       1.8030000    -0.039250000       344.02400       2.0034471     0.012332793
       2119.0000       290.89336       99732.920       8541.7574      0.31525000       2.0205000     -0.73150000       342.56500       2.0200270     0.014300067
       2124.0000       290.87938       99748.814       8533.8161     0.097500000       1.3930000      0.27400000       342.98000       2.0182288     0.014014806
       2129.0000       290.69805       99730.528       8480.5226     -0.40825000       1.5735000      0.22525000       343.17100       2.0262025    0.0090214914
       2134.0000       290.58450       99727.979       8420.1908     -0.99100010       1.8462500     -0.22300000       342.38000       2.0345471     0.013139165
       2139.0000       290.52896       99732.716       8369.8945     -0.74200000       2.2277500     -0.14950000       341.08700       2.0050559     0.011402636
       2144.0000       290.44968       99729.624       8288.2105      0.89725010       1.3445000      0.24400000       342.89500       1.9938301     0.012822207
       2149.0000       290.34009       99736.772       8123.8412     -0.42525000       1.7482500     -0.10100000       343.50700       2.0030255     0.011437840
       2154.0000       290.28782       99738.383       8026.4654     0.085250010       2.9015000     -0.96150000       342.40900       2.0177130     0.012047210
       2159.0000       290.26012       99733.827       7952.3866     -0.86050000       3.5052500      0.48075000       342.24100       1.9746565     0.013813653
       2164.0000       290.24403       99711.159       7885.0518      -1.1035000       1.6200000      0.37725000       343.11400       1.9986836     0.012808226
       2169.0000       290.22569       99715.238       7835.2637     -0.77850000       3.5257500     -0.23125000       341.60200       2.0228130     0.011827940
       2174.0000       290.24992       99732.102       7825.0604      0.57850000       3.7245000      -1.6900000       341.47200       1.9657485     0.014356741
       2180.0000       290.24419       99726.848       7842.6539      -1.2062500       3.4582500     -0.40525000       341.62300       2.0304536     0.011389052
       2185.0000       290.24533       99730.769       7841.0301      0.50525000       1.4265000      0.64950000       342.91800       2.0148161     0.011261387
       2190.0000       290.27649       99732.027       7882.4385     -0.19875000       1.9455000      0.83400010       342.81100       2.0113480     0.012515184
       2195.0000       290.30636       99729.172       7889.4975       1.0347500       4.0285000     -0.62925000       341.79600       1.9885309     0.010010876
       2200.0000       290.33294       99736.446       7834.1428     -0.37825000       3.2080000      0.10125000       342.04400       1.9576407     0.011508234
       2205.0000       290.35281       99737.889       7815.1149     -0.49550000       4.6850000      0.59450000       341.38700       1.9806590     0.012397837
       2210.0000       290.36234       99720.434       7786.2719     -0.88325010       4.2875000     -0.63050000       340.66700       1.9706206    0.0093638355
       2215.0000       290.40423       99717.032       7801.6730      -1.5037500       3.2487500      0.27950000       342.31700       2.0594718     0.014254512
       2220.0000       290.48330       99731.395       7860.6191     -0.58875000       2.0775000      0.14900000       341.72800       1.9629584     0.013157059
       2225.0000       290.51238       99732.075       7915.5368      -1.2935000       3.7157500     -0.46425000       341.28000       2.0327724     0.012458330
       2230.0000       290.53290       99722.511       8015.6540      0.44675000       3.0470000     -0.74100010       341.67700       2.0124391     0.012537131
       2235.0000       290.56136       99724.782       8085.7598      0.66025000       4.4227500     -0.56125000       340.67500       2.0320317     0.013330582
       2240.0000       290.55860       99732.465       8162.8679      0.57900010       4.4560000     -0.31500000       340.75600       2.0452096    0.0091764573
       2245.0000       290.54891       99730.331       8195.5831      0.18050000       2.9915000     -0.67200010       340.81200       2.0050245     0.012611356
       2250.0000       290.61631       99728.925       8202.8026     -0.34400000       1.4205000     -0.11150000       341.12800       1.9968265     0.012559150
       2255.0000       290.56992       99731.900       8187.0098     -0.97225000       1.9237500     -0.18225000       342.15200       1.9387753     0.016993307
       2260.0000       290.38891       99727.359       8116.3305      0.59000000       3.2720000     -0.30925000       341.32300       2.0143619    0.0093926643
       2265.0000       290.27841       99723.538       8059.0187    -0.046250000       1.8500000     -0.43500000       342.38800       1.9940686     0.011332769
       2271.0000       290.08098       99732.382       7965.6342     0.065750000       1.1572500      0.17375000       342.61600       2.0035401     0.013854990
       2276.0000       289.99489       99731.947       7913.7885     -0.13250000       1.4397500      0.34675000       342.71500       2.0058327     0.017014605
       2281.0000       290.03080       99713.671       7893.8977      0.33175000       1.3585000      0.43375000       342.74600       1.9600650     0.010410165
       2286.0000       289.98729       99712.620       7838.3674       1.1205000       2.6727500     -0.18575000       342.05700       2.0402109     0.014238314
       2291.0000       289.95239       99728.625       7780.8471       1.3965000       2.3295000      0.68650000       342.61000       1.9971147    0.0084961788
       2296.0000       289.88435       99726.013       7718.8266      0.81125000       2.4055000     -0.30175000       342.78400       2.0026431    0.0078063013
       2301.0000       289.70911       99713.272       7599.7835       1.1150000       2.5865000     -0.43150000       340.94100       1.9809338     0.013012395
       2306.0000       289.66413       99715.069       7552.9744      0.57200000       2.6810000      0.21725000       341.72200       1.9831305    0.0091801533
       2311.0000       289.68661       99718.329       7552.6160      0.24450000       2.1897500      0.16075000       342.44000       2.0267017     0.011755572
       2316.0000       289.69389       99713.305       7545.6660       1.2442500       2.2762500    -0.093250010       342.24100       2.0052252     0.017303687
       2321.0000       289.81619       99712.301       7583.3688      0.45725000       2.2220000     -0.46425000       342.27000       2.0043180     0.019933829
       2326.0000       289.82061       99717.220       7589.5774     -0.12925000       1.6947500      0.22850000       341.38200       1.9301794     0.010081863
       2331.0000       289.73719       99715.893       7574.5671      0.45275000       1.8025000     -0.25500000       341.21100       2.0175351    0.0093342294
       2336.0000       289.68399       99713.698       7571.9343    -0.046000000       1.4552500    -0.027750000       340.89400       2.0383567     0.011437949
       2341.0000       289.57299       99722.562       7564.1128      0.45050000       1.5310000     -0.36550000       341.72200       2.0125657     0.014667326
       2346.0000       289.52049       99728.755       7564.4914     -0.26625000       1.2160000      0.17575000       341.90500       1.9872846    0.0085753685
       2351.0000       289.50571       99725.700       7560.5083      0.40475000       1.9795000     -0.15100000       340.75800       1.9627872    0.0087240590
       2356.0000       289.48936       99723.931       7584.1390      0.25000000       1.6577500     -0.32050000       341.05700       2.0027663     0.013903196
       2362.0000       289.47779       99732.629       7628.2271      0.46500000       1.3740000     -0.45825000       341.84000       2.0042576     0.017656137
       2367.0000       289.51015       99731.170       7682.5959     0.093500000      0.83925000     -0.26675000       341.53000       1.9960285     0.011417376
       2372.0000       289.56119       99712.871       7791.4782      0.12275000       1.1992500     -0.22450000       340.76100       1.9896571     0.011439069
       2377.0000       289.63289       99712.966       7835.4845    -0.051750000      0.46050000     -0.46275000       340.97300       1.9258884     0.011484627
       2382.0000       289.78124       99728.504       7853.0328   -0.0060000000      0.48025000     -0.19275000       341.62900       2.0348197    0.0089354298
       2387.0000       289.84864       99724.889       7883.8753     0.066250000      0.49475000      0.26325000       342.25100       1.9910028     0.011475523
       2392.0000       289.88707       99713.432       7868.9848      0.67100000     0.039500000      0.16550000       341.94400       1.9763764     0.011748157
       2397.0000       289.93126       99715.727       7910.9642      0.68900000       1.2515000    -0.088750000       341.37400       1.9630955     0.012695438
       2402.0000       289.96517       99717.332       8036.6436      0.89600000      0.84400000      0.12025000       342.31800       1.9767002     0.014329329
       2407.0000       289.95294       99712.289       8051.9857      0.37025000      0.79250000     -0.17050000       341.44700       1.9457467     0.015063026
       2412.0000       289.91494       99713.285       8027.9141    -0.079250000      0.93350010     -0.40700000       341.00100       2.0044039     0.015245667
       2417.0000       289.88860       99718.203       8007.3638     -0.12125000      0.73250000     -0.45850000       341.42600       1.9809626     0.012571267
       2422.0000       289.77934       99717.334       7891.4803    -0.033000000      0.37425000     -0.35750000       341.27800       1.9621268     0.011428272
       2427.0000       289.78398       99712.400       7880.2259     -0.95325010      0.86775000     -0.34625000       341.83900       2.0160880     0.013973784
       2432.0000       289.84678       99713.485       7917.3699      -1.6080000      0.98625000     -0.11300000       341.16400       1.9997414     0.012490225
       2437.0000       289.93603       99718.410       7973.1848      -1.7760000       1.3600000     -0.52300000       341.78500       2.0059630     0.012764923
       2442.0000       290.09022       99715.127       8075.7267      -1.5367500       1.2160000      0.45100000       341.00400       1.9880492     0.010966421
       2447.0000       290.22730       99713.297       8174.6118      -1.5870000      0.89325000     -0.38300000       340.75600       2.0121120     0.013264656
       2453.0000       290.45875       99726.907       8350.8900      -1.0202500      0.88000010     -0.30250000       341.53400       1.9895582     0.011801395
       2458.0000       290.53453       99728.461       8414.3313     -0.56750010      0.46100000     -0.13050000       340.89800       2.0503796     0.015086628
       2463.0000       290.56281       99714.153       8451.2635     -0.35200000      0.28175000      0.15975000       341.14400       1.9982440     0.015176742
       2468.0000       290.57647       99712.781       8467.8299      -1.2475000      0.15675000      0.16125000       341.96300       2.0156338     0.012198729
       2473.0000       290.49686       99721.521       8403.2982      -1.4617500      0.23500000     -0.21825000       342.35100       1.9602693     0.013147645
       2478.0000       290.48570       99720.696       8416.6087      -1.9082500     0.080500010     -0.20150000       341.97500       1.9542602     0.011945593
       2483.0000       290.52594       99714.926       8482.5439      -1.2757500      0.79275010     -0.17975000       342.09300       2.0264075     0.011424562
       2488.0000       290.46911       99714.880       8456.8188      -1.8050000     -0.60475000   -0.0072500000       341.07400       1.9933640    0.0093839984
       2493.0000       290.34184       99717.257       8392.6421      -2.1517500     -0.15475000     -0.25600000       341.66200       2.0434136     0.014405720
       2498.0000       290.31917       99712.483       8383.7059      -2.6540000       1.3502500     -0.33325000       341.56100       1.9962975     0.012183402
       2503.0000       290.31835       99702.445       8372.6915      -2.1410000       1.2700000     -0.21275000       341.19700       2.0490525    0.0094559452
       2508.0000       290.25002       99706.987       8297.7909      -1.4850000      0.75500010      0.16700000       341.19200       2.0093348     0.015183824
       2513.0000       290.22266       99716.890       8249.4328      -1.0762500     -0.15750000     0.063000000       342.39600       2.0346033     0.013443492
       2518.0000       290.16596       99714.144       8159.4945      -1.2300000      0.93400000      0.22450000       341.53300       1.9875728     0.011338354
       2523.0000       289.97895       99714.479       7942.8299     -0.73250000      0.38675000      0.21250000       341.56300       2.0007336     0.016367662
       2528.0000       289.95337       99719.382       7865.3880     -0.44875000      0.37300000      0.20925000       342.67600       1.9630877     0.012948157
       2533.0000       290.05468       99716.314       7849.1371     -0.34700000      0.41150000      0.22525000       341.73800       1.9996563     0.012060722
       2538.0000       290.05596       99711.250       7852.0212      0.15475000      0.35125000      0.29825000       341.39200       1.9857406     0.011428099
       2544.0000       290.05009       99714.856       7911.6246     -0.49750000      0.26400000     -0.33625000       341.49200       2.0113178     0.014276849
       2549.0000       289.99968       99720.290       7924.2608     -0.63925000    -0.020000000     0.065750000       342.14900       1.9509954     0.016026226
       2554.0000       290.02446       99715.372       7966.0637     -0.69500010      0.48000000     0.031000000       341.59200       1.9564116     0.014396193
       2559.0000       290.09841       99710.453       8016.2476      -1.1945000     -0.28850000      0.34525000       343.56100       2.0126383     0.014495639
       2564.0000       290.24777       99715.635       8060.4766      -1.3485000     -0.31200000      0.17725000       342.52100       1.9961672     0.011600532
       2569.0000       290.33877       99720.613       8101.3858     -0.69950000      0.59875010    -0.018250000       342.95500       1.9718270     0.012157790
       2574.0000       290.45691       99715.258       8171.4661     -0.81775000      0.35375000      0.14850000       342.26600       1.9829033     0.012597597
       2579.0000       290.57575       99710.008       8212.7565     -0.46050000      0.91850010     -0.31175000       342.23700       1.9626418     0.013930149
       2584.0000       290.62033       99714.874       8238.1116      0.33650000       1.2337500     0.061000000       341.65000       1.9949812     0.015188840
       2589.0000       290.59551       99720.253       8264.0326     -0.21450000      0.73500000      0.34525000       342.10500       2.0025430     0.017904934
       2594.0000       290.60652       99715.311       8290.6391     -0.84575000      0.66850000    -0.090750000       341.63800       1.9952784     0.012616740
       2599.0000       290.55985       99710.221       8290.3701     -0.92800000      0.17525000    -0.042250000       343.02000       1.9977092     0.017952079
       2604.0000       290.53732       99715.175       8296.9186      -2.0515000       1.3847500      0.34550000       341.24000       1.9763296     0.018570653
       2609.0000       290.53937       99720.143       8308.9704     -0.86075000      0.44750000      0.46825000       342.53900       1.9986242     0.014933871
       2614.0000       290.61332       99714.844       8351.6790     -0.74700000      0.48725000      0.38950000       342.37800       1.9431783     0.014322115
       2619.0000       290.60067       99709.855       8323.2892      -1.1182500       1.0017500    -0.092500000       341.58400       2.0103869     0.011163399
       2624.0000       290.55014       99715.390       8260.7696     -0.46325000       1.3737500     -0.35500000       341.28400       1.9979972     0.013761348
       2629.0000       290.54509       99720.408       8228.9275     -0.43075000      0.88050000      0.29075000       342.29800       1.9390508     0.010337780
       2635.0000       290.49737       99714.444       8163.0457     -0.70400010       1.9585000     -0.19850000       341.57200       2.0122311     0.014935978
       2640.0000       290.45989       99711.250       8123.3713     -0.24825000       1.8597500     -0.22000000       341.53800       1.9543981     0.015430818
       2645.0000       290.39764       99716.207       8066.3890     -0.38125000       1.3447500     0.012500000       341.58200       1.9724619     0.013084330
       2650.0000       290.22345       99718.865       7932.2666     -0.17775000       1.9142500     -0.31050000       342.22200       2.0065873    0.0092319104
       2655.0000       290.16920       99713.798       7874.4307      0.29800000       2.7987500   -0.0022500000       342.52100       2.0216185     0.013221581
       2660.0000       290.18874       99711.297       7855.8101      0.32000000       2.9580000    -0.079250000       342.28200       1.9862670     0.015733161
       2665.0000       290.19146       99716.468       7848.1492       1.6900000       1.1522500      0.21900000       342.69200       1.9787637     0.011735427
       2670.0000       290.23919       99719.226       7880.3304       1.2390000       3.5285000     -0.57800000       341.38500       1.9837294    0.0091335101
       2675.0000       290.31062       99714.201       7923.4995       1.4935000       2.1702500      0.32950000       342.08100       1.9939354     0.014097785
       2680.0000       290.41716       99714.247       8007.4562    -0.065000010       2.9487500      0.37000000       341.55300       1.9772333     0.012861362
       2685.0000       290.46538       99716.953       8049.3237     -0.18175000       2.5847500     -0.79600010       342.72100       1.9931042     0.017281563
       2690.0000       290.55119       99709.537       8080.2238      0.20025000       2.1967500      0.40050000       343.06200       1.9792464     0.015651510
       2695.0000       290.57642       99702.783       8119.5971      0.67325000       2.5672500     -0.86350010       341.75100       1.9547882     0.018844772
       2700.0000       290.49095       99700.133       8136.8665     -0.20825000       1.9842500    -0.025750000       342.80500       1.9129923     0.015007400
       2705.0000       290.44066       99705.424       8148.6108      0.24425000       1.4030000      0.27650000       342.77900       1.9305566     0.014861479
       2710.0000       290.37659       99717.247       8198.4380      0.11975000       1.1635000      0.23050000       342.43900       1.9826605     0.012023361
       2715.0000       290.33760       99715.945       8196.6223    -0.067000000       1.4027500     -0.31625000       343.23200       1.9767318     0.019569069
       2721.0000       290.25268       99711.904       8097.2401      0.73825000       1.6397500     0.078500000       341.86000       1.9712517     0.013478628
       2726.0000       290.29016       99716.808       8083.3476      0.77050010       2.5047500      0.24950000       342.63000       2.0205850     0.012070590
       2731.0000       290.45241       99718.314       8083.3472      0.99625000       3.2475000     -0.64400010       341.63400       1.9983385     0.015503454
       2736.0000       290.53186       99713.378       8098.2140     -0.74025010       3.5037500      0.95800010       342.80000       1.9529478     0.012525076
       2741.0000       290.66739       99715.437       8183.9049      0.19650000       2.3887500     -0.28725000       342.59500       1.9673520     0.011155161
       2746.0000       290.74571       99717.713       8227.0693      0.30675000       1.0332500      0.13500000       343.17800       1.9919521     0.015700876
       2751.0000       290.69993       99708.158       8241.5215      0.56150000      0.75200000      0.55075000       343.38500       1.9494692     0.013110556
       2756.0000       290.76180       99701.840       8276.0453      0.53400000       3.8000000     -0.34150000       341.27100       1.9258365     0.012217293
       2761.0000       290.92473       99700.762       8324.0499       1.4782500       2.0715000      0.14425000       342.56400       2.0137771     0.011841648
       2766.0000       290.98800       99706.436       8353.0507     -0.49225000       2.3087500      0.15050000       342.75200       1.9934866     0.012714043
       2771.0000       291.08672       99717.339       8389.1046     -0.31500000       3.0175000    -0.097750010       342.24200       2.0150347     0.012372761
       2776.0000       291.07381       99715.625       8402.0694     -0.62900000       2.2832500      0.87700000       342.55300       1.9953458     0.012708846
       2781.0000       290.89131       99712.222       8378.8210      0.27100000       2.7860000     -0.26650000       342.83300       1.9586759     0.021494399
       2786.0000       290.81562       99717.141       8375.5345      0.60625000       3.4642500     -0.36725000       341.37300       1.9603902     0.013648144
       2791.0000       290.70206       99718.193       8366.9266      0.33375000       2.7312500      0.27900000       342.39000       1.9992387     0.013569483
       2796.0000       290.66750       99713.244       8367.2170      0.72950010       3.2082500     -0.21950000       340.78700       2.0022825     0.015171765
       2801.0000       290.77675       99714.793       8401.3393      0.20050000       1.1695000      0.23100000       342.04800       2.0318996     0.013954839
       2806.0000       290.75555       99717.144       8387.7877     -0.22325000       2.4322500     -0.22050000       341.93300       2.0108167     0.017368419
       2812.0000       290.70506       99706.543       8367.1441     -0.71250000       2.6285000     0.031750000       341.65500       2.0373999     0.014512235
       2817.0000       290.61068       99700.703       8293.0075     -0.27075000       2.6272500     -0.95075010       341.24300       2.0127466     0.014754251
       2822.0000       290.36491       99704.162       8128.8504     -0.71650000      0.80325000     -0.48525000       341.46100       1.9816977     0.019356671
       2827.0000       290.28059       99707.169       8053.6151     -0.77550010      0.66900000     -0.13675000       341.81800       1.9517726     0.015984445
       2832.0000       290.19668       99706.525       7948.6748     -0.35075000       1.5497500      0.28325000       342.10000       2.0185361     0.014680430
       2837.0000       290.24216       99703.618       7935.3541     -0.49475000       1.6722500     0.048250000       341.86300       1.9699444     0.014923390
       2842.0000       290.52161       99705.188       8042.9987     -0.53000000       2.8632500      0.12925000       342.48800       2.0501282     0.013338199
       2847.0000       290.53350       99706.625       8054.4932     -0.49050000       2.0147500    -0.090000000       342.31600       2.0292231     0.013106038
       2852.0000       290.48411       99698.960       8067.2259     -0.50250000       2.7902500     -0.23375000       341.91400       1.9892906     0.012566581
       2857.0000       290.43925       99698.823       8060.8324      0.81400000       2.8262500      0.26550000       341.88200       2.0485644     0.014601854
       2862.0000       290.19190       99713.573       7973.6761     -0.69175000       3.0530000     -0.32750000       341.08100       2.0015366     0.018687517
       2867.0000       290.14057       99711.430       7978.5449     -0.46400000       1.9017500    -0.058000000       341.19100       2.0260085     0.017207936
       2872.0000       290.21952       99696.596       8028.9311    -0.011750000      0.89625010     -0.21550000       340.87900       1.9802056     0.012643732
       2877.0000       290.27152       99692.227       8076.1929      0.16300000      0.93150000     -0.21350000       340.92100       2.0254548     0.013212117
       2882.0000       290.40469       99686.042       8186.0758      0.12775000       1.1430000     0.086500000       341.57500       1.9698885     0.019369809
       2887.0000       290.42566       99682.428       8225.0148     -0.27675000      0.82150010      0.21150000       341.77000       2.0153286     0.015901513
       2892.0000       290.40259       99681.629       8230.0142     -0.41900000      0.39900000     -0.14125000       341.36100       2.0306434     0.014967615
       2897.0000       290.40665       99687.593       8246.5353     -0.66825000       1.2035000     -0.29875000       342.43800       2.0227041     0.014995996
       2903.0000       290.31388       99701.318       8222.5152     -0.43050000      0.83850000     -0.25700000       341.99600       2.0263848    0.0083144450
       2908.0000       290.36724       99702.571       8249.8812     -0.18275000      0.88625000     -0.26275000       341.05600       1.9637735     0.014643147
       2913.0000       290.55050       99705.196       8319.2928     -0.39700000      0.27075000     -0.49975000       341.30900       1.9673863     0.014971796
       2918.0000       290.60281       99709.371       8346.2027     -0.39350000      0.19725000      0.64000000       342.41300       1.9874244     0.019298252
       2923.0000       290.65483       99706.723       8383.0177     -0.52350000       1.8735000     -0.10825000       343.38500       1.9726216    0.0093454101
       2928.0000       290.68683       99701.851       8384.7968     -0.23350000      0.95525000     -0.18625000       341.96800       1.9217754     0.012526165
       2933.0000       290.63474       99699.153       8335.8653      0.24350000      0.89925000      0.21050000       341.81900       2.0016332     0.013752172
       2938.0000       290.66236       99702.083       8346.0415      0.54375000       1.3840000      0.12475000       342.83500       1.9887896     0.012904595
       2943.0000       290.77692       99701.182       8383.8682      0.72000000       2.2832500      0.11625000       341.80900       1.9806398     0.012605321
       2948.0000       290.75227       99697.173       8375.6082       1.6050000       3.3620000     -0.20400000       342.31300       1.9713498     0.017784550
       2953.0000       290.65586       99699.527       8365.1862       2.0345000       2.1025000    -0.091250000       340.86100       2.0157888     0.016953590
       2958.0000       290.62605       99703.451       8367.4141       1.4622500       1.5582500     -0.16350000       341.55400       2.0038748     0.016739282
       2963.0000       290.54623       99701.294       8342.2513       1.6837500       1.7742500     -0.38000000       341.04900       2.0465833     0.016408682
       2968.0000       290.51387       99697.383       8328.2326       1.1345000       2.2610000      0.10775000       341.33600       2.0468670     0.014422471
       2973.0000       290.57716       99700.500       8359.3712       1.0847500       1.7035000     -0.66175000       340.90700       1.9320573     0.018784897
       2978.0000       290.53041       99702.522       8330.6674      0.98625000       1.2170000     -0.17425000       342.05100       2.0109884     0.014018654
       2983.0000       290.43247       99694.867       8258.7826       2.2882500       1.4830000    -0.074500000       342.19800       1.9954672    0.0094270114
       2988.0000       290.32473       99692.543       8197.8272      0.86350010       2.5997500      0.19775000       342.58500       1.9570974     0.012525537
       2994.0000       290.13429       99701.804       8104.7074       1.1987500       2.5852500     -0.33975000       342.10400       1.9658181     0.013527905
       2999.0000       289.99955       99690.330       8037.7558       1.0402500       2.7572500    -0.070000000       341.84200       1.9967589    0.0084943022
       3004.0000       289.96281       99687.924       8010.0887      0.62575000       1.7797500      0.73400000       343.00800       1.9799258     0.015154286
       3009.0000       289.99993       99690.435       8012.7037       1.8560000       2.0490000      0.31025000       342.70900       1.9726928     0.013101460
       3014.0000       290.15411       99702.093       8063.5239       1.3380000       3.3862500     -0.23375000       341.94300       2.0043585     0.011110356
       3019.0000       290.19316       99699.623       8070.1447      0.39925000       2.4727500      0.13000000       341.77500       2.0477591     0.011368897
       3024.0000       290.27323       99694.034       8093.1487       1.6172500       2.2742500     -0.45725000       341.92300       2.0211747    0.0083157477
       3029.0000       290.16947       99702.935       8048.3574       1.9077500       2.6702500    -0.010250000       341.48300       1.9875606     0.014716589
       3034.0000       290.13636       99701.161       8028.0834       1.4822500       2.6982500     -0.87000010       341.53100       1.9965322     0.013460256
       3039.0000       290.10031       99696.378       8007.4118       1.2585000       3.3377500      0.41925000       342.42300       1.9628698     0.020853069
       3044.0000       290.12585       99700.313       8005.3925       2.6172500       3.6055000     -0.50950000       342.37500       1.9728920     0.013902154
       3049.0000       290.23010       99702.984       7992.3412       1.6665000       2.9447500     -0.53675000       342.19900       1.9748717     0.017833810
       3054.0000       290.33676       99699.990       8036.6919       1.1645000       2.4090000     0.083750000       342.29700       1.9743019     0.010695233
       3059.0000       290.46806       99698.232       8118.6295      0.55525000       2.4152500    -0.086250010       342.01800       1.9305750     0.011661648
       3064.0000       290.65196       99706.719       8239.4320      0.81625000       2.8465000     -0.30975000       342.12100       2.0103757     0.012143487
       3069.0000       290.78142       99708.360       8355.7697      0.81300000       2.7302500     -0.34050000       341.94000       2.0175358     0.014433609
       3074.0000       290.92314       99699.541       8537.8161      0.88300000       2.7362500     -0.18850000       341.53300       1.9612029    0.0093670386
       3079.0000       290.99865       99701.209       8628.3423    -0.094000000       3.3282500    0.0050000000       341.34300       2.0112300     0.014102113
       3085.0000       290.97619       99701.271       8656.5901       1.1385000       3.5805000     -0.39475000       341.72800       2.0020310     0.016869336
       3090.0000       290.80189       99688.064       8580.5974      0.81975000       3.6895000     -0.29800000       341.53800       1.9447200     0.012157142
       3095.0000       290.68169       99687.718       8522.0458       1.3617500       3.3312500    0.0075000000       341.32100       2.0134931     0.014702352
       3100.0000       290.44247       99709.230       8391.9436       1.4860000       2.7902500      0.64100000       341.88200       2.0648175    0.0076765871
       3105.0000       290.35092       99708.419       8319.1299      0.73450010       2.3195000     -0.29100000       341.54400       1.9623272     0.014929605
       3110.0000       290.37415       99688.592       8277.3436       1.4377500       1.4297500      0.25325000       342.02100       1.9967954     0.015614449
       3115.0000       290.38798       99689.164       8239.7165      0.50100000       1.9855000      0.32875000       342.06700       2.0124948     0.010409389
       3120.0000       290.47407       99692.509       8206.8181      0.44400000       2.9365000     0.030000000       341.72200       1.9779051     0.010247359
       3125.0000       290.56580       99688.825       8211.9677      0.17150000       2.9005000    -0.060250000       341.09300       2.0160578     0.014004294
       3130.0000       290.67967       99696.710       8214.8773      0.26050000       2.9465000     -0.28350000       341.07600       2.0151193     0.013599784
       3135.0000       290.76914       99703.269       8278.5258       1.1110000       2.0767500      0.26375000       341.64900       1.9934382     0.014226817
       3140.0000       290.93337       99697.166       8471.7597     0.088500000       1.9095000     -0.48325000       340.99200       1.9537167     0.016482357
       3145.0000       290.98715       99693.374       8565.9191     -0.75575010      0.90375010      0.48225000       341.94000       1.9225949    0.0097326018
       3150.0000       290.95350       99700.772       8663.3803     -0.33250000      0.80525000      0.54800000       342.83600       1.9643117    0.0085290820
       3155.0000       290.90962       99702.426       8715.2341      0.45175000       1.4485000      0.25350000       341.89400       1.9912589     0.014612214
       3160.0000       290.80863       99689.526       8705.6067      0.26575000       1.5595000      0.48775000       342.02600       2.0678396    0.0092398722
       3165.0000       290.68516       99688.014       8651.7182      0.65600000       2.1102500     -0.47575000       341.16900       2.0267604     0.012688142
       3170.0000       290.49481       99701.310       8539.4916      0.41825000       2.2172500     -0.18575000       342.48400       2.0327637     0.013778543
       3176.0000       290.34039       99701.635       8429.0075      0.44275000       1.0287500     -0.38225000       341.67900       1.9636105    0.0098284998
       3181.0000       290.19468       99692.603       8264.7121     -0.32900000       1.1925000      0.33525000       342.70200       2.0080739     0.013605147
       3186.0000       290.09687       99695.246       8171.7205     -0.34050000       1.9962500      0.19775000       342.53100       1.9341513     0.011396755
       3191.0000       290.08106       99702.120       8137.6402     -0.74975000       1.6267500      0.17775000       341.55400       2.0266283    0.0091444033
       3196.0000       290.03090       99699.774       8086.5997     -0.52425000       1.0830000     -0.15550000       340.90200       2.0703912     0.010267246
       3201.0000       289.95470       99699.150       8048.7403     -0.59175000      0.75850000     -0.13550000       341.25300       1.9962639     0.014749742
       3206.0000       289.93231       99701.897       8012.4355      0.15525000       1.0705000     -0.21975000       340.98000       2.0071135     0.013446993
       3211.0000       289.95672       99696.576       7971.3391     0.055500000      0.56800000      0.18625000       342.48400       1.9781937     0.010421036
       3216.0000       289.94695       99693.393       7945.9235     0.084000010      0.49300000     0.056500000       342.18900       2.0133182     0.012932604
       3221.0000       289.94441       99702.389       7922.6143     -0.12300000      0.44400000     -0.20950000       341.22700       1.9376527     0.014167263
       3226.0000       289.95448       99701.799       7925.2609     -0.29850000      0.34825000    -0.040000000       341.35800       2.0066577     0.017306186
       3231.0000       289.92943       99683.703       7963.9476     0.057750000    -0.088250000     -0.15425000       341.20000       1.9970564     0.019023706
       3236.0000       289.94620       99682.580       7976.0811     0.013750000     -0.11350000      0.15800000       342.07800       2.0177812     0.013559347
       3241.0000       290.04583       99698.635       7983.5419      0.30850000     -0.32425000      0.27325000       342.77500       2.0254319     0.016091637
       3246.0000       290.06834       99696.104       8010.3396      0.81175010     -0.63200000     0.025000000       342.45800       2.0057156     0.015926428
       3251.0000       290.06964       99683.448       8044.6112       1.5650000     -0.98800000      0.28750000       341.87700       1.9895190     0.011427091
       3256.0000       290.05234       99685.326       8058.0907       2.3967500     -0.43450000     -0.35825000       342.48800       1.9877935     0.015887752
       3261.0000       289.96664       99684.496       8085.4742      0.22025000       1.2325000      0.64750000       344.66700       1.9261240     0.018319147
       3267.0000       289.92429       99683.779       8099.1417     0.014500000       1.5702500      0.23900000       342.54200       1.9532078     0.011018821
       3272.0000       289.88959       99702.563       8065.5746    -0.059250000       1.2395000    -0.033250000       342.40600       1.9899919     0.016164537
       3277.0000       289.89208       99703.777       8067.4873     -0.61375000       1.7880000     -0.11225000       342.45500       1.9241751     0.011606886
       3282.0000       289.91770       99682.624       8082.6833     -0.51325010       1.8600000     -0.19275000       341.76900       1.9483442     0.016155365
       3287.0000       289.97071       99682.761       8108.8684     0.075500000       2.0247500     -0.10700000       342.01000       1.9649288     0.015027453
       3292.0000       290.07218       99698.508       8146.1494     0.066750000       2.3062500     -0.33525000       342.09600       1.9944390     0.015330178
       3297.0000       290.14260       99694.958       8186.9687      0.30675000       2.3785000     0.049250000       342.54900       1.9762057     0.014581551
       3302.0000       290.20863       99683.207       8246.5256      0.32025000       1.3175000      0.55800000       344.58900       1.9827562     0.015310146
       3307.0000       290.30497       99685.463       8295.5588      0.73575000       2.0580000    -0.082500000       341.22600       1.9978428     0.016898866
       3312.0000       290.40377       99681.926       8333.9148       1.3377500       3.1757500     -0.42950000       342.21400       1.9624998     0.014983478
       3317.0000       290.50916       99685.152       8393.1259      0.21650000       2.2925000     -0.69125000       343.21200       1.9450006     0.012117761
       3322.0000       290.69278       99713.280       8483.9638      0.88600000       1.6840000      0.56725000       343.64300       1.9665001    0.0086641003
       3327.0000       290.75765       99715.368       8522.6324      0.27450000       2.4345000     0.027000000       343.44700       1.9467126     0.011156296
       3332.0000       290.78008       99694.431       8584.5990     0.099500010       3.1020000     -0.26050000       342.01500       1.8974519     0.011089645
       3337.0000       290.75418       99693.304       8555.3982      0.46150000       1.6230000      0.31650000       342.81100       1.9415371     0.010130520
       3342.0000       290.62841       99696.564       8437.1694       1.7922500       1.1792500     -0.24375000       341.68500       1.9790472     0.019361441
       3347.0000       290.55809       99693.569       8354.6795       2.5865000       2.1457500    -0.098000000       341.53400       1.9257431     0.015950152
       3353.0000       290.43824       99696.308       8196.4234       1.5385000      0.36825000      0.50025000       342.86100       1.9639864     0.010695005
       3358.0000       290.41428       99695.609       8136.6075       3.5642500       2.3100000      0.30350000       341.25700       1.9601269     0.014268131
       3363.0000       290.44258       99682.212       8121.8123       1.9867500       1.8895000      0.12250000       341.73900       1.9323700     0.015282575
       3368.0000       290.45096       99684.542       8087.7523       1.4982500       2.3662500    -0.076250000       341.97700       1.9879796    0.0094939978
       3373.0000       290.49396       99704.533       8063.8117      0.16300000       1.2650000     -0.54400000       341.60100       1.9822073     0.010083239
       3378.0000       290.52420       99700.249       8072.0842    -0.073250000       2.0210000     -0.31275000       341.55300       1.9306988     0.019467328
       3383.0000       290.58054       99683.549       8113.8441      0.12750000       1.6755000   -0.0020000000       342.33700       1.9700642     0.012174249
       3388.0000       290.52477       99685.309       8084.3243      0.83625010       1.5657500     -0.19500000       342.07000       1.9787905     0.015273326
       3393.0000       290.42451       99684.688       8061.2016      0.83500000       1.4825000     -0.73725000       342.46200       1.9894908     0.014503404
       3398.0000       290.33711       99683.450       8013.8018      0.89750000       1.7335000     -0.95000000       341.57900       1.9371963     0.015366179
       3403.0000       290.14092       99697.051       7879.8083      0.81450000       1.2077500      0.18875000       342.60200       1.9709321     0.015150225
       3408.0000       290.07649       99698.460       7839.0512       1.0660000      0.68850000     -0.67475000       342.08400       1.9865195     0.014384402
       3413.0000       290.08811       99682.125       7830.2455      0.32525000       1.4590000     0.052000000       343.19900       1.9810451     0.013996124
       3418.0000       290.09532       99684.405       7860.5305      0.56600000       1.5740000     -0.30825000       341.42600       1.9977715     0.011976854
       3423.0000       290.12601       99704.229       7916.6882      0.62125000       1.3062500     0.058750000       341.81800       1.9906571     0.012955288
       3428.0000       290.18397       99699.854       8012.1128      0.31950000       1.1692500     -0.21650000       341.76300       1.9328140     0.016357332
       3433.0000       290.29452       99685.197       8193.1921      0.30200000      0.56400000     -0.13125000       341.24100       1.9469924     0.014461607
       3438.0000       290.34614       99683.126       8278.5791      0.35100000       1.0165000    -0.089000000       342.24600       1.9833849     0.017073530
       3444.0000       290.42583       99672.020       8377.0770      0.67400000       1.9142500      0.33250000       342.50700       1.9713285     0.012391852
       3449.0000       290.36971       99690.452       8362.5605      0.24075000       1.5437500      0.72100000       343.54100       1.9633683     0.013857429
       3454.0000       290.31250       99694.179       8347.8478      0.64850000       1.3805000     -0.49400000       341.11400       1.9728292     0.010590705
       3459.0000       290.23066       99690.532       8318.1891     0.020500000       1.4770000      0.46325000       341.90600       1.9728035     0.012214649
       3464.0000       290.08970       99675.867       8264.6878    -0.088250000       1.1165000     0.054000000       341.69200       1.9531704     0.011568078
       3469.0000       290.03234       99669.892       8235.7084      0.48325000     0.049750000      0.52900000       343.43800       1.9954644    0.0083246908
       3474.0000       289.98807       99656.904       8200.2115       1.0120000       1.0605000      0.45725000       343.78900       1.9913034     0.015640093
       3479.0000       290.01500       99673.903       8197.5425      0.85775010      0.91075000     0.031000000       342.02900       1.9732590     0.014368720
       3484.0000       290.00646       99677.375       8177.2513       1.3852500       1.4030000     -0.12575000       342.29900       1.9518695     0.015351156
       3489.0000       289.92493       99669.493       8091.5136       1.2820000       1.2705000    0.0037500000       341.67200       1.9814012     0.016913548
       3494.0000       289.93163       99674.295       8089.0220       1.2060000     0.050500000      0.33275000       342.65500       1.9847307     0.011816356
       3499.0000       289.99012       99687.306       8161.2913       1.5637500       1.1417500     -0.56075000       342.59500       1.9328542     0.013180988
       3504.0000       290.03717       99686.538       8194.2562       1.4992500       2.5950000     -0.18225000       341.72700       1.9581725    0.0099138915
       3509.0000       290.10886       99683.298       8235.6668      0.33150000       2.5062500     -0.76425000       341.93800       1.9823168     0.013983115
       3514.0000       290.24106       99686.822       8335.2358       1.7072500       2.5925000     -0.66000000       341.93100       1.9963086     0.016536000
       3519.0000       290.37318       99687.505       8374.1007       1.8330000       4.8420000     -0.42100000       341.05300       2.0282834     0.012034061
       3524.0000       290.51123       99671.104       8349.7530     -0.50125000       4.1200000     -0.12400000       341.92700       1.9852184     0.014351238
       3529.0000       290.63905       99699.245       8412.8571       2.5217500       3.1495000     -0.21375000       342.24300       2.0010016     0.015292498
       3535.0000       290.68886       99705.539       8468.0684       2.0390000       3.6815000     -0.72800000       341.23400       1.9924660     0.014163616
       3540.0000       290.52716       99684.287       8495.1472       2.4122500       2.8730000      0.23300000       342.09900       1.9634235    0.0097318288
       3545.0000       290.48011       99683.722       8545.3545       1.1895000       2.2827500     -0.43950000       342.09900       1.9694096     0.015334946
       3550.0000       290.39396       99681.586       8615.9941      0.73675000       2.8655000     -0.69700000       342.76700       1.9558950    0.0099381987
       3555.0000       290.42263       99682.237       8662.8128       1.8205000       2.7560000     -0.29825000       342.25100       2.0188816     0.010973010
       3560.0000       290.62619       99712.496       8730.2866       1.3915000       2.5025000    -0.040000000       342.17000       1.9337174     0.016445021
       3565.0000       290.72538       99716.299       8764.9928       3.0892500       3.3397500     -0.51550000       341.07100       1.9888838     0.015977711
       3570.0000       290.86214       99685.774       8759.1306       2.5002500       2.1470000     0.019250000       341.73400       1.9394525     0.014162939
       3575.0000       290.93801       99681.198       8751.3601       1.3665000       1.0837500      0.37200000       342.52000       1.9222521    0.0098612783
       3580.0000       290.90009       99685.086       8730.7637      0.85075000       2.1797500     -0.12600000       342.51900       1.9678757     0.010404179
       3585.0000       290.90005       99683.564       8705.3444      0.89650010       2.7255000      0.30575000       341.66400       1.9681843     0.014958965
       3590.0000       290.94291       99702.789       8655.3626      0.32975000       2.6297500     -0.24975000       342.16100       1.9516271     0.010501759
       3595.0000       290.90966       99704.786       8624.9434       1.6452500       2.6012500     0.019500000       342.58200       2.0130164     0.010370224
       3600.0000       290.84542       99675.137       8626.3348       1.6705000       3.0085000     -0.21575000       340.91800       2.0093121     0.010607454
       3605.0000       290.75163       99671.145       8584.1131       1.3347500       2.8940000     -0.41250000       342.03200       1.9339043     0.015740951
       3610.0000       290.54382       99683.098       8514.2432       1.5907500       2.1580000     -0.24675000       342.24300       1.9858138     0.014383131
       3615.0000       290.41582       99685.166       8463.4408      0.81125000       1.8205000    0.0052500000       342.82200       2.0054358     0.013658451
       3620.0000       290.35128       99702.683       8403.3002     0.091750000       2.2505000      0.33725000       343.01600       1.9317720     0.016264318
       3626.0000       290.20414       99704.072       8313.1923      0.75450000       2.8207500     -0.18650000       342.50900       1.9422557     0.014905415
       3631.0000       290.05258       99673.454       8232.8084      0.88000010       2.7602500      0.47600000       342.21700       1.9741741     0.019512703
       3636.0000       289.95715       99671.135       8179.0100     -0.15075000       2.5455000     -0.44500000       341.17400       1.9684807     0.015358193
       3641.0000       289.80587       99682.969       8091.9735      0.96300010       1.3845000     -0.65600000       341.17500       1.9738748     0.012578503
       3646.0000       289.75548       99685.354       8062.5886       1.0812500       1.6997500     -0.23475000       341.45600       2.0077046     0.011098367
       3651.0000       289.83772       99703.655       8098.4722      0.43475000       2.5115000     -0.52475010       341.53500       1.9838621     0.012778322
       3656.0000       289.85758       99703.528       8116.8960     -0.23150000       2.6665000     -0.46600000       341.33000       2.0025584     0.015557234
       3661.0000       289.86978       99675.647       8147.4204     -0.28950000       1.3447500      0.34850000       343.23300       1.9488577    0.0097929231
       3666.0000       289.91370       99670.446       8182.5541     -0.18150000       2.3120000      0.46200000       342.92200       1.9621866     0.016132485
       3671.0000       289.95111       99673.231       8208.1294     -0.82975010       2.9247500     0.033500000       341.15100       1.9943601     0.014901328
       3676.0000       290.01844       99674.362       8269.0657     0.089250010       3.2190000    -0.067250010       341.23100       1.9688314     0.011095608
       3681.0000       290.14001       99692.617       8338.4708     0.051250000       2.1897500     -0.14425000       341.41200       1.9729136     0.017166268
       3686.0000       290.23931       99693.395       8447.4875     -0.67400000       2.3367500     -0.61550000       342.27500       1.9487944     0.013551629
       3691.0000       290.35086       99675.060       8631.1883    -0.095500010       2.6755000    -0.031250000       342.09000       1.9918527     0.012466461
       3696.0000       290.43717       99673.151       8758.2463     -0.18950000       3.9080000     -0.13625000       341.62400       1.9940659     0.013743776
       3701.0000       290.53924       99673.187       8943.9536     -0.15225000       2.6595000     -0.21775000       341.47100       2.0262369     0.016408534
       3706.0000       290.57819       99674.225       9000.0128      -1.0300000       2.5045000     0.059000000       342.14800       2.0098013     0.012353493
       3711.0000       290.54335       99694.004       8931.3288     -0.16550000       2.9792500   -0.0092500000       341.50400       1.9691960     0.015653893
       3717.0000       290.55525       99692.403       8899.4892     -0.67850010       2.1170000      0.16550000       342.39300       1.9805286     0.015462280
       3722.0000       290.54302       99669.148       8817.0049      0.22275000      0.75375000     0.090500000       342.94100       1.9947106     0.013839894
       3727.0000       290.54919       99667.693       8749.6380       1.2660000      0.72925000     -0.37750000       342.91100       1.9110227    0.0088391966
       3732.0000       290.59937       99667.033       8706.2308       2.0992500       1.0007500      0.16050000       342.89300       2.0007581     0.011222525
       3737.0000       290.61281       99669.635       8644.5988       1.3377500       1.8557500      0.15925000       342.72100       1.9961760     0.012844489
       3742.0000       290.59973       99694.076       8542.6049       2.5197500       2.1767500      0.35450000       342.64800       2.0453080     0.019397800
       3747.0000       290.59956       99692.947       8477.3703       2.0647500       1.7165000     -0.31900000       341.72800       2.0065073     0.010233535
       3752.0000       290.58913       99668.595       8421.4533       2.1337500       1.3732500      0.19275000       341.16900       1.9859799    0.0079081527
       3757.0000       290.60550       99667.030       8399.1462       1.6775000      0.66850000   -0.0042500000       341.07400       2.0156601     0.015982661
       3762.0000       290.61950       99665.245       8381.8025       1.7297500       1.4987500      0.33200000       341.68000       1.9535856     0.016172139
       3767.0000       290.67149       99671.038       8412.5666       1.5030000       1.3102500   -0.0057500000       342.04900       1.9594582    0.0097203088
       3772.0000       290.80576       99704.156       8540.3244       1.9022500      0.90875010     0.089000000       342.84800       1.8880248     0.016018089
       3777.0000       290.82732       99705.695       8561.2214      0.92900000       1.7342500      0.24050000       341.32800       2.0105215     0.013376295
       3782.0000       290.81631       99687.172       8569.8061      0.20925000       1.4375000     -0.62575000       341.12600       1.9632197     0.011684882
       3787.0000       290.80333       99683.106       8551.7636      0.24625000       1.4887500     -0.42000000       341.32900       2.0001945    0.0097460903
       3792.0000       290.70229       99668.018       8439.4979     -0.17625000      0.73800000     -0.40575000       341.24900       1.9155007     0.010291383
       3797.0000       290.67436       99666.618       8407.1240     -0.19425000      0.84150000      0.14925000       341.54700       1.9848458     0.012856570
       3802.0000       290.68933       99685.512       8408.2724     -0.53875010      0.91475000      0.35900000       342.46100       1.9595535     0.013291506
       3808.0000       290.71050       99688.854       8410.6406       1.1257500      0.60750000     -0.23950000       341.38600       1.9647421     0.016511163
       3813.0000       290.73676       99687.634       8444.8643      0.69050000      0.56325000     -0.37325000       341.93600       2.0400995     0.010344898
       3818.0000       290.77507       99682.998       8441.1762      0.83700000      0.56175010      0.14775000       342.01300       1.9611206     0.014426418
       3823.0000       290.84844       99668.143       8423.2569      0.58300000      0.99400000      0.45700000       343.35700       2.0244547     0.014717573
       3828.0000       290.87965       99668.698       8420.4518       1.0852500      0.92725000     -0.18300000       342.16100       1.9872594     0.014050311
       3833.0000       290.93802       99673.761       8415.7118       1.6112500       1.4845000      0.78100000       342.42800       2.0070554    0.0095173758
       3838.0000       290.87400       99677.594       8391.1370      0.50700000       1.4905000      0.91575000       342.99900       1.9449500     0.010357334
       3843.0000       290.74007       99694.919       8390.2253       1.7607500       2.3540000    -0.085500000       341.91300       1.9622945    0.0098948582
       3848.0000       290.60421       99690.863       8320.1785       2.5870000       1.8370000    -0.036500000       341.04000       1.9070194    0.0096692393
       3853.0000       290.34882       99669.051       8176.0752       2.2437500       2.0815000    -0.073000010       341.01300       1.9630957     0.020990446
       3858.0000       290.24506       99666.677       8107.6729       1.1332500       1.6425000     -0.43400000       341.58300       1.8720435     0.014051554
       3863.0000       290.18202       99662.086       8018.7499       1.3260000       1.1217500     -0.36300000       341.74300       1.9299532     0.016399295
       3868.0000       290.16645       99665.375       7999.0796       1.7207500      0.66925000     -0.18600000       341.86700       1.9135520     0.011570466
       3873.0000       290.23559       99688.481       8044.5217       1.0145000       1.0535000      0.13650000       342.58900       1.9646269     0.015958420
       3878.0000       290.27469       99688.135       8070.2316      0.43100000       1.0215000      0.12975000       343.14700       1.9680146     0.014931209
       3883.0000       290.34003       99676.645       8115.4478      0.43875000       1.9227500     -0.38550000       342.60400       1.9680654     0.017412519
       3888.0000       290.39055       99671.756       8163.4947      0.21100000       2.1165000     -0.47125000       341.22900       2.0344076     0.011047366
       3894.0000       290.45744       99656.395       8242.8837      0.38250000       1.9037500     -0.20475000       341.30000       2.0038199     0.018224128
       3899.0000       290.45490       99670.823       8228.3628      0.10175000       1.5170000      0.16200000       342.00600       1.9180597     0.011563484
       3904.0000       290.49335       99675.940       8254.3855     -0.26950000       1.4060000    -0.049250000       341.49000       1.9584169     0.012557731
       3909.0000       290.54415       99679.821       8284.6087      0.19000000       1.6767500      0.10500000       342.39100       2.0465012     0.016000224
       3914.0000       290.60496       99689.160       8296.5139     -0.70400010       1.9427500      0.12950000       342.55300       1.9813028     0.013856311
       3919.0000       290.62384       99683.193       8308.0289     -0.14875000       1.9487500     -0.46025000       341.01300       1.9189025     0.011577117
       3924.0000       290.66243       99663.114       8355.0634    -0.033500000       1.1710000     0.033500000       341.17200       2.0234157    0.0093911931
       3929.0000       290.62981       99662.378       8347.8872     -0.33650000      0.97625010     -0.32625000       341.15800       1.9838278     0.014213540
       3934.0000       290.59978       99662.838       8332.2527     -0.58950000       1.0607500     -0.58300000       341.07300       1.9942872    0.0088016707
       3939.0000       290.58448       99683.545       8325.9967     -0.57125000       1.0410000     -0.25650000       341.31700       1.9665059     0.011440024
       3944.0000       290.55579       99689.192       8308.9722      -1.2000000      0.77625010     -0.27175000       341.53100       1.9862676    0.0085866961
       3949.0000       290.47012       99681.117       8252.5721      -1.2380000      0.76125000     -0.25575000       341.10900       1.9125165     0.012109348
       3954.0000       290.43787       99676.355       8216.5654     -0.48275000      0.86075000     -0.11525000       341.17900       2.0329252     0.011094845
       3959.0000       290.43020       99669.134       8188.7576     -0.90725000      0.13450000    -0.039500000       341.89800       1.9071205     0.010384563
       3964.0000       290.44252       99650.938       8168.9384     -0.85800000     0.072000000      0.30450000       342.03000       1.9152673     0.011072491
       3969.0000       290.45397       99654.919       8152.1805     -0.95175000      0.32050000     -0.34950000       341.60900       1.9681143    0.0094983051
       3974.0000       290.51174       99670.318       8143.7198     -0.16400000      0.40425000      0.65500000       342.66800       1.9092363    0.0081958156
       3979.0000       290.49953       99685.756       8155.8727      0.56400000       1.1747500     -0.33225000       341.22400       2.0077359     0.012148221
       3985.0000       290.45196       99689.604       8140.6144      0.36450000       1.2255000     0.026750000       341.49700       1.9766281     0.013851104
       3990.0000       290.34109       99669.474       8110.9721      0.32750000      0.37025000      0.34750000       343.31400       1.9654108    0.0080858255
       3995.0000       290.28267       99662.756       8090.2034     0.074000000      0.71850000     -0.19600000       341.68600       1.9672453     0.012669933
       4000.0000       290.20432       99652.065       8023.6145      0.99300000       1.4557500    -0.040750000       341.67900       1.8625131     0.013432782
       4005.0000       290.17849       99651.882       8017.7418      0.67225000       2.1077500    -0.044000000       342.37000       1.9831178     0.010054075
       4010.0000       290.24816       99670.886       8081.7338      0.32950000      0.96900000      0.25850000       343.04000       1.9497805    0.0099450676
       4015.0000       290.25685       99677.683       8101.8589    0.0030000000       1.6420000     0.079000000       342.35700       1.9537537    0.0098260053
       4020.0000       290.26926       99687.997       8139.8194      0.21375000       2.0750000   -0.0097500000       342.23500       1.9394063    0.0097063912
       4025.0000       290.25651       99688.219       8156.4402      0.81075010       2.2717500     -0.30450000       341.32600       1.9370179     0.010472627
       4030.0000       290.18948       99666.676       8131.5705      0.69525000       1.5010000    -0.065000010       342.20200       1.9309682     0.010681258
       4035.0000       290.13998       99662.249       8111.8604       1.6962500      0.67975000    -0.095500010       342.96000       1.9335840    0.0097876895
       4040.0000       290.07547       99661.956       8091.0380       3.4532500       2.3217500     -0.22725000       342.56800       1.9922287     0.010225122
       4045.0000       290.03674       99663.419       8069.9867       1.6200000       3.1667500     -0.14100000       342.86200       1.9050795     0.012740678
       4050.0000       289.99484       99685.095       8018.9487       1.4330000       3.1897500     -0.65925000       341.27800       1.9478185     0.012992305
       4055.0000       289.98745       99689.321       8005.5453       1.0137500       2.5647500     -0.14500000       341.61100       1.9797956    0.0094593360
       4060.0000       290.03423       99676.309       8017.0643      0.70650010       1.7605000     -0.35600000       341.70700       1.9334547    0.0093837237
       4065.0000       290.05448       99674.487       8030.7802      0.76550000       2.4940000     -0.30050000       341.87300       1.9819856    0.0096403966
       4070.0000       290.09044       99672.982       8079.1773      0.93975000       1.3587500      0.37750000       341.89600       1.9645303     0.013334429
       4076.0000       290.11185       99668.530       8112.0305     -0.21900000      0.52525000      0.37175000       343.46400       1.9744965     0.011933858
       4081.0000       290.08713       99667.792       8110.5090      0.16825000       1.4887500      0.31625000       343.58200       1.9816716     0.013500282
       4086.0000       290.10073       99671.129       8146.8549     -0.27175000       1.7132500     -0.18700000       342.38700       1.9512595     0.011902108
       4091.0000       290.13789       99676.649       8225.6731     -0.55400000       2.7632500      0.11350000       342.04200       1.9308870     0.011870820
       4096.0000       290.15818       99675.351       8246.8804       1.5687500       2.7252500     -0.80600010       341.47300       1.9300018     0.015163943
       4101.0000       290.19482       99678.471       8263.5771     -0.56725000       3.6527500      0.90525010       343.06400       1.9552540     0.017012810
       4106.0000       290.21123       99675.961       8268.0332    -0.083750000       3.2677500     -0.61975000       342.40200       1.9294044     0.015935298
       4111.0000       290.19946       99656.382       8211.1722      0.37725000       2.8482500      -1.0367500       342.14600       1.9038111    0.0095192822
       4116.0000       290.19927       99650.740       8186.6172     -0.34575000       3.7090000    -0.090500000       342.37800       1.9488453     0.017522175
       4121.0000       290.20001       99650.810       8201.4328     -0.44925000       3.8695000     -0.45825000       341.15700       1.9344824     0.011694565
       4126.0000       290.20001       99655.329       8176.8373      0.51450000       1.8530000      0.56250000       343.12000       1.9516721     0.014986237
       4131.0000       290.18726       99675.085       8115.0384      0.40000000       3.0527500     -0.50075000       342.77400       1.9652132     0.012295736
       4136.0000       290.20092       99678.586       8086.4424      0.53900000       2.0790000      0.31650000       342.57600       1.9621294     0.013742433
       4141.0000       290.22400       99681.913       8025.0311     -0.32300000       1.2255000      0.37825000       343.16900       1.9359813     0.014095730
       4146.0000       290.25805       99676.679       8034.9419      0.70725010      0.77425000      0.25150000       343.20500       1.9692411     0.015400116
       4151.0000       290.33207       99646.680       8136.5364      0.69350000      0.77025000     -0.15375000       341.91600       1.9870786     0.013900959
       4156.0000       290.36848       99639.871       8166.4886      0.89875010     0.094500010      0.45350000       342.83400       1.9769932     0.014026077
       4161.0000       290.38220       99639.491       8189.7656       1.3550000      0.77375000      0.42250000       343.41600       1.9843007     0.013774933
       4167.0000       290.41834       99646.630       8228.7037       1.5600000       1.3852500      0.74650000       342.34900       1.9524580     0.012697152
       4172.0000       290.43127       99673.812       8210.3532       1.7177500       1.2070000     -0.61200000       341.23900       1.9993304     0.010744855
       4177.0000       290.46747       99682.232       8240.1131       1.7692500     -0.15325000    -0.030500000       342.64900       1.9620924    0.0084908750
       4182.0000       290.51810       99689.462       8316.9361       2.3350000      0.25350000     -0.33600000       341.22700       1.9853579    0.0097390147
       4187.0000       290.58507       99686.585       8378.6598       2.5212500     -0.11225000    -0.016500000       341.33200       1.9425114     0.012477050
       4192.0000       290.66092       99667.905       8407.3315       1.8110000       1.3882500     -0.21350000       341.22600       2.2328831     0.016931957
       4197.0000       290.74757       99660.582       8519.0065       1.0390000       1.1670000     -0.27025000       341.24200       6.3672833     0.019003429
       4202.0000       290.88507       99647.005       8705.2348      0.84525000      0.71250000   -0.0085000000       341.67700       3.8204019     0.013226269
       4207.0000       290.95299       99647.700       8834.8405      0.23125000      0.54875000      0.13675000       342.46700       2.4457511     0.013669877
       4212.0000       290.98780       99662.936       9044.0718       1.3542500       1.2120000     -0.25800000       341.42200       2.0343892    0.0098837128
       4217.0000       291.03114       99668.862       9099.3779       1.0107500       1.3097500    -0.023500000       342.02800       1.9923626    0.0084721622
       4222.0000       291.05320       99683.673       9036.3421       1.0367500       2.0757500     -0.61300000       341.45500       1.9664434    0.0087994077
       4227.0000       291.05703       99683.094       9002.1542      0.79700010       1.4637500     -0.40800000       341.78400       1.9441507     0.012464345
       4232.0000       291.07049       99670.238       8885.0302       1.4225000       2.1097500    -0.055500000       341.18400       1.9314106     0.012104134
       4237.0000       291.04783       99660.867       8826.8976       1.6045000       1.5757500     -0.24250000       341.14700       1.9993910     0.011275339
       4242.0000       290.94877       99640.251       8775.1575       1.3212500       1.1957500     -0.32875000       341.22500       1.9841159    0.0094935502
       4247.0000       290.93136       99635.421       8766.1083       1.2975000       1.3290000     -0.15675000       341.48200       1.9460026     0.010970596
       4252.0000       290.97725       99635.740       8814.8871       1.2492500       1.7290000     0.090000000       342.35700       1.8817502    0.0098713640
       4258.0000       290.92380       99643.840       8791.7694      0.85050000       2.0652500      0.18075000       342.47600       1.8876062    0.0097639955
       4263.0000       290.87408       99664.725       8793.2531     0.026000000       2.1022500     -0.65300010       342.34200       1.9372590     0.013185125
       4268.0000       290.80730       99672.910       8731.2836      0.21300000       1.6757500    -0.051250000       342.18900       1.9665237     0.015588849
       4273.0000       290.65500       99683.084       8596.0605      -1.0610000      0.99700000     -0.17250000       342.64400       1.9021466     0.015502588
       4278.0000       290.58263       99682.572       8490.7619      0.19400000       3.0590000     -0.88650010       341.92300       1.9855989    0.0097313107
       4283.0000       290.53347       99671.800       8352.3033      0.20675000       1.1560000      0.42050000       343.71700       1.9555382     0.015279815
       4288.0000       290.53978       99665.814       8295.8603     -0.98725000       2.3330000      0.82075010       342.23600       1.9779732    0.0091127043
       4293.0000       290.59914       99652.173       8259.8834    -0.079000000       2.6462500    -0.031000000       342.00000       1.9949713     0.014533139
       4298.0000       290.60909       99653.522       8247.5530      0.40750000       1.5585000      0.16275000       343.20100       1.9401837     0.011911513
       4303.0000       290.66894       99663.859       8305.4553      0.81775000       1.7052500      0.51150000       343.45900       1.9736617     0.013894863
       4308.0000       290.65249       99668.701       8319.2103       1.4657500       1.7345000      0.20075000       342.57200       1.9775709     0.016084297
       4313.0000       290.54246       99681.153       8315.6607      0.26075000       2.4125000     -0.67475000       342.19100       1.9204393     0.015346300
       4318.0000       290.52994       99684.547       8335.4073       1.1580000       3.9915000    -0.032000000       342.00400       1.9670094     0.010040398
       4323.0000       290.58036       99682.308       8389.3396     -0.51975000       2.3682500     -0.10750000       342.46300       1.9506092     0.013418702
       4328.0000       290.51380       99678.586       8371.0791    -0.038750000       2.8665000     0.017500000       342.74000       1.9574940     0.014825539
       4333.0000       290.40201       99673.831       8313.7602    0.0092500000       2.5507500      0.26100000       342.94700       1.9492436     0.015516635
       4338.0000       290.37111       99664.241       8308.2770      0.64175000       1.9242500      0.23000000       343.33900       1.9077148     0.012794323
       4343.0000       290.28953       99643.653       8284.1710       1.0335000       1.9617500      0.77775000       342.58800       1.8717449     0.015820965
       4349.0000       290.32555       99636.349       8287.4241      0.45250000       2.2462500     -0.12025000       342.62200       1.9322748     0.019319111
       4354.0000       290.35656       99636.686       8296.1103       1.2615000       3.0085000     -0.54775010       342.80800       1.9808429     0.013073840
       4359.0000       290.37529       99644.412       8295.1956       2.1595000       2.7107500     -0.18650000       341.46600       1.9177564     0.012914108
       4364.0000       290.33667       99665.779       8242.8614       1.2975000       3.5792500     -0.57175000       341.60200       1.9556930     0.012543550
       4369.0000       290.36992       99675.734       8271.7103      0.85175000       2.5085000     -0.18450000       341.69600       1.9473938     0.013710186
       4374.0000       290.44998       99688.772       8348.9843       1.1037500       1.9635000    -0.065000010       341.99400       1.9294861     0.012661427
       4379.0000       290.56032       99681.054       8426.4876       1.0140000       1.4985000     -0.55125000       341.41100       1.8787474     0.019579149
       4384.0000       290.57624       99676.282       8467.5436       1.4630000       2.5280000      0.14775000       341.93000       1.8908317     0.012673614
       4389.0000       290.50910       99664.659       8487.2898       1.0542500       2.3290000     -0.39850000       341.67100       1.9190823     0.015747309
       4394.0000       290.46142       99654.633       8485.2682      0.97750000       2.3592500     -0.21625000       342.36500       1.9123884    0.0096294352
       4399.0000       290.31518       99638.374       8420.6979      0.83075000       2.2780000     -0.84975000       342.03700       1.9223030     0.012927410
       4404.0000       290.23191       99636.661       8392.9801      0.16100000       2.2662500     -0.46500000       341.80500       1.9381413     0.011913629
       4409.0000       290.18551       99642.323       8374.6531      0.83600000       1.4040000      0.27700000       342.88700       1.9678409     0.014412825
       4414.0000       290.20703       99653.567       8364.6901     -0.25875000       1.6570000     -0.32350000       342.54200       1.9153958     0.014169551
       4419.0000       290.15531       99661.960       8322.2679      0.41125000       3.5515000     -0.87225000       341.88700       1.9909926     0.012973551
       4424.0000       290.10051       99683.230       8291.5496      0.36600000       2.8387500      0.19125000       341.60200       1.9295778     0.013071527
       4429.0000       290.03009       99684.719       8201.5668       1.8000000       3.9955000     -0.24525000       341.14500       1.9071428     0.013511529
       4434.0000       289.98701       99682.184       8143.1296       1.5137500       3.2782500     -0.19050000       341.64300       1.9305910     0.013376486
       4440.0000       289.99980       99672.930       8117.1879       1.1107500       2.5022500      0.28300000       342.30500       1.9585415     0.014726909
       4445.0000       289.99969       99664.715       8088.9247      0.77225010       2.3205000     -0.27125000       341.95300       1.9234111     0.013593977
       4450.0000       289.95609       99643.657       8028.1728     -0.10450000       2.1082500     -0.60575000       342.86500       1.9628523     0.010832114
       4455.0000       289.99034       99636.368       8036.3020       1.6852500       1.0320000       1.1077500       342.69900       1.9593185     0.017117098
       4460.0000       290.12999       99634.993       8108.7705      0.73175000       3.3785000      0.17100000       341.94600       1.9612821     0.012776491
       4465.0000       290.16727       99638.740       8141.5343       1.1352500       3.0777500     -0.14825000       341.91800       1.9024320     0.015089451
       4470.0000       290.20220       99658.808       8210.6003       1.3110000       2.7267500       1.1197500       343.02000       1.9051252     0.018985882
       4475.0000       290.21870       99668.652       8258.3662      0.68725000       3.1922500     -0.54425000       342.70800       1.9105589     0.019929964
       4480.0000       290.11916       99680.158       8255.0828      0.69700000       3.0602500     -0.41875000       342.25500       1.9626369     0.012335627
       4485.0000       290.08239       99683.379       8265.5786       1.7762500       4.4072500     -0.79725000       342.53800       1.9382482     0.012564378
       4490.0000       290.10022       99677.840       8302.3704       1.5025000       3.9445000      0.47550000       342.65800       1.9706711     0.011506773
       4495.0000       290.10019       99670.516       8313.3131       1.2502500       4.8400000     -0.54725000       341.66000       1.8927505     0.010082068
       4500.0000       290.08567       99652.436       8291.6436      0.16925000       3.9575000      0.31700000       342.30100       1.9353258     0.014011553
       4505.0000       290.09710       99642.743       8286.1760     0.077500000       3.5675000     -0.28150000       342.90800       1.9040210     0.012878053
       4510.0000       290.14769       99629.117       8282.1923     -0.25850000       4.0045000     -0.39375000       342.06100       1.9130350     0.013738257
       4515.0000       290.15633       99626.811       8273.7752      0.28650000       2.6940000     -0.52825000       342.45400       1.9021546     0.022263942
       4520.0000       290.12710       99637.746       8253.8112       1.6422500       2.7270000     -0.16950000       342.90300       1.8755247     0.016226760
       4525.0000       290.14787       99645.970       8260.5542      0.91150000       2.5100000      0.18675000       342.42000       1.9089704     0.018328952
       4531.0000       290.18086       99666.572       8282.8213       2.2025000       3.6407500     -0.11800000       341.92600       1.9032354     0.016631342
       4536.0000       290.20430       99675.403       8303.1049      0.25750000       2.7630000      0.42550000       342.56600       1.9067903     0.020835761
       4541.0000       290.26355       99681.980       8349.0264      0.22875000       1.9192500    -0.099500010       342.36400       1.8985218     0.022953703
       4546.0000       290.32356       99682.405       8386.2760       1.2592500       2.7910000     -0.39350000       342.43400       1.9125477     0.019447515
       4551.0000       290.32519       99676.520       8410.3562      0.31575000       3.1525000     -0.62750010       342.77600       1.9320528     0.017044585
       4556.0000       290.42104       99668.340       8448.3951      0.74100010       1.8425000      0.69725000       343.43500       1.9316751     0.018421403
       4561.0000       290.63323       99650.946       8491.1615     -0.26800000       4.4625000     -0.93150000       342.17500       1.9668594     0.018962417
       4566.0000       290.76019       99640.246       8549.6524     -0.16075000       2.9460000      0.41100000       343.08700       1.9601282     0.013334497
       4571.0000       290.94492       99623.934       8629.0643       1.2760000       6.0410000      -1.2902500       341.68500       1.9696224     0.014165769
       4576.0000       291.00118       99621.260       8693.7139       1.7362500       3.4237500      0.51575010       342.83100       1.9150367     0.021857812
       4581.0000       290.91882       99630.901       8792.6581       1.4477500       2.3405000      0.38875000       343.34800       1.9405054     0.020342995
       4586.0000       290.89525       99636.565       8831.8948      0.89025000       3.0317500     -0.42550000       342.34600       1.9320265     0.023063487
       4591.0000       290.78337       99649.790       8830.5013       1.8390000       4.9267500     -0.20900000       342.17400       1.9139367     0.023654121
       4596.0000       290.77877       99659.361       8825.1392       1.3017500       4.2367500      0.55875000       342.41600       1.8983044     0.014464653
       4601.0000       290.88878       99667.263       8791.1530       1.1390000       3.2307500     -0.40250000       341.79100       1.9103594     0.023549771
       4606.0000       290.91524       99672.902       8747.5429      0.35950000       1.3082500      0.61775000       342.81600       1.8979759     0.025844115
       4611.0000       290.95209       99682.045       8683.8130      0.38750000       3.2545000     -0.61350010       341.52100       1.9194538     0.022049713
       4617.0000       290.96467       99682.190       8620.3807      0.13900000       4.0687500    -0.079500000       341.76500       1.9576450     0.013735781
       4622.0000       290.90082       99675.056       8551.1998      0.47300000       3.9997500     -0.44300000       341.73600       1.9220223     0.013017795
       4627.0000       290.88725       99666.182       8497.3159     -0.80300000       4.3387500     -0.31825000       342.14900       1.9566683     0.014331285
       4632.0000       290.89954       99649.189       8450.1232      -1.1175000       4.1010000     -0.40575000       341.44600       1.9702798     0.017463604
       4637.0000       290.89925       99638.784       8418.7400     -0.63825010       4.0940000     -0.23775000       341.73300       1.9504477     0.014387130
       4642.0000       290.91078       99623.285       8395.7055     -0.17250000       4.3250000     -0.82225010       341.78000       1.9315081     0.023947409
       4647.0000       290.89438       99622.150       8376.1304    -0.044250000       1.6005000      0.42875000       342.95200       1.9364094     0.020237461
       4652.0000       290.90193       99632.009       8400.2935      0.59100000       2.7357500     -0.28500000       342.43000       1.9481452     0.019284287
       4657.0000       290.81737       99638.239       8358.8712       1.0055000       3.0300000      0.24250000       342.74100       1.9176907     0.025633152
       4662.0000       290.64291       99657.744       8279.2092       2.4662500       3.0677500      0.54375000       343.01900       1.9822028     0.011826860
       4667.0000       290.53377       99658.943       8214.6428      0.19175000       3.7175000      0.28450000       342.18000       1.9192077     0.023647701
       4672.0000       290.35048       99644.310       8077.5663      0.61200000       4.2090000     0.046000000       341.84200       1.9119130     0.013977811
       4677.0000       290.29179       99644.562       8061.0207     -0.59175000       3.9082500     -0.78300010       342.04700       1.9122172     0.021344068
       4682.0000       290.30667       99640.416       8116.3337     0.098500010       4.0327500     -0.45050000       341.94200       1.9293950     0.014196197
       4687.0000       290.36232       99645.592       8152.4012     -0.86350010       4.5305000     -0.23300000       341.45800       1.8860053     0.021864134
       4692.0000       290.49134       99671.835       8250.7619     0.029750000       2.7722500      0.19975000       342.79200       1.9574264     0.013835689
       4697.0000       290.61439       99675.250       8314.3806      0.68650000       3.7472500     -0.15325000       342.15500       1.9493287     0.018525477
       4702.0000       290.80407       99670.692       8323.0705      -1.3402500       2.9347500      0.58775000       342.39400       1.9549107     0.015693620
       4708.0000       290.96345       99660.298       8435.4791     -0.13350000       2.5717500      0.77925000       342.72000       1.8986881     0.019856483
       4713.0000       291.09232       99634.725       8581.9710      0.91275010       1.8587500     -0.31750000       342.89100       1.9450634     0.014762816
       4718.0000       291.18415       99627.291       8711.8291      0.98425010       3.3477500      0.12775000       342.55600       2.0084259     0.011942225
       4723.0000       291.26183       99624.027       8927.0551       1.0585000       2.4005000      -1.0817500       341.95700       2.0388987     0.014757482
       4728.0000       291.28554       99622.799       8976.7623     -0.25125000       3.8215000     -0.15600000       342.09700       1.9325791     0.020142753
       4733.0000       291.24805       99627.915       8952.0077     -0.13550000       3.0045000    -0.065000010       342.30100       1.9684570     0.012070944
       4738.0000       291.25830       99634.744       8920.8841     -0.84800000       3.0980000      0.53525000       342.08500       1.9699791     0.012098117
       4743.0000       291.25252       99642.683       8793.6123      0.39200000       4.1125000     -0.25800000       341.61900       1.9517443     0.022172666
       4748.0000       291.24260       99652.514       8713.0043     -0.55650000       4.4445000     0.077000010       341.79900       1.9420124     0.024977403
       4753.0000       291.23933       99672.303       8619.7404      0.13350000       2.5575000      -1.1945000       341.89600       1.9528571     0.024533731
       4758.0000       291.26796       99675.862       8597.0687       1.0397500       3.1275000     -0.35025000       342.55700       1.9124369     0.022852649
       4763.0000       291.27091       99671.719       8578.8211       1.0625000       4.9215000     -0.60450010       341.54000       1.8716805     0.016350137
       4768.0000       291.33642       99670.027       8610.2061      0.57800000       3.0487500      0.22725000       342.92500       1.9555542     0.012020889
       4773.0000       291.52419       99660.669       8761.2170    -0.052750000       3.1722500      0.34575000       341.74100       1.9465546     0.013122503
       4778.0000       291.52997       99656.524       8769.8753     0.023500000       3.9475000     -0.71375000       341.46000       1.9735414     0.018263420
       4783.0000       291.52020       99657.499       8762.2585      0.27600000       4.4962500      -1.1692500       342.28800       1.9828864     0.017220633
       4788.0000       291.36999       99651.764       8669.9359      -1.1262500       1.7962500     -0.14700000       342.84700       1.9133595     0.010847106
       4793.0000       291.01008       99641.399       8456.6544     -0.90175000       4.4550000      0.15675000       342.17900       1.9324669     0.020259464
       4799.0000       290.77365       99628.781       8296.5224     -0.12075000       2.5050000      0.28300000       342.25300       1.9765433     0.012291191
       4804.0000       290.65613       99623.468       8203.2224      0.12850000       1.5895000      0.62375000       342.80800       1.9437302     0.017612467
       4809.0000       290.62475       99621.849       8150.1152      0.10550000       4.0200000     -0.64575000       341.60700       1.9278320     0.014310927
       4814.0000       290.74327       99623.523       8159.6555      0.14150000       3.1910000     -0.46300000       342.42200       1.9084722     0.024328700
       4819.0000       290.78546       99629.133       8157.4259      0.78950010       2.4020000     -0.24425000       343.57500       1.9620476     0.021130104
       4824.0000       290.85557       99640.449       8173.7920      0.67950000       3.9652500     -0.66750000       341.94000       1.9458085     0.015967239
       4829.0000       290.88519       99650.317       8203.9560      0.60725000       2.1385000     -0.51800000       342.62700       1.9568021     0.022940590
       4834.0000       290.90672       99656.644       8217.0759      0.26625000       2.1997500     -0.32750000       342.61800       1.9425666     0.025851187
       4839.0000       290.91545       99658.939       8214.8166     -0.52225000       3.1112500      0.29025000       341.66300       1.9378671     0.022454187
       4844.0000       290.90692       99661.119       8214.0735      0.88725010       2.4715000    -0.024750000       341.71700       1.9360469     0.015127659
       4849.0000       290.85508       99660.308       8181.1433      0.67075000       2.3045000    -0.046500000       342.11700       1.9020901     0.027437032
       4854.0000       290.84390       99660.296       8186.2904       1.3837500       1.7317500      0.40900000       342.40600       1.8858535     0.020973821
       4859.0000       290.84506       99660.257       8210.5626       2.1710000       2.2987500      0.60075000       342.36500       1.9449869     0.023163964
       4864.0000       290.86379       99660.486       8261.5507       1.0930000       2.7222500      0.22300000       342.18200       1.9522898     0.021217730
       4869.0000       290.81129       99660.545       8271.9912      0.40000000       2.8910000     -0.49050000       341.24300       1.9018208     0.011979431
       4874.0000       290.75619       99660.910       8295.7663     -0.33175000       2.0827500     -0.20850000       342.60100       1.9191231     0.023376259
       4879.0000       290.64496       99660.158       8258.0974       1.6407500       3.0257500    -0.083500010       342.05800       1.9306181     0.022138844
       4884.0000       290.58016       99656.392       8243.6681      0.63600000       2.0412500     -0.73550000       342.20100       1.9396268     0.023410563
       4890.0000       290.58615       99645.923       8262.1249       1.4867500       1.9645000     -0.15575000       342.58500       1.8734219     0.028720644
       4895.0000       290.59756       99639.028       8263.6400      0.52075000       3.2307500     -0.32025000       342.42700       1.9350161     0.018226283
       4900.0000       290.66238       99627.566       8285.5707      0.73350010       1.3745000      0.17775000       342.76900       1.9343086     0.019709029
       4905.0000       290.65941       99623.064       8264.8402      0.41525000       2.3127500     0.085750010       342.79500       1.9408176     0.022381892
       4910.0000       290.62185       99624.830       8196.1792      0.85175000       1.4925000      0.11750000       343.64700       1.9178175     0.026976940
       4915.0000       290.60052       99625.017       8152.8243       2.0077500      0.70550000      0.96125010       343.39600       1.9587681     0.012463937
       4920.0000       290.49113       99626.377       8066.0096       1.5510000       2.2490000      0.64225000       342.19800       1.9223461     0.023857566
       4925.0000       290.47570       99630.434       8038.1357       1.8435000       3.4717500     -0.20250000       341.47700       1.8904672     0.024735281
       4930.0000       290.55455       99635.855       8063.7270      0.44175000       2.8505000      0.14525000       341.73700       1.9297153     0.020988636
       4935.0000       290.60560       99641.010       8086.6511       1.0865000       3.0675000     0.044250000       341.37800       1.9851970     0.017148719
       4940.0000       290.67144       99651.783       8103.5425      0.86650000       2.8212500     -0.18650000       341.59000       1.9347848     0.015576274
       4945.0000       290.76177       99657.513       8185.2767       1.9220000       2.0727500     -0.83500000       341.41200       1.9055040     0.025265210
       4950.0000       290.90504       99659.516       8334.8551      0.24350000       2.5075000     0.021500000       342.91700       1.9800691     0.022690356
       4955.0000       290.97275       99661.474       8451.9676       1.1827500       2.5967500     -0.49425000       341.53400       1.9263708     0.016065005
       4960.0000       291.10538       99660.308       8705.1282      0.73725000       3.1180000     -0.35150000       341.88400       1.9388709     0.011817128
       4965.0000       291.08560       99660.324       8772.1200     -0.26825000       1.8882500    -0.090000000       341.47300       1.9237088     0.022125744
       4970.0000       290.85090       99660.277       8686.6842     -0.28450000       2.7202500     -0.46650000       341.49500       1.9289389     0.017507100
       4975.0000       290.71985       99660.277       8610.2427     -0.38425000       1.9057500    -0.056750000       341.48800       1.9073506     0.025903145
       4981.0000       290.47359       99664.228       8335.8119      0.47300000       1.7647500    -0.072750000       341.99600       1.9519266     0.014810673
       4986.0000       290.38700       99660.163       8231.5237      0.58350000       1.9855000     -0.19000000       342.07600       1.9221987     0.025435633
       4991.0000       290.44231       99646.461       8206.9880      0.58550000       1.4762500     0.053500000       341.65600       1.9615775     0.019877141
       4996.0000       290.44631       99643.217       8156.0602      0.82625000      0.88425000      0.23300000       342.38200       1.8746147     0.015088492
       5001.0000       290.49419       99642.043       8163.5730       1.5615000       1.1175000      0.29300000       342.64500       1.9320091     0.013403049
       5006.0000       290.51028       99638.370       8130.5294       1.2295000       1.3855000    -0.067250010       342.34800       1.9409902     0.024125963
       5011.0000       290.51254       99642.771       8053.0317       1.0837500       1.0040000     -0.29500000       342.70100       1.9366902     0.014364035
       5016.0000       290.49874       99640.618       8003.1647       1.3107500      0.82125000      0.33750000       343.49300       1.9255794     0.020222724
       5021.0000       290.46200       99627.488       7968.4791       2.5915000       1.5050000    -0.077000010       341.79300       1.9162937     0.017659566
       5026.0000       290.44221       99622.310       7924.8969       1.9817500       1.3005000     -0.19775000       341.20600       1.9538476     0.012290452
       5031.0000       290.40503       99620.744       7870.3573       2.1977500       1.3000000     -0.14825000       341.29700       1.9396948     0.023664129
       5036.0000       290.38879       99619.093       7841.9118       2.5440000       1.6505000     -0.36850000       341.51500       2.0016338     0.016376059
       5041.0000       290.40014       99619.013       7811.7448       2.9952500       2.2495000     -0.39850000       341.80400       1.9129093     0.016467062
       5046.0000       290.40010       99620.427       7807.7500       2.9227500       1.6025000     -0.14000000       341.49600       1.9367116     0.012645619
       5051.0000       290.36184       99621.426       7809.3096       1.8097500       1.4227500     -0.34550000       341.82000       1.9207374     0.016085446
       5056.0000       290.40346       99626.188       7867.2748       1.1300000       1.0445000     -0.31250000       341.43900       1.8869123     0.013255723
       5061.0000       290.51632       99637.464       8009.5692      0.82225010      0.58700000     -0.49600000       341.43800       1.9607887     0.014861040
       5066.0000       290.57691       99643.159       8077.3319      0.62925000     -0.41525000     -0.11850000       341.60700       1.9627429     0.013969431
       5072.0000       290.69796       99650.084       8167.7561     0.060750000      0.15025000      0.25900000       341.75700       1.9695818     0.014330522
       5077.0000       290.73880       99652.747       8222.8821      0.24350000       3.0310000     -0.37400000       341.75400       1.9270978     0.024572520
       5082.0000       290.70013       99649.234       8211.0334      0.17400000       1.6982500      0.20700000       342.04700       1.9171902     0.014113314
       5087.0000       290.70013       99650.912       8230.0641      0.26725000      0.63725000      0.35975000       343.24800       1.9158717     0.020722730
       5092.0000       290.71027       99654.342       8282.0782       1.4855000       1.8252500     -0.47425000       341.95000       1.8426357     0.018485205
       5097.0000       290.69348       99656.270       8296.7667      0.95300010      0.85675000     0.025500000       342.96600       1.9116303     0.023383831
       5102.0000       290.63474       99660.305       8260.5265       2.5957500       1.5287500     -0.50325000       342.58900       1.9096161     0.022091996
       5107.0000       290.64692       99661.707       8281.5978      0.87900010       1.6767500     -0.20575000       343.61200       1.8894917     0.024888331
       5112.0000       290.67325       99661.605       8318.8158     -0.19700000       3.9330000      0.19800000       342.07800       1.9202196     0.022651386
       5117.0000       290.71523       99660.016       8364.8545     -0.27450000       2.7007500      0.37725000       342.45100       1.8779090     0.032124198
       5122.0000       290.84025       99656.085       8478.7736     -0.34525000       3.7607500     0.042000000       341.33700       1.9481990     0.020912675
       5127.0000       290.88756       99654.114       8502.6110      0.47000000       2.1965000     -0.21825000       341.72600       1.9076346     0.025368881
       5132.0000       290.89896       99650.368       8489.0911      0.80525000       2.0512500    -0.018250000       342.79300       1.9874806     0.028665765
       5137.0000       290.91255       99649.013       8469.7760      0.52225000      0.82275000      0.24000000       342.64000       1.9912634     0.013864081
       5142.0000       290.89972       99652.476       8386.9511     -0.19875000      0.88600000      0.11975000       342.57700       1.9257079     0.014674579
       5147.0000       290.89955       99649.210       8353.9475      0.43125000       1.9840000      0.28450000       342.80700       1.9572340     0.012470815
       5152.0000       290.91119       99641.614       8350.1633      0.33175000       3.0577500     -0.39025000       341.27800       1.9305688     0.012606070
       5158.0000       290.89037       99636.761       8316.4633      0.38025000       1.8442500    -0.073500000       341.71800       1.9423931     0.022428563
       5163.0000       290.86273       99630.531       8285.1909      0.12200000      0.68750010     -0.26950000       341.25800       1.9950591     0.014111515
       5168.0000       290.82412       99626.368       8262.3910     -0.64275000      0.35050000     -0.64225000       341.31000       1.9669692     0.012837467
       5173.0000       290.77970       99627.710       8241.2595     -0.36250000    0.0082500000     -0.28975000       341.22900       1.9429901     0.014301341
       5178.0000       290.69131       99621.886       8199.2697     -0.32825000     -0.18325000      0.56625000       342.63500       1.9462768     0.024700221
       5183.0000       290.55903       99609.150       8162.9179     0.062250000    -0.013250000      0.38500000       342.07900       1.9815077     0.016438618
       5188.0000       290.48748       99607.841       8107.5177      0.21225000       1.3102500     -0.40350000       341.68200       1.9253930     0.023750799
       5193.0000       290.38985       99608.990       7998.4896      0.58850000       1.7752500     -0.16450000       342.78800       1.9401717     0.015584991
       5198.0000       290.35574       99610.702       7975.6560       1.0560000       1.4742500     -0.33225000       341.48700       1.9038978     0.022054072
       5203.0000       290.37306       99620.844       7976.4695      0.35600000      0.81250010      0.29025000       342.41300       1.9354817     0.012901070
       5208.0000       290.42890       99623.071       8011.3158    -0.083750000      0.76525000      0.56225000       342.89100       1.9600558     0.017600382
       5213.0000       290.55517       99620.395       8121.8034      0.35500000      0.65900000    -0.065750000       342.96400       1.9194442     0.014560505
       5218.0000       290.57741       99620.441       8163.5395    -0.048500000      0.82750000      0.25850000       342.56600       1.9171931     0.014294633
       5223.0000       290.60903       99620.221       8203.8206    -0.083250000      0.75625000      0.18850000       342.62300       1.8942128     0.023208015
       5228.0000       290.62093       99620.175       8226.7537     -0.18425000       1.4732500     -0.28975000       341.70000       1.9015438     0.022904606
       5233.0000       290.54957       99619.461       8207.5334     -0.85725000       1.6142500     -0.20625000       342.12700       1.9155899     0.022065116
       5238.0000       290.52799       99621.407       8230.3060     -0.71325000       1.9545000     -0.77900000       341.46800       1.9006596     0.025412633
       5243.0000       290.56575       99625.153       8289.2483      -1.0485000       1.3457500    -0.088500000       342.99700       1.9489885     0.014100268
       5249.0000       290.51422       99625.716       8298.7769     -0.91950010       1.4007500     -0.16525000       341.35600       1.8999038     0.022057879
       5254.0000       290.45576       99629.547       8264.9435     -0.87275000       1.4582500      0.10700000       341.38800       1.9479335     0.020197504
       5259.0000       290.38502       99634.615       8190.1186     -0.39175000       1.6517500     -0.43325000       341.16700       1.9402315     0.024904048
       5264.0000       290.29524       99642.188       8037.3346     -0.11400000       1.3422500      0.18525000       342.16100       1.9168237     0.019133180
       5269.0000       290.24623       99639.767       7975.7443     -0.55300000       1.5347500     -0.34000000       341.32800       1.9497809     0.018290743
       5274.0000       290.18235       99635.887       7904.2137     -0.23850000       1.6517500      0.43525000       342.79200       1.9192750     0.023612174
       5279.0000       290.23045       99627.686       7962.2080      0.67975000       1.4927500     -0.34775000       341.34500       1.9955071     0.018254767
       5284.0000       290.25058       99623.210       7983.1805      0.33850000      0.72825000      0.10225000       341.33000       1.9327798     0.020659290
       5289.0000       290.28542       99625.865       8026.0453    0.0065000000      0.34125000     -0.11750000       341.30600       1.9653106     0.015660754
       5294.0000       290.30627       99629.729       8037.9450     -0.32425000     -0.23425000      0.36850000       341.88000       1.9261484     0.018946836
       5299.0000       290.29974       99636.281       7982.4965      0.11350000     -0.27125000     -0.19000000       341.38900       1.9375451     0.013297853
       5304.0000       290.29977       99640.251       7969.0303   -0.0017500000      0.25425000    -0.097500000       341.49300       1.9466087     0.025028071
       5309.0000       290.29984       99644.222       7967.8633      0.19925000     -0.52800000      0.14050000       342.95700       1.9158258     0.016902668
       5314.0000       290.29353       99651.303       7957.4909     0.046250000     -0.26975000     -0.16825000       342.45000       1.9149944     0.024145049
       5319.0000       290.31516       99652.942       8003.3683     -0.14075000     -0.66300000      0.23175000       342.67000       1.9317234     0.013588345
       5324.0000       290.36247       99650.485       8119.4846      0.79550000     -0.66775010      0.45200000       341.56800       1.9670896     0.014632685
       5329.0000       290.32431       99650.335       8091.9945      0.93725000     -0.34325000      0.46550000       341.50200       1.9520426     0.014557426
       5334.0000       290.30552       99650.359       8076.4302     0.036500000    -0.026750000      0.44950000       342.69500       1.9590733     0.013393702
       5340.0000       290.21921       99650.277       7958.7463     -0.50050000      0.62175010   0.00050000000       341.95400       1.8874365     0.027963771
       5345.0000       290.18212       99650.277       7901.8884     -0.49100000       1.5107500      0.19875000       341.67700       1.9012955     0.018499312
       5350.0000       290.19988       99650.245       7903.2323     -0.57350000       1.0937500     -0.15775000       342.39500       1.9402727     0.015360715
       5355.0000       290.19976       99650.245       7881.0918     -0.77750000       2.0100000     -0.31325000       341.37700       1.9021612     0.019310591
       5360.0000       290.18619       99650.438       7835.6142     -0.47900000       1.9632500     -0.16775000       342.05800       1.8905495     0.021175711
       5365.0000       290.19782       99650.497       7826.5823      -1.5870000       1.3450000     -0.48250000       342.15200       1.9024317     0.015643622
       5370.0000       290.26259       99650.277       7855.6082      -2.4617500       1.5915000     -0.54200010       341.83700       1.9015858     0.022254323
       5375.0000       290.26035       99650.277       7851.2111      -1.8535000       2.4142500      -1.1755000       342.12100       1.9005484     0.021897468
       5380.0000       290.22238       99650.308       7854.8155     -0.99600010       2.4155000    -0.098250000       341.92900       1.8844028     0.015106919
       5385.0000       290.20130       99650.308       7849.3392     -0.28775000       2.6837500     -0.45000000       342.46000       1.9456031     0.013788736
       5390.0000       290.11995       99650.277       7806.2133     -0.97975000       2.4905000     -0.15675000       342.97700       1.8987435     0.021030078
       5395.0000       290.08278       99650.277       7777.2425     -0.90900000       1.4045000      0.48375000       343.59800       1.9455388     0.016235770
       5400.0000       290.05614       99650.245       7741.2770     -0.62825000       2.0047500     0.073750000       341.23600       1.9421981     0.014277449
       5405.0000       290.09023       99650.245       7738.2336     -0.42100000       1.9340000     -0.30750000       341.36700       1.9303355     0.023111199
       5410.0000       290.20208       99650.437       7756.1860     -0.47500000      0.95975010      0.21725000       341.92400       1.9093001     0.013859251
       5415.0000       290.26256       99650.496       7769.1669     -0.19325000       1.8145000     0.094250000       342.27600       1.9380970     0.020539335
       5420.0000       290.35672       99650.277       7797.1360     -0.39900000      0.49450000      0.11575000       342.38300       1.9506205     0.015210096
