MIRICO/SHELL project - Processed LDS file generated on
Sat Jul 08 01:41:07 2017
Time stamp for record start
05/10/2017  13:24:12.0000
Nb of points in the record
        1073
Beam position index
       7.0000000
Beam angle (degrees)
       19.305000
Open Path length (m)
       33.730000
****************** Temporal data record ************************
Elapsedtime_sec Temp_K Press_Pa Humidity_ppmv WindX_m/s WindY_m/s WindZ_m/s Speedofsound_m/s CH4vmr_ppmv CH4vmrerror_ppmv  
      0.00000000       289.21176       99797.471       7670.5804       1.9190000       3.2905000      -1.1522500       340.77700       1.9601441     0.022778176
       5.0000131       289.15248       99803.732       7624.6221       1.6260000       2.8602500    0.0020000000       340.89400       1.9414399     0.027886051
       10.000026       288.94139       99804.151       7496.7872       1.1807500       2.0392500     -0.44225000       341.18000       1.8891420     0.024965293
       14.999999       288.85865       99806.207       7430.4713       1.1737500       1.0700000      0.45275000       341.29300       1.8359562     0.020492054
       20.000012       288.74531       99811.143       7348.3389       1.0047500       2.1465000     0.012500000       341.42000       1.8280295     0.021547027
       25.000025       288.71309       99811.457       7305.3245      0.91625010       1.8400000    -0.059500000       341.81500       1.8675615     0.019186921
       29.999998       288.83318       99809.007       7324.5931      0.15650000      0.90900000    0.0077500000       341.63200       1.8787095     0.021693606
       35.000011       288.86912       99804.249       7314.4812      0.37100000       2.7610000     -0.22750000       341.89500       1.8445619     0.021307462
       40.000024       288.89550       99794.694       7302.2193       1.0697500       2.5482500     -0.21375000       341.21200       1.8672403     0.011263849
       44.999997       288.91162       99787.675       7294.2500      0.16500000       2.2505000     -0.49875000       341.33000       1.9541287     0.018119575
       50.000010       288.91303       99777.451       7283.5360      0.45425000       1.3932500    0.0047500000       342.27400       1.8316128     0.021348069
       55.000024       288.89923       99772.159       7276.5753      0.84350000       2.1702500     0.090500000       341.74600       1.8602572     0.018372919
       59.999996       288.86128       99769.298       7274.3017     0.061750000       2.2380000      0.59725000       342.55200       1.8332573     0.012467524
       66.000004       288.83718       99769.225       7274.9962       1.5737500       3.0122500     -0.12225000       340.95500       1.8965767     0.018908913
       71.000017       288.78948       99772.352       7270.3265       1.6357500       3.3560000     -0.75725000       341.91700       1.9501131     0.016707415
       76.000030       288.79222       99777.606       7282.6461       1.0557500       3.0212500    -0.050000000       340.53800       1.8362341     0.023138681
       81.000003       288.84181       99787.490       7287.2938      0.68100010       2.0495000     0.085750010       341.02300       1.8500902     0.019001118
       86.000016       288.86161       99794.439       7339.9735      0.97000000       1.6125000     -0.20650000       341.55400       1.9422495     0.017244511
       91.000029       288.86449       99805.606       7411.6233    -0.076500010       1.6197500     -0.23125000       342.01800       1.9006366     0.016030022
       96.000002       288.92743       99808.779       7518.6354     -0.37525000       2.0040000    -0.043750000       340.56600       1.9554842     0.013153400
       101.00002       289.02589       99805.953       7727.6185      0.47525000       2.4445000      0.28350000       341.33900       1.8924172     0.019079845
       106.00003       289.08612       99805.369       7806.2979      0.21275000       2.8450000     -0.36100000       341.42000       1.9396587     0.013751670
       111.00000       289.20894       99803.654       7862.8900       1.0682500       2.0087500     -0.43175000       340.66800       1.8287095     0.016703726
       116.00001       289.23458       99797.405       7871.3622      0.69275000       1.1417500      0.32825000       342.06100       1.9075369     0.016352524
       121.00003       289.16914       99789.775       7772.5196     0.076500010       1.7745000     -0.65975000       340.99300       1.9601565     0.012948298
       126.00000       289.13318       99780.584       7717.8948     -0.18075000       1.6110000     0.040750000       341.49300       1.8855774     0.018625608
       131.00001       289.06015       99762.529       7654.4432     -0.40425000       2.1480000    -0.096500000       341.24600       1.8564651     0.016747310
       136.00003       289.02671       99754.542       7609.0609      0.19300000       1.4320000      0.13025000       341.59900       1.8270467     0.021052625
       141.00000       289.00111       99747.049       7553.7323      0.57275000       2.0280000      0.21000000       341.87700       1.8372079     0.019385889
       146.00001       288.98730       99749.159       7526.8375       1.3322500       1.3985000     -0.30250000       341.55600       1.8129238     0.022806126
       151.00003       288.96645       99761.009       7505.6745       1.3815000      0.98625000      0.65725000       342.22600       1.7641888     0.019448906
       156.99999       289.02901       99772.475       7544.9410     -0.19850000       1.6930000    -0.072000000       341.82400       1.8723107     0.017733925
       162.00001       289.12112       99789.672       7612.6611       1.6770000       1.5940000     -0.70550000       341.65300       1.9414579     0.012887477
       167.00002       289.21814       99798.856       7691.7443      0.20100000       1.3550000     0.033500000       342.07500       1.9202763     0.017739634
       171.99999       289.38238       99806.354       7825.8591      0.45750000       3.2335000     -0.54000000       341.22900       1.8073019     0.018824063
       177.00001       289.49290       99808.775       7926.2200     -0.24400000       2.5630000     -0.39325000       341.66700       1.9180684     0.017885667
       182.00002       289.60573       99808.200       8029.9443     -0.55450000       2.4312500      0.21425000       341.70400       2.0092615     0.012332743
       186.99999       289.64951       99803.592       8108.2067      0.16375000       3.1007500    -0.022000000       341.44200       1.8481848     0.023839608
       192.00000       289.66815       99791.910       8191.5525      0.88575010       1.1567500      0.31725000       342.48800       1.8053150     0.021182310
       197.00002       289.65219       99784.950       8217.9195       1.0405000       1.9375000     -0.58650000       341.18500       1.8442784     0.014390159
       201.99999       289.55012       99776.604       8202.8312      0.54200010       1.7852500     -0.85150000       341.76200       1.9230498     0.013136529
       207.00000       289.51866       99768.583       8180.6772    0.0070000000       3.0135000     0.085750010       341.77100       1.8924850     0.018239710
       212.00002       289.50596       99758.962       8117.3323       1.2275000       1.9090000      0.19100000       341.65900       1.8164293     0.015815359
       217.00003       289.47622       99757.565       8074.0484       2.1272500       1.0725000      0.52250000       342.70800       1.7972308     0.024999762
       222.00000       289.46453       99757.862       8027.3318       2.8032500       1.6915000     -0.10325000       340.97700       1.8208575     0.019071098
       227.00002       289.42538       99761.600       7978.0723      0.71700000       1.8782500     -0.67925010       341.50000       1.8191430     0.021588187
       232.00003       289.34215       99772.770       7911.7792       1.5185000       3.3652500     -0.33400000       341.18400       1.7756941     0.024242054
       237.00000       289.32943       99782.693       7892.5580     0.056500000       2.6620000     0.090750000       342.04300       1.7731282     0.023769379
       242.00002       289.34306       99795.641       7897.9510      0.31975000       1.7040000     0.046500000       341.95900       1.7719384     0.027339117
       248.00002       289.37015       99802.788       7877.8742      0.64225000       2.6760000     -0.41900000       341.70200       1.7611138     0.024177589
       253.00000       289.39964       99807.004       7881.0893       1.6400000       1.8470000     -0.33375000       341.93700       1.8680879     0.025487482
       258.00001       289.47501       99806.448       7881.9272      0.89850000       2.8132500     -0.27600000       341.74000       1.8293668     0.020686559
       263.00002       289.46904       99801.839       7876.6036       1.2297500       2.3322500      0.51525000       341.60800       1.8309311     0.022498602
       267.99999       289.42621       99794.786       7878.3440       1.4492500       4.2970000      -1.2510000       341.17800       1.8830674     0.018432347
       273.00001       289.35917       99786.713       7912.9040       1.5470000       4.1147500      -1.1910000       341.21700       1.8000000     0.023788944
       278.00002       289.30718       99776.285       7909.2648     -0.83550010       2.2150000      0.29800000       341.50600       1.8358030     0.026857288
       282.99999       289.18264       99757.335       7875.1736     -0.44700000       3.0807500    -0.012500000       341.51900       1.8716356     0.024208846
       288.00001       289.22930       99755.041       7884.4878     -0.22350000       3.9927500     -0.31400000       340.87500       1.7599564     0.023182359
       293.00002       289.21207       99757.407       7880.0726    -0.029750000       2.8405000     -0.24600000       341.59900       1.7576769     0.023650411
       297.99999       289.18460       99774.908       7892.6485     -0.16875000       2.8237500     -0.10350000       341.27700       1.8584257     0.019015334
       303.00001       289.11871       99785.987       7873.2288      0.15225000       2.3600000      0.26550000       341.46100       1.8579101     0.014415658
       308.00002       289.01590       99795.843       7832.9810     -0.36600000       2.7212500     -0.66625010       341.16700       1.8083276     0.026876586
       312.99999       288.84046       99807.714       7764.5940     -0.45525000       1.9607500    -0.079000000       340.49200       1.9338511     0.018064936
       318.00001       288.76284       99810.103       7718.5242    -0.049500000       1.4695000     -0.28875000       340.50800       1.9230735     0.018336867
       323.00002       288.68246       99806.945       7654.0333     -0.48000000       1.4327500     -0.26200000       340.60600       1.8388042     0.031933707
       327.99999       288.69983       99797.066       7631.3304    0.0030000000       1.3232500      0.33775000       341.09600       1.9244068     0.017730857
       333.00000       288.69985       99790.010       7613.0176      0.52800000       1.2685000      0.20325000       341.36500       1.8273975     0.019120192
       339.00001       288.68558       99781.717       7598.5235      0.17225000       1.0232500    -0.011750000       341.72800       1.7025110     0.023440144
       344.00003       288.69670       99773.835       7595.9190      0.28600000      0.92375000      0.42750000       341.40800       1.9048690     0.017592616
       349.00000       288.70536       99761.610       7579.8154       1.1950000       1.0852500     -0.44850000       341.11200       1.8496840     0.021642843
       354.00001       288.74735       99757.976       7611.1130      0.74875000       1.1685000      0.26550000       340.84800       1.8558687     0.038333234
       359.00002       288.84201       99754.383       7700.1700      0.36775000       1.2735000    -0.066000000       341.52400       1.8394609     0.023021630
       364.00000       288.91211       99757.993       7754.8449      0.11925000       1.0200000      0.33750000       341.82400       1.8632505     0.018181623
       369.00001       289.01295       99778.327       7835.3335      0.49475000       1.0267500      0.12400000       341.69600       1.9016670     0.014361881
       374.00002       289.07076       99788.112       7892.8686      0.44250000       1.0980000    0.0085000000       341.16000       1.8673384     0.023415233
       379.00000       289.11855       99799.987       7931.1471      0.61975000       1.3805000     -0.22600000       340.72000       1.9148897     0.026467926
       384.00001       289.11545       99803.411       7936.6161      0.17500000      0.96375010     0.027500000       341.39800       1.8451604     0.023181574
       389.00002       289.03157       99795.127       7916.5462      0.47850000       1.0830000    -0.039750000       341.84100       1.8962809     0.020434882
       394.00000       288.99175       99790.121       7896.8329      0.18175000      0.96250000      0.20550000       341.82500       1.9136885     0.019758712
       399.00001       288.88970       99781.800       7814.0802      0.61150000       1.6775000     -0.15475000       340.84200       1.9286645     0.020234748
       404.00002       288.87528       99773.749       7783.5388      0.88550000       1.5540000     -0.22075000       340.88300       1.8136026     0.024963965
       408.99999       288.98263       99764.550       7811.2896      0.86875000       2.3145000      0.16125000       341.86000       1.8665287     0.021368787
       414.00001       289.01160       99758.709       7796.5608       1.1205000       1.4632500      0.65275000       343.06800       1.8298272     0.028744987
       419.00002       289.04664       99745.273       7782.8905      0.64550000       2.9385000     -0.53975000       340.80400       1.8518889     0.028664558
       425.00003       289.06501       99748.514       7751.3613      0.80975000       2.5795000     0.041750000       340.91300       1.8680289     0.031437300
       430.00000       289.00437       99769.345       7671.8156      0.57300000       1.1807500      0.47950000       341.53800       1.8972184     0.028001099
       435.00001       288.98821       99779.241       7636.7966      0.47025000      0.79000000      0.54225000       341.76200       1.8509964     0.020492287
       440.00003       288.99956       99800.411       7602.9503      0.53200000       1.6310000     -0.35950000       340.99100       1.8644989     0.017709123
       445.00000       288.99928       99805.821       7610.3809       1.3402500       1.3715000      0.31325000       343.18900       1.9064713     0.019982145
       450.00001       288.95993       99794.063       7638.8118       1.0847500       1.8057500     -0.44500000       340.61400       1.8310774     0.022999116
       455.00003       289.00165       99788.593       7704.4659      0.50625000       2.0422500    -0.068500000       341.34000       1.8788322     0.019554811
       460.00000       289.07490       99773.461       7819.7551      0.66300000       1.5760000     -0.23150000       340.59300       1.8918026     0.017720070
       465.00001       289.17647       99772.188       7938.3899      0.37200000       1.2532500      0.31600000       342.45800       1.8357730     0.028569050
       470.00003       289.37513       99784.929       8104.4902      0.56000000       1.7175000     -0.59875010       340.92400       1.8128113     0.022958042
       475.00000       289.51201       99786.591       8243.2492      0.65675000      0.93825010     -0.52900000       341.58700       1.7918533     0.023071369
       480.00001       289.67413       99788.670       8431.7915      0.39700000       1.7455000     -0.66225000       340.91800       1.8558366     0.023865739
       485.00002       289.74822       99792.285       8512.6957       1.1102500       1.3500000      0.24250000       342.15500       1.8577771     0.025260426
       490.00000       289.75267       99788.667       8540.8009      0.83800010       1.0527500      0.39575000       342.83700       1.8102175     0.022477805
       495.00001       289.76447       99789.446       8531.8878       1.2942500      0.30550000    -0.094250000       341.52900       1.9052889     0.017477154
       500.00002       289.70554       99801.833       8416.8286      0.74775000      0.53175000     -0.41675000       341.28900       1.8093348     0.022598183
       505.00000       289.68934       99802.364       8343.3815     0.069000010      0.69500010     0.062500000       342.95000       1.8847237     0.020548559
       510.00001       289.71304       99793.783       8260.2437      0.11025000      0.98375000     -0.47475000       341.44900       1.8401654     0.032004352
       516.00002       289.69514       99787.122       8172.7358      0.27650000      0.52350000    -0.017000000       341.36400       1.8480344     0.027810285
       520.99999       289.63519       99778.270       8095.4214     -0.28275000      0.47700000    -0.047750000       342.50500       1.8574091     0.023507395
       526.00000       289.64760       99770.314       8041.8287     -0.23000000       1.9495000      0.15575000       341.25900       1.9153291     0.019128385
       531.00002       289.67351       99758.739       7995.5945     -0.93325010       1.9300000     0.019500000       342.08300       1.8296208     0.021750434
       536.00003       289.71533       99758.237       7969.9230      -1.1097500       2.5230000     -0.45575000       341.98500       1.8740610     0.016693855
       541.00000       289.88657       99760.545       7997.7033      0.55475000       2.2572500     -0.38075000       342.45400       1.8413359     0.027543024
       546.00002       289.86845       99767.163       7955.7194    -0.064000000       1.9130000      0.51575010       341.84000       1.8337242     0.027717685
       551.00003       289.75344       99790.493       7895.7664       1.5352500       2.2137500      0.17400000       341.23100       1.9190170     0.017346217
       556.00000       289.65471       99795.437       7833.2754      0.65925000       2.4127500    -0.034250000       341.91800       1.9059681     0.016305951
       561.00001       289.41742       99791.670       7705.8229       1.1890000       1.5402500      0.14850000       342.14100       1.9164898     0.018383941
       566.00003       289.32157       99790.443       7652.2272     -0.25775000       2.2570000      0.40550000       341.92200       1.8318925     0.019944951
       571.00000       289.30152       99783.694       7644.8403    -0.042500000       2.0230000    -0.070000000       341.97400       1.8095579     0.023236745
       576.00001       289.27409       99776.099       7620.3949      0.18050000       1.8397500     -0.54600000       341.65200       1.8228733     0.021751041
       581.00003       289.31158       99767.937       7621.4542      0.34350000       2.2725000      0.41325000       342.42100       1.8160726     0.018074113
       586.00000       289.29511       99761.927       7602.5700      0.45025000       2.8892500    -0.013250000       341.31500       1.7633307     0.021514576
       591.00001       289.26880       99747.555       7561.6467       1.0420000       2.4215000      0.20175000       341.71600       1.8465611     0.013968015
       596.00003       289.23243       99748.478       7548.4183       1.5592500       2.0015000     0.095750000       341.24700       1.9135898     0.016722022
       601.00000       289.17955       99761.009       7556.6085       2.5665000       1.5405000      0.19975000       340.98800       1.8172334     0.020557670
       607.00001       289.09855       99772.475       7534.1584       2.7000000       1.8935000     -0.40450000       341.13600       1.8061815     0.012734536
       612.00002       288.99570       99792.328       7502.9746       1.6582500       1.8345000     0.089000000       342.16400       1.8727215     0.011390622
       616.99999       288.96367       99795.935       7508.9814    -0.057500000       1.4457500      0.42525000       343.71200       1.8402409     0.023552436
       622.00001       288.91297       99794.175       7490.5855     -0.36900000       1.4915000      0.95200000       343.13700       1.8874361     0.021171211
       627.00002       288.96560       99786.823       7551.3742     -0.28575000       2.7892500      0.36125000       342.20700       1.8331104     0.018634912
       631.99999       289.11883       99766.142       7707.1328      0.52450000       1.9255000    0.0077500000       341.55100       1.8970406     0.018795948
       637.00000       289.22835       99757.865       7768.4798     -0.24325000      0.75200000      0.30275000       343.07500       1.8000079     0.011470032
       642.00002       289.36487       99747.147       7813.2556     -0.30900000       1.5655000    -0.024500000       342.47500       1.8511979     0.028503971
       646.99999       289.51482       99749.518       7892.9483      0.77050010      0.45825000      0.44700000       342.70700       1.8158066     0.012523653
       652.00000       289.70217       99764.225       7944.0858       1.1522500       2.1430000      0.18250000       341.76700       1.8138688     0.019990543
       657.00002       289.78635       99770.185       8015.5532      0.58600000       3.5147500     -0.48525000       340.89800       1.7463108     0.019110844
       662.00003       289.87536       99781.282       8175.5610      0.68225000       1.8410000      0.30175000       341.97300       1.8153417     0.014106766
       667.00000       289.88185       99784.693       8194.8697      0.66950010       2.5707500     -0.20100000       341.60800       1.9212854     0.024093861
       672.00002       289.75205       99783.238       8125.9864       1.5260000       2.4712500    -0.095750000       342.17600       1.7817447     0.016234248
       677.00003       289.72094       99777.579       8094.5295       1.1262500       3.0515000      0.48175000       341.83200       1.8022281     0.025600593
       682.00000       289.71451       99766.542       8021.1625       2.0480000       3.6477500     -0.31650000       341.55100       1.9556090     0.018705405
       687.00002       289.66522       99760.590       7964.7788       1.9717500       1.9565000     -0.34250000       341.44700       1.9160543     0.022750701
       692.00003       289.59771       99747.503       7915.7101      0.71825000       1.7875000      0.23500000       342.09900       1.9022373     0.020078018
       698.00000       289.51449       99751.865       7826.3701       1.3877500       1.3737500     -0.39450000       341.03000       1.8753163     0.019540748
       703.00001       289.51884       99758.493       7815.3086      0.76475010       1.4540000    -0.087500010       340.97300       1.8120293     0.017728731
       708.00002       289.67523       99779.219       7916.1958       1.1795000       1.7432500      0.12375000       341.63500       1.8039732     0.020682896
       713.00000       289.75597       99787.650       7960.4314       1.2782500       2.2780000     -0.42900000       341.51900       1.8472528     0.025446240
       718.00001       289.82437       99791.164       7998.9582       1.4700000       1.7350000     -0.39575000       341.02800       1.7879690     0.019901037
       723.00002       289.93210       99794.394       8072.2387       1.1292500       1.4437500     -0.30025000       342.59000       1.8360727     0.019000139
       727.99999       289.91519       99786.542       8071.3291       1.7595000       1.4755000     -0.29100000       340.54400       1.8720995     0.012163533
       733.00001       289.81166       99764.706       8012.4129       1.2092500       1.6802500      0.18350000       341.67300       1.8307411     0.022050688
       738.00002       289.72831       99747.151       7944.5657      0.80625000       1.6700000     0.042750000       342.45200       1.8959720     0.021003483
       742.99999       289.61060       99741.146       7886.2013      0.92675010       1.6192500   -0.0035000000       341.51100       1.8790914     0.015095639
       748.00001       289.40909       99746.382       7804.4050      0.79000000      0.94900010     0.098000000       341.45000       1.7635992     0.016684047
       753.00002       289.28771       99752.900       7737.8955      0.93475000      0.92775010      0.44275000       342.62100       1.8647971     0.017644756
       757.99999       289.19096       99764.349       7681.4082       1.5715000      0.91850010     0.019000000       341.09800       1.8444811     0.015884813
       763.00001       289.08891       99788.392       7638.4831       1.1280000       1.1895000      0.22825000       341.62400       1.8572340     0.024929782
       768.00002       289.01194       99792.745       7601.4902      0.22975000       1.6162500      0.38850000       343.76700       1.7912250     0.012414335
       772.99999       288.99957       99793.970       7569.7409       1.3542500      0.88875000    -0.066750000       342.55900       1.8211309     0.015102733
       778.00000       288.90025       99773.916       7515.3986      0.99475000       1.2837500     -0.27800000       340.87000       1.7414791     0.019623253
       783.00002       288.87470       99763.482       7519.1491       1.4565000       1.6700000      0.57625000       342.20200       1.8885269     0.019587212
       789.00003       288.91212       99748.883       7564.1733      0.25725000       1.2625000      0.53400000       342.92200       1.7938822     0.018336404
       794.00000       288.99704       99746.766       7630.7655      0.86125000       1.2872500     -0.47050000       341.30400       1.8326082     0.022429760
       799.00001       289.23041       99760.603       7800.2652      0.89850000      0.37500000      0.44450000       342.69800       1.8428477     0.028060428
       804.00002       289.33590       99766.588       7901.0111       1.3582500       1.1645000    -0.014500000       341.84600       1.7983981     0.019685576
       809.00000       289.41352       99781.824       7961.4488      0.25375000       1.7920000      0.22525000       341.64800       1.8670799     0.016809763
       814.00001       289.47981       99784.078       8049.9529      0.45500000       1.1942500      0.60625000       343.79300       1.7589780     0.011753768
       819.00002       289.45809       99771.673       8130.6446      0.48075000      0.84100000      0.20200000       342.76900       1.8609301     0.012732234
       824.00000       289.44782       99764.601       8198.0083      0.11000000      0.52900000     0.064250000       342.48600       1.8291057     0.025199482
       829.00001       289.44161       99748.226       8313.2073     -0.17575000       1.0967500     0.070000000       341.19700       1.7946232     0.010411423
       834.00002       289.45146       99741.526       8365.3865      0.66350000       1.3277500      0.38850000       344.17200       1.7172251     0.017722576
       839.00000       289.42960       99740.492       8377.2460    -0.017250000      0.88350000     -0.12800000       340.69800       1.7346890     0.010860212
       844.00001       289.44205       99744.009       8348.4037      0.11425000      0.60300000     -0.19025000       340.61300       1.7915770     0.014831538
       849.00002       289.58225       99759.334       8260.1081      0.70900010      0.62200000      0.10600000       341.92500       1.9701157     0.010469671
       853.99999       289.57518       99767.200       8173.5602      0.84850000       1.4640000  -0.00075000000       342.02200       1.8075836     0.015363767
       859.00001       289.45367       99778.752       8021.7957       1.8617500      0.70100000     0.058500000       343.22900       1.8048814     0.016687736
       864.00002       289.39215       99783.289       7922.3633       2.1272500      0.43900000      0.12050000       341.22300       1.9070520     0.012238914
       868.99999       289.23777       99780.893       7835.5832       2.5392500     -0.20375000     0.024750000       341.40200       1.7804131     0.021380603
       874.00001       289.16193       99775.495       7779.1513      0.69325010      0.14350000      0.33050000       342.55800       1.7962361     0.017175415
       880.00001       289.21282       99755.508       7771.1518       2.2417500      0.34325000      0.16275000       341.66900       1.7863099     0.012432876
       885.00003       289.19896       99752.103       7747.0737       1.3682500      0.66650000    -0.074250010       341.32400       1.8514513     0.020343124
       890.00000       289.16214       99749.325       7742.1795      0.57650000      0.25400000      0.68025000       342.96300       1.7782039     0.011026528
       895.00001       289.14235       99754.515       7718.2089       1.0085000       2.0997500     -0.45700000       341.73200       1.7800694     0.011121540
       900.00003       289.11910       99784.227       7655.5741       1.4042500       2.5542500     0.015000000       342.03100       1.7623099     0.012484598
       905.00000       289.08931       99791.059       7637.9305       1.8472500       2.5050000      0.47750000       341.90600       1.8107244     0.013670557
       910.00001       289.02386       99791.094       7614.6531     -0.53500000       1.8115000      0.55250000       343.12000       1.8440683     0.018532460
       915.00003       289.04542       99785.877       7643.2979      0.25925000       2.5465000      0.23100000       342.21600       1.8483827     0.013061312
       920.00000       289.12055       99758.713       7755.0096     -0.78525000       2.6882500      0.28650000       341.67900       1.7848761     0.010741007
       925.00001       289.16425       99749.024       7804.6549      0.48350000       3.3855000     -0.20325000       341.58700       1.8515582     0.011688215
       930.00003       289.28550       99741.785       7844.9149     -0.56450000       2.1547500     -0.44075000       340.80900       1.8351125     0.013120023
       935.00000       289.33393       99743.081       7897.6559     0.012500000       2.1852500      -1.0107500       340.86000       1.8321215     0.022343405
       940.00001       289.28674       99762.226       7912.8713      0.25200000       2.1477500     -0.15325000       341.34100       1.7674783     0.023263392
       945.00002       289.30068       99768.411       7958.0619     0.086000000       2.8722500      0.35125000       343.11700       1.8277323     0.020290724
       950.00000       289.33778       99777.268       8050.6484    -0.032750000       2.8937500    -0.054750000       341.31000       1.7908387     0.015223792
       955.00001       289.35764       99777.303       8112.8851     0.013500000       2.5945000     -0.56550000       340.70900       1.9072227     0.020050856
       960.00002       289.34384       99763.016       8163.7475      0.69425000       2.9605000     -0.58825000       340.62500       1.8818568     0.015238499
       965.99999       289.43362       99756.403       8217.5643      0.94975010       2.8895000    -0.049500000       340.94300       1.8126748     0.011358443
       971.00000       289.54658       99746.994       8274.1478       1.5585000       3.2177500     0.095750000       341.05800       1.7166225     0.018482748
       976.00002       289.65824       99749.094       8278.8392       1.5707500       2.2727500     -0.59500000       340.78700       1.9202710     0.012737939
       981.00003       289.90303       99763.120       8276.5014       1.3020000       1.4295000     -0.10825000       341.47400       1.7641539     0.013715868
       986.00000       289.96561       99769.165       8206.9255      0.58000000       3.2635000      0.69050000       341.31900       1.7214438     0.011686389
       991.00002       289.90522       99783.662       8029.0697       1.3277500       2.6385000     -0.21250000       342.28500       1.8473600     0.013784451
       996.00003       289.90890       99782.860       7956.1424       1.1325000       4.4492500    -0.094500010       340.60000       1.7699341     0.028750560
       1001.0000       289.85502       99768.847       7873.2862     0.047250000       3.1017500    -0.026750000       341.48400       1.9452451     0.020829382
       1006.0000       289.83075       99761.215       7841.5109       1.3307500       3.4827500     -0.27200000       341.25700       1.8031631     0.012552183
       1011.0000       289.84506       99742.937       7914.1047      0.87700000       3.4880000     -0.77550010       341.28300       1.8798139     0.021379502
       1016.0000       289.85482       99741.627       7909.0251      0.54950000       2.9252500     -0.42425000       342.30500       1.8948458     0.014715780
       1021.0000       289.84277       99751.866       7883.7903       1.0972500       4.1097500     -0.34375000       340.66400       1.8012750     0.012407379
       1026.0000       289.84881       99758.020       7851.7983      0.65050010       3.4492500     -0.47475000       340.89600       1.7681050     0.020286414
       1031.0000       289.88783       99775.385       7785.4454      0.69325010      0.96550010    -0.058750000       341.57100       1.7776543     0.020494904
       1036.0000       289.91797       99779.813       7749.2906       1.0125000       2.5767500     -0.42150000       341.35000       1.8513127     0.021174094
       1041.0000       289.97465       99779.189       7708.1441      0.44425000       2.4330000     -0.73600010       341.63900       1.8154469     0.022646366
       1046.0000       289.94536       99773.596       7697.0576    -0.099500010       2.4762500     0.010750000       341.70300       1.9338223     0.024646552
       1051.0000       289.88222       99754.106       7734.0469     -0.14000000       2.5722500     -0.37775000       341.69300       1.9174081     0.018879996
       1057.0000       289.80444       99751.655       7710.3496      0.89925000       2.2412500      0.17375000       341.81500       1.9558658     0.018258227
       1062.0000       289.64457       99756.028       7678.8783     -0.28475000       3.1615000     -0.20425000       341.68800       1.9234227     0.010899071
       1067.0000       289.59151       99753.078       7651.6836     -0.82075010       3.5777500     -0.54500000       341.47800       1.9510984     0.017099323
       1072.0000       289.58823       99754.867       7579.1442     -0.58350000       1.8325000      0.92200010       341.29600       1.8365986     0.025028246
       1077.0000       289.59544       99757.902       7571.4161     -0.13275000       3.1612500     -0.33075000       341.25700       1.7857689     0.021345291
       1082.0000       289.64509       99754.868       7594.5998     -0.38500000       3.1740000     0.049750000       341.86500       1.7595106     0.024887189
       1087.0000       289.66528       99753.819       7635.2255     -0.37475000       2.6900000     0.099000010       341.63900       1.8312226     0.020419275
       1092.0000       289.71946       99760.014       7722.0497     -0.35300000       1.4730000     -0.21200000       341.46200       1.9382026     0.011928115
       1097.0000       289.69302       99763.151       7752.4835      0.29825000       2.0772500    -0.046250000       341.49000       1.8058877     0.023326588
       1102.0000       289.61555       99758.102       7793.0818      0.28250000       3.3837500     -0.10875000       341.28100       1.8065298     0.019737299
       1107.0000       289.55690       99761.707       7785.2193       1.5587500       3.1110000   -0.0082500000       340.62900       1.8324197     0.012738539
       1112.0000       289.44802       99778.106       7722.7933       1.0685000       1.4420000     -0.33700000       340.58700       1.8964645     0.012030437
       1117.0000       289.40570       99776.690       7683.3188       1.0625000       1.1215000     -0.14775000       341.90100       1.8762646     0.016999892
       1122.0000       289.37767       99768.066       7604.1900      0.74700000       1.2507500      0.19875000       342.40100       1.8780637     0.026179139
       1127.0000       289.40430       99761.226       7616.0796       1.4555000       1.6635000      0.35150000       341.85600       1.8370269     0.014983862
       1132.0000       289.48343       99742.376       7644.8496       1.9462500       1.9700000    -0.099750000       341.27500       1.8177348     0.022846395
       1137.0000       289.54250       99742.734       7736.3024       1.7815000       1.8247500     -0.19075000       340.55900       1.8124783     0.022869189
       1142.0000       289.63661       99752.952       7938.0155       1.5642500       1.5440000     -0.24850000       340.56100       1.8138154     0.016172115
       1148.0000       289.70082       99773.362       8049.6972      0.95075010      0.98375000    -0.057000000       340.80600       1.7741938     0.022653160
       1153.0000       289.78771       99778.951       8153.7207      0.93625000      0.85250000      0.10150000       341.15600       1.9180873     0.011284919
       1158.0000       289.98980       99771.422       8293.9157       1.0550000      0.40125000      0.47750000       341.84200       1.9598805     0.023539079
       1163.0000       290.07405       99766.742       8333.6217      0.53800000      0.65825000      0.33500000       343.26200       1.9439216     0.012292625
       1168.0000       290.10902       99759.591       8325.5460       1.7192500       1.1145000     0.038000000       341.29600       1.7655162     0.016819434
       1173.0000       290.10718       99741.022       8297.7181       1.1887500       2.0715000     -0.42050000       340.85800       1.8066868     0.019644923
       1178.0000       290.13559       99745.013       8253.8723      0.94550000      0.89300010     -0.40425000       340.97100       1.8242301     0.022436521
       1183.0000       290.08224       99759.602       8106.7846      0.37075000      0.50500000    -0.028500000       341.40500       1.8273350     0.013107007
       1188.0000       290.23056       99780.356       8099.9219      0.46375000      0.24525000      0.24575000       341.68600       1.7670532     0.020597536
       1193.0000       290.27712       99785.608       8078.7527      0.92600010     0.077250000     0.058250000       341.80800       1.8559532     0.019596680
       1198.0000       290.23972       99768.145       8058.2916       1.1115000      0.49600000     0.046750000       341.75700       1.7739444     0.018930588
       1203.0000       290.21226       99760.169       8026.4149      0.31850000       1.4412500      0.23875000       342.24200       1.8971300     0.016788439
       1208.0000       290.16017       99752.178       7989.3345     0.090000000      0.70575000     -0.66725000       341.50900       1.8301076     0.018635382
       1213.0000       290.04470       99735.196       7945.5923     -0.99575010       1.0145000      0.27500000       342.02400       1.8490140     0.023640387
       1218.0000       289.98573       99740.492       7925.2425      -1.1287500       1.8685000     -0.42200000       341.73100       1.8043099     0.015416285
       1223.0000       289.96224       99761.094       7905.6206     -0.31875000       1.3892500       1.2440000       343.41000       1.8914896     0.013488737
       1228.0000       289.82267       99775.680       7900.2016     -0.70175000       1.8702500      0.22100000       342.46400       1.8289322     0.021665883
       1233.0000       289.74044       99779.616       7878.2621     -0.98800000       2.5697500     -0.16825000       341.41300       1.9127489     0.013081210
       1239.0000       289.64241       99759.473       7812.1961     -0.89925000       2.1822500    -0.027500000       342.46000       1.9575149     0.016769889
       1244.0000       289.57568       99752.775       7768.8733      -1.1492500       1.0240000      0.40025000       342.82000       1.7492395     0.013986524
       1249.0000       289.49455       99742.213       7688.4564      -1.1570000       1.9447500     -0.29850000       340.55300       1.8130393     0.022452446
       1254.0000       289.53013       99741.895       7680.3877      -1.0260000       2.4220000     -0.29350000       341.20600       1.9234139     0.025447508
       1259.0000       289.68972       99760.727       7739.9646     -0.78275000       2.1327500      0.22750000       341.29800       1.8477358     0.020007623
       1264.0000       289.75939       99767.478       7767.1457     -0.55075000      0.88875000      0.22600000       341.20400       1.9626667     0.020920916
       1269.0000       289.91489       99778.103       7829.6768      -1.3722500      0.88500010      0.49825000       341.61100       1.8314121     0.022567892
       1274.0000       289.98971       99778.453       7880.9378      -1.3422500       1.0635000     -0.36500000       340.93800       1.8842202     0.019177323
       1279.0000       289.90999       99756.721       7892.5485     -0.28425000      0.68350010      0.39275000       341.97600       1.8537369     0.021730169
       1284.0000       289.89103       99752.089       7922.8353      -1.2972500       1.2357500    -0.067750010       340.91700       1.8029074     0.017460094
       1289.0000       289.92826       99753.400       8005.7866      -1.0035000      0.90550010      0.21850000       341.72400       1.8533304     0.032504134
       1294.0000       289.90586       99753.804       8033.5343      -1.7280000      0.69225000      0.30075000       343.23000       1.7994726     0.022090475
       1299.0000       289.84801       99771.710       8030.0444      -1.5220000      0.91375010     -0.39000000       341.48700       1.7735037     0.020060995
       1304.0000       289.79666       99773.844       8019.4982      -1.1420000      0.68825000     -0.18250000       340.56400       1.8631661     0.013237171
       1309.0000       289.67242       99758.792       7963.4694      -1.1492500      0.61525010     -0.26525000       340.53900       1.8425405     0.012944341
       1314.0000       289.62630       99753.996       7929.1907     -0.45700000      0.61300000    0.0047500000       340.72500       1.9729418     0.021093048
       1319.0000       289.65841       99742.265       7915.6162    0.0042500000      0.99700000    -0.041250000       341.14700       1.9796981     0.020656153
       1324.0000       289.64859       99741.903       7877.0844   -0.0085000000       1.2617500     -0.12325000       340.65200       1.8773650     0.013948046
       1330.0000       289.68308       99765.117       7816.4154      0.41075000      0.62025000      0.26250000       341.91300       1.9661206     0.013167299
       1335.0000       289.65183       99768.540       7766.2354      0.68850000      0.64900000      0.15900000       341.50200       1.7895995     0.011913690
       1340.0000       289.54240       99771.237       7689.9092      0.33175000      0.77150010     -0.21975000       341.27700       1.8786234     0.013398031
       1345.0000       289.47307       99766.066       7638.2847      0.13775000    -0.068000000     -0.49250000       341.64200       1.8428392     0.019031262
       1350.0000       289.37319       99736.572       7602.8629    -0.020000000      0.39750000    -0.050000000       341.88800       1.7979050     0.014260947
       1355.0000       289.32085       99729.840       7566.3046     -0.27975000     0.053750000      0.14200000       342.50200       1.8858413     0.024956067
       1360.0000       289.28009       99730.918       7513.6951      0.25125000      0.54475000     0.034500000       342.11300       1.8834712     0.019503143
       1365.0000       289.29138       99734.863       7509.7146      0.58675000      0.41900000     -0.28950000       341.37500       1.9308695     0.013327411
       1370.0000       289.36413       99760.233       7528.5151      0.72800000      0.39525000     -0.14825000       342.14700       1.8557928     0.011955249
       1375.0000       289.41788       99765.044       7562.6642      0.73825000       1.0460000     -0.32800000       340.64100       1.8498457     0.012951583
       1380.0000       289.52837       99756.564       7658.5927      0.61175000      0.72675000     -0.30925000       340.90000       1.9816813     0.020455077
       1385.0000       289.58045       99755.183       7713.3656      0.62050000       1.1270000     0.046250000       341.93600       1.9496050     0.012934145
       1390.0000       289.60931       99742.851       7773.6296      0.39975000       1.3017500     -0.16075000       340.71800       1.9604777     0.011547089
       1395.0000       289.61168       99742.825       7798.5579      0.54700010       1.0450000      0.62975000       342.77100       1.8861274     0.023199145
       1400.0000       289.57482       99759.886       7796.4016      0.19150000       1.2430000      0.23250000       342.59500       2.0076285     0.012626722
       1405.0000       289.54088       99762.751       7783.2239      0.23875000       1.6212500      0.37600000       341.82100       1.9365988     0.024027456
       1410.0000       289.44006       99765.305       7719.6697       1.9202500       1.4962500     0.037000000       341.45000       1.8619571     0.013255674
       1415.0000       289.43079       99760.405       7700.1523       1.1465000      0.34075000      0.47825000       342.88000       1.8606205     0.015268774
       1421.0000       289.49647       99732.186       7687.6122       1.3907500      0.74525000     -0.18625000       341.48500       1.8752125     0.011460500
       1426.0000       289.50654       99731.643       7688.5027      0.81100000       1.4632500      0.58950000       342.78900       1.8912230     0.012023406
       1431.0000       289.55629       99741.456       7737.0029       1.3062500      0.77425000      0.21700000       343.16000       1.8620211     0.010670770
       1436.0000       289.56378       99747.235       7729.2567       1.9300000       1.0740000     -0.15025000       341.19400       1.9174666     0.021566931
       1441.0000       289.48988       99775.985       7684.8377       2.4100000       1.5227500    0.0035000000       341.91100       1.9195706     0.010409278
       1446.0000       289.49300       99774.705       7673.9727       3.0052500      0.54025000   -0.0065000000       341.00600       1.7937413     0.015671058
       1451.0000       289.55276       99745.904       7661.4856      0.91600010       1.4872500      0.32175000       342.78400       1.8076751     0.012860128
       1456.0000       289.55653       99740.727       7635.4600       1.4440000       1.7585000      0.15825000       342.60800       1.8503977     0.020534625
       1461.0000       289.54555       99731.203       7619.0262      0.99900010       2.7092500      -1.0842500       341.14300       1.8230500     0.017236550
       1466.0000       289.55560       99733.512       7605.4648      0.19300000       2.0560000      0.40675000       341.85200       1.8439345     0.015561135
       1471.0000       289.53137       99761.836       7550.3251      0.60025000       1.4827500    -0.095500010       342.65600       1.8834521     0.018585809
       1476.0000       289.55353       99765.050       7555.8715       1.5485000       1.9877500     -0.16175000       341.28200       1.7887851     0.013164758
       1481.0000       289.62954       99757.895       7605.8075       1.3112500       1.9252500      0.21375000       341.96400       1.9863604     0.024341596
       1486.0000       289.67987       99754.619       7655.4074      0.45400000      0.67250000      0.31050000       342.75200       1.9555486     0.021625860
       1491.0000       289.71955       99737.263       7708.7862     -0.93575010      0.72825000     0.013250000       341.33200       1.8356072     0.010144412
       1496.0000       289.78641       99738.024       7810.3558     -0.68225000       1.3625000     -0.12775000       340.96000       1.8178742     0.010823875
       1501.0000       289.90723       99756.450       8005.8858     -0.58400010       1.3757500    -0.053750000       341.57100       1.9720723     0.024989648
       1506.0000       289.92873       99757.605       8062.1767     -0.33175000       1.7492500    -0.039750000       341.65900       1.9467481     0.019783968
       1512.0000       289.91440       99759.189       8100.5018      0.16025000       2.2710000     -0.22050000       341.65400       1.8964946     0.018715936
       1517.0000       289.89708       99752.806       8086.0482      0.21350000       1.8772500      0.13050000       342.76600       1.9650468     0.029471281
       1522.0000       289.79424       99725.829       7941.0414      0.54750000       2.2800000      0.22550000       341.54500       1.9003297     0.026703355
       1527.0000       289.77159       99727.771       7894.1614   -0.0097500000       2.5170000     -0.50400000       340.94800       1.8949998     0.024931860
       1532.0000       289.77201       99745.121       7865.4292      0.40000000       2.3230000     0.029500000       341.43500       1.8444333     0.018805706
       1537.0000       289.82887       99747.338       7879.4457      0.67600010       1.2367500      0.40275000       341.36900       1.9713534     0.022650807
       1542.0000       289.92862       99759.518       7927.5914     0.095500010       1.2407500     -0.24700000       341.24000       1.8835764     0.016058046
       1547.0000       290.00750       99755.477       7954.2030      0.17425000       1.4867500     -0.39525000       340.93100       1.9563660     0.010262702
       1552.0000       290.19262       99725.332       8047.0571      0.31475000       1.3300000   -0.0085000000       341.28200       1.8758870     0.010565983
       1557.0000       290.17264       99727.159       8023.3573     0.097500000      0.78375010    -0.012750000       342.42400       1.9239541     0.016643754
       1562.0000       290.01892       99744.775       7913.9331     0.087500010       1.4627500     -0.11450000       342.28900       1.9219710     0.020373979
       1567.0000       289.95068       99748.851       7865.1100     -0.20550000       1.0737500     0.098000000       343.35400       2.0614180     0.017678639
       1572.0000       289.77815       99765.426       7764.3512    -0.073750000       1.7655000     -0.21925000       341.95600       1.9440544     0.025829733
       1577.0000       289.75296       99761.118       7760.8032    -0.035250000      0.97925010      0.52100000       342.67000       1.8882809     0.013640636
       1582.0000       289.84567       99733.354       7829.5643      0.27725000       1.8730000     0.021250000       342.20400       1.8903374     0.017800161
       1587.0000       289.86551       99730.762       7860.4189      0.18375000      0.44575000      0.38750000       342.49200       1.9314043     0.017198955
       1592.0000       289.93901       99733.336       7925.9793      0.62250000       1.7970000     -0.20450000       341.59400       1.8533924     0.018052968
       1597.0000       289.87559       99735.977       7946.4460      0.25450000       1.5385000    -0.048250000       340.93500       1.8766586     0.012781461
       1603.0000       289.70518       99754.825       7943.4743      0.48725000       1.5062500     -0.18025000       341.17000       1.9232869     0.019937584
       1608.0000       289.50026       99732.279       7893.0538      0.49825000       1.5552500    -0.059500000       341.93600       1.8925912     0.011135398
       1613.0000       289.41328       99727.795       7873.1326     0.025500000      0.91550000     -0.47700000       341.09800       1.9360420     0.013902572
       1618.0000       289.40015       99728.241       7860.0495      0.21275000       1.4307500      0.17850000       341.93900       1.9229915     0.011860117
       1623.0000       289.48533       99727.307       7837.1842     0.039750000       1.1480000     -0.13725000       342.05200       1.9209247     0.014460106
       1628.0000       289.53870       99731.948       7839.1168     -0.38450000      0.47225000      0.33075000       342.46400       1.9286271     0.020994581
       1633.0000       289.66766       99754.530       7875.4019     -0.61325000      0.48125000     -0.12425000       342.59300       1.9478329     0.013378946
       1638.0000       289.65429       99738.088       7847.0400     -0.79925010      0.76800000      0.10375000       341.77000       1.9626214     0.010491414
       1643.0000       289.65551       99733.702       7855.0443     -0.35150000      0.52575000     0.047750000       342.82700       2.0129888     0.016493065
       1648.0000       289.61489       99729.309       7875.5610      0.16875000       1.9695000     -0.25800000       341.09800       1.9956423     0.011762846
       1653.0000       289.59383       99727.887       7905.4913     -0.30200000       1.5467500      0.35825000       342.97900       1.9572788     0.021154363
       1658.0000       289.58506       99731.395       7952.9105      0.10425000       1.7707500      0.10600000       341.61400       1.9174580     0.012248933
       1663.0000       289.59345       99746.692       8027.3522       1.6517500       1.4780000     0.048500000       342.00300       1.8549540     0.018736828
       1668.0000       289.61500       99750.484       8118.0443      0.64275000       2.5470000     0.088500000       341.77600       1.8647109     0.021847884
       1673.0000       289.66764       99750.919       8242.4853       1.0587500       1.6970000     -0.64150010       340.75500       1.8884032     0.014601182
       1678.0000       289.59283       99750.331       8288.2774      0.86475000       1.4855000     -0.17075000       340.72400       1.9010847     0.010740517
       1683.0000       289.55346       99750.391       8293.6513       1.1835000      0.69350000     -0.26175000       340.79500       1.9478228     0.012917898
       1689.0000       289.39942       99756.065       8118.9859       1.2835000      0.99600010    -0.086000000       341.25800       1.8701308     0.017757092
       1694.0000       289.36627       99751.582       8067.1764       1.1192500       1.3332500      0.36850000       341.68500       2.0224417     0.013157193
       1699.0000       289.49674       99730.988       8083.9907       1.1540000       1.7805000     -0.21250000       341.92300       1.9163904     0.027035631
       1704.0000       289.51435       99727.490       8065.3262      0.58100000       2.9892500     -0.26750000       341.32900       1.9669153     0.016682419
       1709.0000       289.51448       99727.507       8098.6208      0.84025000       3.0102500     -0.37600000       341.10500       1.9822891     0.012369804
       1714.0000       289.51198       99728.017       8092.2454     -0.22725000       2.3340000      0.62875000       342.47700       1.9029215     0.027142840
       1719.0000       289.37848       99750.344       7973.1404      -1.2630000      0.93300000     0.096500000       341.67500       1.8605058     0.022501272
       1724.0000       289.37453       99754.476       7970.6058     -0.22250000       1.5195000      0.41350000       343.09700       1.9178862     0.024894825
       1729.0000       289.50383       99735.686       8049.8153     -0.73775010       1.8382500     -0.10200000       341.23700       1.9799958     0.017270771
       1734.0000       289.56451       99732.993       8102.2718     -0.77225010       1.4580000      0.23575000       342.53600       2.0073997     0.011639470
       1739.0000       289.68561       99733.327       8265.3679     -0.70200000       1.7700000     -0.25700000       340.82400       2.0330937     0.016106001
       1744.0000       289.73010       99733.633       8316.3123     -0.15975000       2.1557500     -0.48675000       340.80500       1.9924499     0.021292030
       1749.0000       289.68131       99753.325       8268.4539     -0.30750000       1.3497500    -0.028000000       342.56100       2.0145860     0.014805744
       1754.0000       289.64973       99754.330       8238.5321      0.32200000       1.1987500    0.0072500000       340.77800       1.9540312     0.020890203
       1759.0000       289.59027       99731.179       8151.4368     -0.12525000       1.8625000    -0.048750000       341.73800       1.8067501     0.023429521
       1764.0000       289.54001       99727.806       8092.0221      0.57050000       1.5550000    -0.037000000       341.63000       1.8500423     0.022879991
       1769.0000       289.47515       99728.009       8048.3741     -0.45575000      0.96875010      0.42225000       343.58000       1.8958766     0.022930598
       1774.0000       289.43610       99728.499       8007.0927     -0.62250000      0.42025000      0.31050000       342.71500       1.8995014     0.014664227
       1780.0000       289.40467       99752.296       7968.6818     -0.65125000      0.41725000    -0.025000000       341.07700       1.9469897     0.026332683
       1785.0000       289.38858       99754.606       7927.5268     -0.41000000       1.2007500      0.19325000       342.16800       1.9566476     0.028834793
       1790.0000       289.37368       99734.910       7863.2035     0.079500000       1.2687500    -0.014500000       341.42600       1.9049789     0.026290483
       1795.0000       289.40057       99732.960       7845.4069      0.61850010       1.8210000     -0.22775000       341.34200       1.8984112     0.020836287
       1800.0000       289.47445       99734.255       7862.0707      0.70050000       1.9132500    -0.060500000       341.20200       2.0052432     0.018205424
       1805.0000       289.51463       99734.028       7848.2441      0.10525000       1.2112500     0.040750000       342.59300       1.8824511     0.024488899
       1810.0000       289.61459       99747.283       7865.0870     -0.18350000       1.0537500     -0.31975000       341.22300       2.0042771     0.016391335
       1815.0000       289.61988       99747.408       7847.4287     -0.35125000      0.53525000     -0.16975000       342.00400       1.9253470     0.021620554
       1820.0000       289.50975       99726.610       7758.6358    -0.090750000      0.58100000     -0.26650000       342.21900       1.8507880     0.027144969
       1825.0000       289.48309       99727.744       7730.3604     -0.19450000       1.0707500      0.31950000       343.91300       1.8893960     0.025706058
       1830.0000       289.46059       99746.738       7732.8555     -0.66825000       1.4692500     0.017500000       342.98400       1.9627738     0.014772923
       1835.0000       289.43437       99746.562       7728.0396     -0.77075000       1.4955000     -0.31700000       342.25400       2.0228301     0.017954078
       1840.0000       289.47154       99746.621       7755.6644      0.35200000       1.2402500     -0.63975000       340.73000       1.9400247     0.023026925
       1845.0000       289.45362       99747.410       7756.8872      0.72150000       1.4112500     -0.17175000       340.82600       2.0006485     0.022128807
       1850.0000       289.36705       99729.328       7731.5742      0.83175000       1.5135000    -0.052750000       340.86100       2.0096034     0.024290007
       1855.0000       289.33055       99726.587       7728.7606       1.1402500      0.87825010      0.17550000       342.39200       1.9024247     0.023333082
       1860.0000       289.30497       99748.281       7738.4690      0.75775000      0.90250000      0.20650000       341.67100       1.9859424     0.023731089
       1865.0000       289.28864       99748.055       7733.2943      0.74125000       1.3992500     -0.23625000       340.74700       1.9288255     0.023497377
       1871.0000       289.26634       99728.954       7713.4453      0.56425010      0.40325000     -0.27175000       340.87600       1.9349953     0.020810385
       1876.0000       289.31487       99728.865       7731.4989      0.54250000      0.24100000   -0.0062500000       340.88500       1.9315129     0.020666315
       1881.0000       289.42582       99727.367       7761.0857      0.15000000      0.68600000    -0.020000000       341.50700       1.9459781     0.024308831
       1886.0000       289.48526       99729.768       7782.7779      0.36525000      0.73350010     0.079750000       342.66000       1.8699536     0.024347546
       1891.0000       289.59762       99754.608       7819.9768      0.57975000       1.3332500     0.038500000       341.24300       1.9236849     0.023679437
       1896.0000       289.63858       99753.478       7875.0952      0.38475000       1.0567500    -0.094250000       341.50600       1.8760672     0.024266579
       1901.0000       289.55616       99729.256       7909.1189     -0.15175000      0.90450010     0.047500000       341.51300       1.9572556     0.021392949
       1906.0000       289.62154       99727.859       7990.8430     -0.11975000      0.81850000     0.040250000       342.92000       1.9095017     0.021185313
       1911.0000       289.76024       99730.985       8140.7145     -0.14600000      0.96975000   -0.0032500000       343.10800       1.9247951     0.019600039
       1916.0000       289.85679       99728.620       8250.8083     -0.19550000       1.6702500      0.11450000       341.70000       1.8165748     0.031599359
       1921.0000       289.99383       99737.301       8389.8766      0.58775000       1.4145000     0.090000000       342.79100       1.8099205     0.025433460
       1926.0000       290.13244       99736.773       8452.9261      0.91175000      0.85825000      0.43625000       342.45900       1.8397896     0.026280974
       1931.0000       290.25265       99716.912       8467.9695     -0.21875000       1.3845000     -0.78150000       341.19900       1.8679659     0.028040382
       1936.0000       290.36316       99717.790       8487.1208     0.095000010      0.86150000     -0.11275000       341.86800       1.8692519     0.023794567
       1941.0000       290.55953       99737.201       8470.8997    -0.074250010      0.63500010      0.95025000       342.25600       1.9524524     0.021187618
       1946.0000       290.60198       99736.629       8433.7457      -1.0695000       1.2032500      0.51350000       341.34000       1.8747497     0.023057738
       1951.0000       290.52494       99728.517       8392.9403     -0.89875010       1.9972500      0.22650000       342.07600       1.9226381     0.024744962
       1956.0000       290.48255       99731.081       8333.9762     -0.34950000      0.11400000      0.12100000       343.06700       1.9266266     0.023190316
       1962.0000       290.34745       99728.383       8195.7821      -2.0830000       1.5430000     -0.47700000       340.92300       1.8807589     0.025476196
       1967.0000       290.30547       99730.026       8139.3799      -1.1977500       1.7850000     -0.67200010       342.02800       2.0060628     0.020126882
       1972.0000       290.28769       99749.472       8111.6483      -2.2587500       2.1862500    -0.046500000       341.15100       1.9258696     0.029000356
       1977.0000       290.29485       99746.414       8072.9332      -2.2312500      0.93425010      0.48100000       341.64000       1.9612556     0.021932811
       1982.0000       290.35440       99722.613       8054.0427      -1.2397500       1.2192500      0.39750000       343.02900       1.9782004     0.019482961
       1987.0000       290.35567       99722.986       8018.1498      -1.1000000       2.3645000     -0.23650000       341.77200       1.9536977     0.021919933
       1992.0000       290.36571       99730.580       7972.2399      -2.2882500       1.5410000      0.69250010       341.93100       1.9659710     0.014614371
       1997.0000       290.33840       99729.560       7930.9391      -1.9475000       2.2967500     0.095500010       341.64400       1.8384039     0.025990560
       2002.0000       290.25853       99737.516       7876.7161      -2.8760000       1.2832500     -0.35600000       341.17300       1.9240347     0.021369433
       2007.0000       290.20841       99736.081       7863.5655      -2.7572500       1.7517500     -0.29500000       341.15500       1.9158243     0.022512270
       2012.0000       290.16896       99716.711       7878.8697      -1.0195000       1.5947500     -0.36950000       342.30500       1.9117316     0.021793889
       2017.0000       290.10079       99718.929       7859.8149      -2.1195000       1.4750000      0.29325000       341.39800       1.8414051     0.026342284
       2022.0000       289.99745       99737.817       7846.9537     -0.98075000       1.5655000     -0.30100000       341.07300       1.9435275     0.022873680
       2027.0000       289.96524       99736.348       7843.6245      -2.3495000       1.2977500     -0.13725000       341.01100       1.8800935     0.024684839
       2032.0000       289.93206       99729.356       7810.8474     -0.52350000       1.4310000      0.10825000       341.54200       1.8633839     0.026867706
       2037.0000       289.94839       99732.379       7820.4740     -0.37975000       2.6657500     -0.15100000       342.55700       1.8512251     0.022522869
       2042.0000       290.05007       99730.152       7880.0138    -0.052750000       1.8670000     -0.39475000       340.84900       2.0416298     0.011678077
       2047.0000       290.08125       99727.960       7901.8161     -0.31050000       2.0457500     0.083000000       342.34500       1.8412083     0.022875625
       2053.0000       290.11284       99737.904       7908.7537     -0.65500000       1.7472500      0.36500000       342.65500       1.8691221     0.022356804
       2058.0000       290.10025       99720.312       7991.8251     0.041500000       1.1262500      0.37975000       343.07200       1.7631762     0.028012135
       2063.0000       290.06326       99716.585       8018.5619      0.21825000       1.3942500      0.17125000       343.52700       1.8610287     0.023366811
       2068.0000       290.00164       99720.232       8027.0457     -0.28700000       2.1717500     -0.43225000       342.41100       1.8491149     0.022797501
       2073.0000       289.88919       99737.554       8042.8619     -0.31625000       1.4357500    -0.018500000       341.80100       1.8822799     0.028291118
       2078.0000       289.86153       99735.024       8022.4858      0.22875000       1.6812500      0.14250000       341.85700       1.7851887     0.026735934
       2083.0000       289.80284       99730.366       7920.3938     -0.46000000       1.8782500     -0.21650000       342.61700       1.8146081     0.026083747
       2088.0000       290.03847       99728.289       7996.0984     0.029000000       2.2422500     -0.10150000       341.68000       1.8875519     0.020777615
       2093.0000       290.19875       99723.960       8064.1828      0.12175000       2.8127500      0.49475000       342.20700       1.8788613     0.026025797
       2098.0000       290.42680       99726.940       8218.0921     -0.69175000       1.5010000      0.23725000       342.90500       1.9175852     0.024728244
       2103.0000       290.61892       99731.050       8335.1502     -0.19275000       3.0545000      0.17875000       341.61500       1.8985103     0.023908683
       2108.0000       290.77416       99733.923       8434.0016      0.69600000       1.8307500     -0.32875000       342.14200       1.9011402     0.019937007
       2113.0000       290.88023       99728.366       8519.0225    -0.093500000       1.0782500     -0.49425000       342.16700       1.8597690     0.027240176
       2118.0000       290.89336       99732.920       8541.7574     -0.46725000       1.4622500      0.69250010       343.08300       1.8886057     0.020082768
       2123.0000       290.87938       99748.814       8533.8161     0.037500000       1.1997500    -0.023750000       342.60500       1.9445188     0.012487794
       2128.0000       290.69805       99730.528       8480.5226     -0.34900000       1.5855000      0.16450000       343.22000       1.8112266     0.022523138
       2133.0000       290.58450       99727.979       8420.1908     -0.66050000       2.0860000     -0.20100000       342.52200       1.8789119     0.024604390
       2138.0000       290.52896       99732.716       8369.8945      -2.7617500       1.5405000     -0.54700010       341.85300       1.9052713     0.019925329
       2144.0000       290.43382       99729.154       8268.9634      0.60950010       1.4690000     0.020000000       343.15100       1.8133424     0.020649054
       2149.0000       290.32767       99737.587       8102.4773    -0.095250000       1.9547500      0.11850000       344.07800       1.8311133     0.020060316
       2154.0000       290.28031       99737.965       8009.8014     -0.66575000       3.5280000      0.51150000       342.51000       1.8676473     0.031602042
       2159.0000       290.26790       99714.257       7939.7214      -1.4022500       1.1902500     -0.19100000       342.31000       1.9731381     0.011360404
       2164.0000       290.23934       99711.268       7873.4507     -0.65525000       3.7262500     -0.14300000       342.23400       2.0672437     0.017304043
       2169.0000       290.24173       99730.516       7833.8693     -0.60625000       3.3272500    -0.070000000       341.41400       1.8607152     0.028040486
       2174.0000       290.25198       99732.124       7824.6334      -1.0500000       3.2630000    -0.090500000       341.84900       1.8605877     0.014740250
       2179.0000       290.24419       99726.848       7842.6539      -1.5255000       3.0820000      0.17650000       341.88700       1.8388629     0.019306983
       2184.0000       290.24533       99730.769       7841.0301      0.85675000       2.6922500     0.017750000       343.12000       1.8850249     0.018827102
       2189.0000       290.27649       99732.027       7882.4385     -0.36075000       2.5512500      0.44850000       342.39600       1.7549370     0.013767889
       2194.0000       290.30636       99729.172       7889.4975     -0.12400000       3.6510000     -0.67125000       341.40500       1.8236223     0.019036670
       2199.0000       290.33294       99736.446       7834.1428      0.99200000       2.7595000      0.57775000       343.18900       1.8527701     0.018251109
       2204.0000       290.35281       99737.889       7815.1149    -0.046500000       5.7330000     -0.65150000       341.05800       1.9443933     0.011663185
       2209.0000       290.36234       99720.434       7786.2719     -0.64625000       4.4002500     -0.28650000       340.98800       1.9915519     0.020522157
       2214.0000       290.40423       99717.032       7801.6730      -1.2815000       3.7932500      0.17600000       341.82000       1.8898842     0.037775194
       2219.0000       290.48330       99731.395       7860.6191      0.40050000       2.9997500      0.17275000       341.54600       1.8433407     0.026094812
       2224.0000       290.51238       99732.075       7915.5368     -0.63250010       4.3790000     -0.25000000       341.49900       1.8727163     0.032357098
       2230.0000       290.53958       99722.769       8030.5742      0.12800000       3.4695000     0.082750010       342.02100       1.9384082     0.022362391
       2235.0000       290.56558       99725.532       8098.4253      0.55950000       4.1857500     -0.18075000       341.54400       1.8288568     0.022497699
       2240.0000       290.55665       99732.136       8171.5975      0.67525010       3.9860000     -0.24775000       340.70700       1.9163438     0.026035450
       2245.0000       290.54697       99729.758       8198.8480      0.40500000       2.3432500     0.030750000       341.46600       1.9239845     0.023141852
       2250.0000       290.61213       99729.627       8201.8865     -0.11700000       1.7340000     -0.15225000       341.05100       1.8547553     0.024427902
       2255.0000       290.55301       99732.334       8180.4929      -1.1385000       2.1130000     0.068500000       341.71500       1.9326801     0.015655990
       2260.0000       290.36680       99726.392       8105.2547      0.78100000       3.1260000     -0.27075000       341.51500       1.9861665     0.027825707
       2265.0000       290.25631       99723.077       8046.9803      0.89775000       2.5307500     -0.19725000       341.64900       1.8430630     0.023688567
       2270.0000       290.08098       99732.382       7965.6342     0.038500000       1.4212500     0.090500000       343.06200       1.9070573     0.024175578
       2275.0000       289.99489       99731.947       7913.7885     -0.48400000       2.0052500    -0.027750000       342.77300       1.9882323     0.023220568
       2280.0000       290.03080       99713.671       7893.8977      0.48000000       1.4730000     0.047250000       342.44100       1.9692480     0.026647243
       2285.0000       289.98729       99712.620       7838.3674       1.0682500       2.4565000      0.21475000       342.12500       1.7641779     0.020396854
       2290.0000       289.95239       99728.625       7780.8471      0.95525000       2.5177500      0.34625000       342.52700       1.8759635     0.027902617
       2295.0000       289.88435       99726.013       7718.8266      0.79325000       2.3960000     -0.24225000       342.88000       1.8292346     0.024670566
       2300.0000       289.70911       99713.272       7599.7835      0.69125000       2.4542500     -0.48125000       340.75800       1.8988008     0.023972670
       2305.0000       289.66413       99715.069       7552.9744     -0.45325000       2.0730000    -0.072500010       341.86100       1.8498459     0.011813198
       2310.0000       289.68661       99718.329       7552.6160      0.50850000       2.2955000     -0.11975000       341.90300       1.8872193     0.026476091
       2315.0000       289.69389       99713.305       7545.6660      0.54525000       2.3327500     -0.42400000       342.61500       1.8562081     0.030002851
       2321.0000       289.82101       99713.285       7585.3823      0.63000010       2.3142500     -0.64700000       340.77200       1.8379464     0.025741116
       2326.0000       289.81558       99718.203       7589.6593     0.097750010       2.3692500      0.11850000       342.00000       1.9419446     0.013057370
       2331.0000       289.72753       99715.257       7573.9723      0.45350000       1.6850000     -0.25625000       341.09900       1.9250598     0.014260200
       2336.0000       289.67187       99713.554       7571.5071     0.049000000       1.3750000     -0.29950000       340.77500       1.9070235     0.022484689
       2341.0000       289.56050       99724.007       7563.7744    -0.028250000       1.6935000    -0.037000000       342.00400       1.9439309     0.021811424
       2346.0000       289.51297       99729.684       7565.1917     -0.58650000       1.5062500      0.27000000       341.61000       1.9675005     0.013761010
       2351.0000       289.50144       99725.247       7564.0016      0.37875000       1.8122500     -0.15750000       340.78500       1.8694567     0.010977039
       2356.0000       289.48759       99723.726       7590.7157      0.45025000       1.3912500     -0.33425000       341.11100       1.9667807     0.012851462
       2361.0000       289.47779       99732.629       7628.2271      0.29300000       1.6132500     -0.53275000       340.87100       1.9037158     0.014301155
       2366.0000       289.51015       99731.170       7682.5959      0.34200000       1.1485000     0.096750010       341.26600       1.8916566     0.014417798
       2371.0000       289.56119       99712.871       7791.4782      0.12250000       1.0375000     -0.20400000       340.76100       1.8534011     0.023136934
       2376.0000       289.63289       99712.966       7835.4845     -0.16475000      0.63200000     -0.28125000       340.96600       1.8537517     0.020621692
       2381.0000       289.78124       99728.504       7853.0328    -0.075750000      0.45000000     -0.18450000       341.64000       1.7836134     0.016540213
       2386.0000       289.84864       99724.889       7883.8753    -0.026500000      0.61975000      0.18750000       341.92300       1.8438042     0.020724337
       2391.0000       289.88707       99713.432       7868.9848      0.83675000      0.35875000      0.17475000       342.58200       1.8858927     0.019213648
       2396.0000       289.93126       99715.727       7910.9642      0.49250000       1.1045000   -0.0097500000       341.33100       1.9326628     0.020130930
       2401.0000       289.96517       99717.332       8036.6436      0.93500010      0.63550000      0.48425000       342.20800       1.8138129     0.016506953
       2406.0000       289.95294       99712.289       8051.9857      0.34125000      0.91225000    -0.095750000       341.43000       1.8201464     0.021442394
       2412.0000       289.91066       99714.268       8025.6501     -0.16575000      0.80650000     -0.31025000       340.99400       1.8004493     0.012542676
       2417.0000       289.88184       99719.187       8000.4904     -0.22575000      0.76300000    0.0067500000       341.85600       1.8082172     0.025441749
       2422.0000       289.77633       99716.346       7886.1013    -0.057750000      0.43300000     -0.42025000       341.23800       1.8174320     0.021498643
       2427.0000       289.79081       99711.415       7882.6653      -1.0035000      0.70225000     -0.32875000       341.74100       1.8867454     0.023175591
       2432.0000       289.86153       99714.479       7926.1421      -1.9192500      0.77025000     -0.14225000       341.27500       1.8197886     0.016436097
       2437.0000       289.95852       99719.382       7987.9568      -2.1835000       1.4570000     0.093500000       342.23100       1.9158333     0.013205407
       2442.0000       290.11664       99714.561       8094.3261      -1.8172500      0.90300010     -0.13750000       341.11300       1.8557716     0.021076033
       2447.0000       290.25622       99713.231       8196.1719      -1.6842500      0.98325000     -0.27125000       340.84800       1.8682660     0.023978856
       2452.0000       290.45875       99726.907       8350.8900      -1.2642500      0.85925010     -0.47775000       340.79100       1.8839106     0.011639223
       2457.0000       290.53453       99728.461       8414.3313     -0.58075000      0.47700000     -0.17125000       340.87100       1.8397349     0.015781295
       2462.0000       290.56281       99714.153       8451.2635     -0.37600000      0.37350000      0.10350000       341.01000       1.8905482     0.017406517
       2467.0000       290.57647       99712.781       8467.8299      -2.1185000       1.2195000     0.095500010       342.16700       1.7908757     0.028466563
       2472.0000       290.49686       99721.521       8403.2982      -1.1905000      0.33725000      0.31575000       341.90500       1.9125393     0.021595910
       2477.0000       290.48570       99720.696       8416.6087      -1.2697500     -0.10625000    -0.082750010       341.67100       1.9908608     0.030300286
       2482.0000       290.52594       99714.926       8482.5439      -1.3265000     -0.24800000      0.12250000       341.96400       1.8587633     0.012834679
       2487.0000       290.46911       99714.880       8456.8188      -1.6602500     -0.69700000      0.11250000       341.29800       1.8467472     0.017539873
       2492.0000       290.34184       99717.257       8392.6421      -1.8182500     -0.21700000    -0.094250000       341.97900       1.8002665     0.020601765
       2497.0000       290.31917       99712.483       8383.7059      -3.1977500      0.45200000     -0.22050000       341.92200       1.8451992     0.028763815
       2503.0000       290.30567       99702.961       8359.4113      -2.2520000       1.3095000     -0.13400000       341.00900       1.7461352     0.016279132
       2508.0000       290.25027       99717.306       8296.6488      -1.5817500      0.76525000      0.45150000       342.32500       1.8176391     0.011834011
       2513.0000       290.21329       99716.538       8234.1791      -1.2100000      0.53525000     -0.11375000       342.91100       1.7965885     0.020712091
       2518.0000       290.15167       99713.298       8137.4333     -0.94000010      0.52825000    -0.079000000       341.93300       1.8826759     0.026976782
       2523.0000       289.96879       99715.468       7923.6310     -0.67475000      0.23850000      0.16150000       341.81300       1.7292637     0.012561403
       2528.0000       289.95581       99720.349       7855.4284    -0.087000000      0.34400000     0.077500000       342.79400       1.8078919     0.030820933
       2533.0000       290.05594       99715.299       7847.0703     -0.63675000      0.52150010    -0.094750000       341.24600       1.7021648     0.012810838
       2538.0000       290.04010       99710.001       7893.1590    -0.041250000      0.48525000     0.011250000       341.48700       1.7934022     0.027119174
       2543.0000       290.05009       99714.856       7911.6246     -0.50675000      0.44125000     -0.23600000       341.52400       1.8963682     0.027922058
       2548.0000       289.99968       99720.290       7924.2608      -1.0087500      0.32850000    -0.075500000       342.47200       1.7856850     0.015840038
       2553.0000       290.02446       99715.372       7966.0637     -0.63600000      0.49050000    -0.093500000       341.40800       1.8635061     0.027018528
       2558.0000       290.09841       99710.453       8016.2476      -1.2885000     -0.29175000      0.13425000       342.52600       1.8495706     0.026853142
       2563.0000       290.24777       99715.635       8060.4766      -1.1257500     -0.23350000      0.10700000       342.33200       1.7220693     0.020131931
       2568.0000       290.33877       99720.613       8101.3858     -0.71225010      0.63900010      0.43375000       342.01500       1.7757169     0.020677389
       2573.0000       290.45691       99715.258       8171.4661      -1.0092500      0.55675000     -0.30025000       341.48700       1.9548700     0.028672013
       2578.0000       290.57575       99710.008       8212.7565     -0.11250000      0.66650000    -0.065750000       342.31800       1.7402754     0.020184168
       2583.0000       290.62033       99714.874       8238.1116     -0.19050000       1.1320000   -0.0077500000       342.04900       1.7373573     0.021884208
       2588.0000       290.59551       99720.253       8264.0326     -0.30675000      0.55725000      0.43025000       342.33700       1.9359964     0.025084859
       2594.0000       290.60725       99714.324       8294.8849     -0.74775000      0.73525010     -0.12300000       341.51000       1.7588874     0.022916801
       2599.0000       290.55337       99711.211       8291.2427     -0.73125000      0.24650000     0.088250000       342.65800       1.7213907     0.026462609
       2604.0000       290.53576       99716.167       8298.8867      -1.7575000       1.0320000     -0.17350000       340.97500       1.8753008     0.020397303
       2609.0000       290.60526       99718.906       8353.6093     -0.94175000      0.52300000      0.34175000       342.40000       1.8211103     0.017980576
       2614.0000       290.61281       99713.838       8348.3077     -0.78275000      0.67275010      0.28225000       342.74600       1.9979228     0.014399699
       2619.0000       290.56613       99711.255       8285.7882      -1.9647500       1.3222500     -0.55325000       341.31000       1.8718486     0.038772915
       2624.0000       290.54614       99716.427       8254.2710     -0.72725000       1.6872500     0.020250000       341.44400       1.8999125     0.037033712
       2629.0000       290.53839       99719.426       8218.3089     0.071250010      0.73900000      0.14575000       342.57700       1.7710515     0.019496809
       2634.0000       290.49737       99714.444       8163.0457     -0.64600000       1.8517500     -0.23750000       341.39100       1.8798852     0.021361862
       2639.0000       290.45989       99711.250       8123.3713     -0.36275000       1.6095000     -0.26875000       341.62700       1.7499302     0.019598316
       2644.0000       290.39764       99716.207       8066.3890     -0.34600000       1.3152500      0.33400000       341.85200       1.8235219     0.025840009
       2649.0000       290.22345       99718.865       7932.2666     -0.77475010       2.4245000     -0.31900000       341.73600       1.8228292     0.023394621
       2654.0000       290.16920       99713.798       7874.4307     -0.29900000       3.0045000     -0.33225000       342.72900       1.7338297     0.019149399
       2659.0000       290.18874       99711.297       7855.8101       1.5200000       2.0660000     -0.45725000       342.71000       1.7232505     0.021289035
       2664.0000       290.19146       99716.468       7848.1492      0.99550000       1.4217500      0.61500000       343.13600       1.7869040     0.019170671
       2669.0000       290.23919       99719.226       7880.3304      0.65525000       2.9967500      0.17000000       341.53000       1.8276990     0.024045103
       2674.0000       290.31062       99714.201       7923.4995       1.3107500       2.8437500      0.24725000       341.24900       1.7662394     0.021438593
       2679.0000       290.41716       99714.247       8007.4562      0.96725000       2.6672500     -0.10150000       341.93900       1.7993851     0.019774368
       2685.0000       290.47354       99717.199       8056.3859      0.22400000       2.5290000     -0.65375000       341.45100       1.7580567     0.020449932
       2690.0000       290.56017       99707.991       8088.7384    -0.086500000       1.8835000      0.53400000       343.22900       1.8182609     0.023297818
       2695.0000       290.57556       99701.725       8126.5008     -0.20525000       2.7745000     -0.16875000       341.82000       1.8191882     0.025179385
       2700.0000       290.48093       99700.993       8139.2224     -0.27900000       1.3055000      0.83625010       342.37200       1.8091198     0.021623508
       2705.0000       290.43054       99706.780       8150.9487      0.89150010       1.0147500     0.040500000       342.75600       1.7249763     0.021594468
       2710.0000       290.36779       99717.185       8200.5490     -0.37450000       1.0487500      0.16675000       343.29300       1.8475278     0.018267397
       2715.0000       290.33130       99715.388       8192.5586     -0.34200000       1.4610000     -0.13200000       343.64800       1.7765099     0.018176477
       2720.0000       290.25268       99711.904       8097.2401       1.8430000       3.1305000     -0.21950000       341.87000       1.7673280     0.025674067
       2725.0000       290.29016       99716.808       8083.3476      0.83975010       2.2460000      0.42600000       342.77600       1.7754971     0.019268618
       2730.0000       290.45241       99718.314       8083.3472       1.0097500       3.4760000     -0.17575000       342.12500       1.8000473     0.016206639
       2735.0000       290.53186       99713.378       8098.2140     0.090000000       4.0465000      0.58675000       342.81500       1.8204498     0.018837978
       2740.0000       290.66739       99715.437       8183.9049      0.58150010       2.5240000     0.055500000       342.39900       1.7088314     0.037457739
       2745.0000       290.74571       99717.713       8227.0693      0.46900000       1.1302500      0.33500000       343.53400       1.8175689     0.021229249
       2750.0000       290.69993       99708.158       8241.5215    -0.067000000       1.3755000      0.53950000       343.94900       1.8110786     0.022106877
       2755.0000       290.76180       99701.840       8276.0453      0.67275010       3.3405000     -0.35000000       341.36400       1.8470331     0.023788799
       2760.0000       290.92473       99700.762       8324.0499       1.6222500       2.2187500      0.57100000       343.07200       1.7840381     0.025781926
       2765.0000       290.98800       99706.436       8353.0507     -0.87875000       2.2655000    -0.076250000       342.55400       1.8664335     0.019829439
       2770.0000       291.08672       99717.339       8389.1046     -0.37425000       3.2165000     -0.27525000       341.71200       1.7171100     0.013174423
       2776.0000       291.06237       99714.988       8402.7423      -1.0377500       2.2190000     -0.21150000       342.74200       1.8742504     0.019526175
       2781.0000       290.87519       99713.206       8378.0599     -0.45050000       1.6402500     -0.13775000       342.98300       1.7929312     0.023914953
       2786.0000       290.80196       99718.125       8375.0360     -0.19950000       2.3675000     -0.62400000       342.00300       1.7805458     0.018753480
       2791.0000       290.69111       99717.194       8366.4848      0.49025000       2.6482500      0.39500000       343.17600       1.7642414     0.013450082
       2796.0000       290.66664       99712.268       8368.0305      0.78100000       3.0712500   -0.0062500000       341.57500       1.9069779     0.027070198
       2801.0000       290.77551       99715.461       8400.2148      0.14200000       1.7007500      0.50650000       341.95900       1.8390693     0.018243963
       2806.0000       290.74680       99717.318       8382.7023      -1.0972500       1.6977500    -0.092750010       342.08300       1.8385639     0.018617671
       2811.0000       290.70506       99706.543       8367.1441     -0.99675010       1.9532500      0.12325000       342.55300       1.7796935     0.026039154
       2816.0000       290.61068       99700.703       8293.0075      0.12475000       2.2260000     -0.76225010       341.14400       1.8499499     0.018052157
       2821.0000       290.36491       99704.162       8128.8504      -1.4430000      0.93150000    -0.078750010       341.88600       1.8117463     0.017593490
       2826.0000       290.28059       99707.169       8053.6151     -0.97450010       1.0487500    -0.053000000       342.04400       1.7796692     0.021210326
       2831.0000       290.19668       99706.525       7948.6748     -0.32575000       1.7535000     -0.32225000       342.06200       1.8298716     0.017298558
       2836.0000       290.24216       99703.618       7935.3541     -0.69575010       1.4245000    -0.054000000       341.82600       1.8616183     0.027147527
       2841.0000       290.52161       99705.188       8042.9987     -0.75375000       1.8607500     -0.22400000       341.64100       1.8065527     0.016173888
       2846.0000       290.53350       99706.625       8054.4932     -0.62975000       1.9582500      0.38900000       341.92200       1.7442671     0.020796711
       2851.0000       290.48411       99698.960       8067.2259     -0.65150000       2.4080000     -0.19675000       341.97100       1.8229575     0.019341846
       2856.0000       290.43925       99698.823       8060.8324     -0.22100000       3.6222500      0.21225000       341.11000       1.8533903     0.023687691
       2862.0000       290.17572       99713.637       7971.9997     -0.61150000       2.4800000     0.013500000       341.06500       1.8359497     0.028102056
       2867.0000       290.13917       99710.263       7983.5018     -0.48225000       2.2272500     -0.17825000       341.11900       1.7859165     0.016496294
       2872.0000       290.22795       99695.625       8036.9712    0.0080000000      0.75725000     -0.14950000       340.90400       1.8395790     0.024157247
       2877.0000       290.28487       99691.499       8087.7741      0.28700000       1.0502500     -0.17650000       340.98300       1.7599471     0.020174546
       2882.0000       290.41187       99685.116       8195.8282      0.52925000      0.69750010     -0.11150000       341.23400       1.8132530     0.013377859
       2887.0000       290.42537       99682.010       8229.8447     -0.27575000       1.0807500      0.10125000       341.43700       1.8377460     0.021256323
       2892.0000       290.40440       99682.519       8234.0674     -0.46250000      0.87925000     -0.20450000       341.30600       1.8649048     0.022491051
       2897.0000       290.40597       99689.239       8248.7143     -0.53075000      0.82650010      0.11850000       342.45200       1.8685817     0.032907202
       2902.0000       290.31388       99701.318       8222.5152     -0.35975000      0.70250000     -0.17225000       341.46800       1.8581083     0.031474015
       2907.0000       290.36724       99702.571       8249.8812     -0.30250000      0.81700000     -0.15825000       341.13200       1.8393758     0.011143791
       2912.0000       290.55050       99705.196       8319.2928     -0.66150000      0.46725000      0.24475000       342.58400       1.9222311     0.028318085
       2917.0000       290.60281       99709.371       8346.2027     -0.87575010      0.53250000      0.36950000       342.30200       1.8328193     0.030840432
       2922.0000       290.65483       99706.723       8383.0177     -0.68275000       1.5147500      0.21675000       343.79600       1.7448220     0.011870195
       2927.0000       290.68683       99701.851       8384.7968     -0.21900000      0.86950000     -0.20025000       341.29700       1.7970565     0.031268601
       2932.0000       290.63474       99699.153       8335.8653      0.30350000      0.69950000      0.16425000       341.94300       1.8566793     0.030714194
       2937.0000       290.66236       99702.083       8346.0415       1.1025000       1.1217500      0.39225000       343.24400       1.8123098     0.018327146
       2942.0000       290.77692       99701.182       8383.8682       1.0697500       1.4497500      0.41950000       342.92800       1.8695958     0.027776330
       2947.0000       290.75227       99697.173       8375.6082       1.4025000       1.8560000     -0.52275000       342.44200       1.8970051     0.019413097
       2953.0000       290.64990       99700.313       8365.8382       2.0687500       2.1835000    -0.079000000       341.00500       1.7906524     0.020027148
       2958.0000       290.58990       99704.423       8357.5478       1.8217500       1.6460000      0.17375000       341.79300       1.8396320     0.019338032
       2963.0000       290.53778       99700.512       8338.9942       1.7705000       1.5005000    -0.055250000       341.50300       1.7902023     0.020187292
       2968.0000       290.51036       99696.601       8326.1083       1.4095000       1.8907500     0.042750000       341.80300       1.8905487     0.019703320
       2973.0000       290.57088       99701.013       8355.6640       1.2072500       1.3932500     -0.43600000       341.09200       1.8703467     0.028429596
       2978.0000       290.51646       99702.763       8321.8867       1.4242500       1.0390000      0.22775000       342.28500       1.8428036     0.033805785
       2983.0000       290.41293       99694.203       8247.2263       2.2132500       2.2382500     0.012250000       341.33000       1.8153583     0.022877625
       2988.0000       290.23836       99699.470       8160.6690       2.3355000       3.2895000     -0.21325000       342.06200       1.8729293     0.028144678
       2993.0000       290.13429       99701.804       8104.7074      0.90275000       3.2077500     -0.29075000       342.40700       1.8671841     0.033863349
       2998.0000       289.99955       99690.330       8037.7558       2.1452500       2.5987500      0.53825000       341.95000       1.8282324     0.025698985
       3003.0000       289.96281       99687.924       8010.0887      0.72075000       1.5470000      0.53700000       342.92900       1.8648595     0.036916190
       3008.0000       289.99993       99690.435       8012.7037       1.2230000       2.5680000      0.46850000       342.66700       1.7944728     0.018957889
       3013.0000       290.15411       99702.093       8063.5239      0.86000000       2.9332500      0.15475000       342.52300       1.8317251     0.027815115
       3018.0000       290.19316       99699.623       8070.1447       1.6005000       3.6580000     -0.29900000       342.41400       1.9236451     0.021483693
       3023.0000       290.27323       99694.034       8093.1487       2.2852500       2.6670000     -0.42125000       341.42700       1.8429794     0.021632262
       3028.0000       290.16947       99702.935       8048.3574       1.7527500       3.3580000     -0.49000000       341.78100       1.8644132     0.024307895
       3033.0000       290.13636       99701.161       8028.0834      0.40125000       1.7430000      0.63600000       342.55500       1.7078091     0.020813549
       3038.0000       290.10031       99696.378       8007.4118       1.0910000       3.9235000     -0.25125000       341.74300       1.7751279     0.018413745
       3044.0000       290.13687       99701.098       8006.8425       1.5462500       3.0802500     -0.32025000       341.80800       1.7520905     0.024599675
       3049.0000       290.24946       99702.286       7998.2414      0.83175000       3.7625000     -0.50050000       341.73200       1.8466372     0.031168812
       3054.0000       290.36105       99699.539       8050.0453       1.6072500       3.4677500     -0.28625000       341.48700       1.7687253     0.026358067
       3059.0000       290.54022       99703.525       8160.1702     0.055000000       2.4290000      0.71600000       342.29100       1.9687679     0.028662801
       3064.0000       290.67876       99707.256       8261.1540       1.4842500       2.8612500     -0.33400000       341.88100       1.8786815     0.038120550
       3069.0000       290.85068       99702.835       8450.0232      0.80875000       2.8842500     -0.26850000       341.65400       1.9435654     0.029362328
       3074.0000       290.93624       99698.842       8555.8241      0.16075000       2.2332500     0.065000010       341.79200       1.7972179     0.031624174
       3079.0000       291.00245       99701.467       8638.5166     -0.34075000       2.9110000     0.050500000       341.12800       1.9572584     0.029615380
       3084.0000       290.97619       99701.271       8656.5901      0.72975000       2.5307500      0.62375000       342.65300       1.7602354     0.013090726
       3089.0000       290.80189       99688.064       8580.5974       1.0580000       3.5150000     -0.81150000       341.51700       1.8488757     0.029910088
       3094.0000       290.68169       99687.718       8522.0458       1.5185000       3.5202500     -0.16050000       341.49800       1.9467974     0.034149630
       3099.0000       290.44247       99709.230       8391.9436       1.0352500       2.3162500      0.25225000       342.57000       1.8928289     0.026314399
       3104.0000       290.35092       99708.419       8319.1299      0.32825000       2.0852500      0.35775000       341.73400       1.8541142     0.020500480
       3109.0000       290.37415       99688.592       8277.3436      0.76325010       1.4877500    -0.056500000       342.58900       1.8818670     0.017697592
       3114.0000       290.38798       99689.164       8239.7165      0.38800000       2.3080000    -0.025000000       342.01200       1.9350516     0.030944592
       3119.0000       290.47407       99692.509       8206.8181      0.53225000       2.8150000     -0.50075000       341.17200       2.0141333     0.014201501
       3124.0000       290.56580       99688.825       8211.9677      0.34150000       2.4497500     -0.20200000       341.55600       1.7980769     0.039578385
       3129.0000       290.67967       99696.710       8214.8773      0.62300000       3.0225000     -0.32550000       341.13800       1.8006057     0.025698419
       3135.0000       290.78703       99704.138       8296.8104      0.87175010       1.9005000      0.47825000       342.04500       1.9768065     0.027330943
       3140.0000       290.94905       99696.212       8492.6064     0.026500000       1.6715000     -0.38150000       341.06200       1.8581336     0.030812063
       3145.0000       290.99052       99692.909       8581.6906     -0.11875000       1.2032500      0.12000000       341.96800       1.9268653     0.014407565
       3150.0000       290.94781       99701.408       8677.5235     -0.10675000      0.68175010      0.79675000       343.12100       1.8044930     0.011678205
       3155.0000       290.89621       99702.299       8719.9406      0.85375010       1.0515000     -0.35500000       341.38200       1.8169076     0.032416351
       3160.0000       290.78594       99688.823       8697.8138      0.74375000       2.0715000      0.13575000       341.64100       1.9669263     0.035530545
       3165.0000       290.65745       99688.312       8636.4956      0.32250000       2.2322500     -0.12825000       341.23100       1.8545087     0.024585999
       3170.0000       290.46766       99701.750       8522.4433      0.62975000       1.8075000     0.079750000       342.10100       1.8859365     0.025840111
       3175.0000       290.34039       99701.635       8429.0075     -0.23625000       1.1912500     -0.12625000       341.71400       1.8146560     0.033690829
       3180.0000       290.19468       99692.603       8264.7121     -0.57550000      0.98600010      0.38625000       342.27200       1.8297793     0.032084311
       3185.0000       290.09687       99695.246       8171.7205     -0.41300000       1.6672500     0.082250010       342.21200       1.9599736     0.025754818
       3190.0000       290.08106       99702.120       8137.6402     -0.99450000      0.90150000    -0.072250000       341.74100       1.7477546     0.021387310
       3195.0000       290.03090       99699.774       8086.5997     -0.55100000       1.0257500    -0.095000010       340.97300       1.7064206     0.017361599
       3200.0000       289.95470       99699.150       8048.7403     -0.21625000       1.1805000     -0.37575000       341.89400       1.7899584     0.023641009
       3205.0000       289.93231       99701.897       8012.4355      0.17125000      0.91575000     -0.22500000       341.14500       1.8437206     0.026527062
       3210.0000       289.95672       99696.576       7971.3391      0.11350000      0.67575000     -0.20700000       342.09100       2.0107463     0.020220723
       3215.0000       289.94695       99693.393       7945.9235     -0.42750000      0.31650000      0.14825000       342.41800       1.8406514     0.019994762
       3220.0000       289.94441       99702.389       7922.6143     -0.40300000      0.38125000     -0.30025000       340.99900       1.7806856     0.015272144
       3226.0000       289.95649       99701.090       7927.8533     -0.40450000      0.17225000     -0.12225000       341.11600       1.9451091     0.031245533
       3231.0000       289.93082       99682.987       7966.5623      0.12050000     -0.15175000     -0.19175000       341.23200       1.8594354     0.030866205
       3236.0000       289.95250       99683.092       7978.2257    -0.055750000     -0.17550000      0.29850000       342.11900       1.9638965     0.033661323
       3241.0000       290.05233       99698.529       7988.5046      0.37125000     -0.14125000      0.52700000       344.14600       1.8189108     0.024846365
       3246.0000       290.06984       99694.997       8016.2923      0.96700010     -0.77350000     -0.58525000       341.86100       1.7675151     0.022020587
       3251.0000       290.06818       99683.624       8047.5692       1.0140000      -1.1365000      0.25300000       341.64400       1.8950194     0.026080703
       3256.0000       290.04588       99686.001       8060.3891       2.4055000      0.11050000      0.22675000       343.31000       1.7164505     0.019369786
       3261.0000       289.95829       99684.011       8089.1077      0.35900000      0.96625010      0.51950000       344.56800       1.8186921     0.014366960
       3266.0000       289.92429       99683.779       8099.1417     0.035750000       1.3690000     0.099250000       342.11200       1.8892387     0.023494999
       3271.0000       289.88959       99702.563       8065.5746     0.079750000       1.2500000      0.11375000       342.58800       1.9831704     0.020759194
       3276.0000       289.89208       99703.777       8067.4873     -0.59575000       1.6422500     -0.14675000       342.63000       1.6954848     0.027150982
       3281.0000       289.91770       99682.624       8082.6833    -0.023000000       2.0290000    -0.081750010       341.84800       1.8019824     0.026350358
       3286.0000       289.97071       99682.761       8108.8684    -0.040750000       1.6517500     -0.46850000       341.65300       1.7878700     0.022348621
       3291.0000       290.07218       99698.508       8146.1494      0.17150000       3.0027500     -0.37800000       342.42400       1.8366888     0.029761134
       3296.0000       290.14260       99694.958       8186.9687     0.096000000       2.2330000    -0.098500010       342.66600       1.8579257     0.021614729
       3301.0000       290.20863       99683.207       8246.5256       1.0317500       1.4587500      0.65800010       342.95100       1.7321565     0.021308758
       3306.0000       290.30497       99685.463       8295.5588       1.3240000       2.5552500     -0.34625000       341.64900       1.7583295     0.033245963
       3311.0000       290.40377       99681.926       8333.9148       1.1460000       3.2867500     -0.16525000       342.08100       1.8769124     0.032822564
       3317.0000       290.53171       99686.533       8406.0398      0.25525000       1.9387500      0.83550010       343.35300       1.9862105     0.032750023
       3322.0000       290.70970       99714.485       8493.1439     -0.81475000       2.4507500     -0.39750000       342.74700       1.8927875     0.032289513
       3327.0000       290.76471       99714.604       8528.1880      0.13350000       1.8675000     0.068250000       342.23800       1.9802241     0.034554506
       3332.0000       290.77897       99693.909       8583.0875    -0.017000000       3.5825000     -0.46875000       341.34200       1.9081712     0.039377136
       3337.0000       290.74288       99693.524       8543.0844      0.45150000      0.80200000      0.41025000       342.27100       1.9218674     0.030657241
       3342.0000       290.61434       99695.963       8421.6444       1.8292500       1.5040000      0.17625000       341.59500       1.9590641     0.026517275
       3347.0000       290.54404       99692.974       8336.7288       2.4652500       2.6970000     -0.45925000       341.42800       1.9487950     0.031178223
       3352.0000       290.43824       99696.308       8196.4234       2.8942500      0.69300000      0.44800000       341.62800       1.9115270     0.031471458
       3357.0000       290.41428       99695.609       8136.6075       2.7870000       2.6330000      0.46875000       341.84700       1.9397936     0.031272540
       3362.0000       290.44258       99682.212       8121.8123       1.8707500       2.0850000      0.11100000       341.55600       1.9066456     0.020873175
       3367.0000       290.45096       99684.542       8087.7523       1.2747500       2.3852500      0.18375000       342.43200       1.8085225     0.021559013
       3372.0000       290.49396       99704.533       8063.8117      0.18600000       2.2065000     0.037500000       342.38700       1.9776322     0.024927510
       3377.0000       290.52420       99700.249       8072.0842    -0.021250000       1.8022500     -0.22450000       341.67500       1.8603601     0.031531886
       3382.0000       290.58054       99683.549       8113.8441      0.43900000       1.1557500      0.36475000       341.98300       1.8959106     0.031091083
       3387.0000       290.52477       99685.309       8084.3243      0.63650000       2.0360000     0.062250000       342.35200       1.6900728     0.022326159
       3392.0000       290.42451       99684.688       8061.2016      0.55400000       1.8747500     -0.69775000       342.92100       1.8180686     0.029890138
       3397.0000       290.33711       99683.450       8013.8018      0.97275010       1.3587500     -0.98125000       341.20300       1.9479526     0.027523547
       3402.0000       290.14092       99697.051       7879.8083      0.67300000       1.3292500      0.14350000       342.22900       1.8877829     0.028662115
       3408.0000       290.10004       99684.720       7830.2140       1.2890000       1.1545000     -0.81525000       341.42700       1.8444597     0.030289284
       3413.0000       290.08758       99682.090       7833.6121       1.0772500       1.8827500     -0.42350000       342.01100       1.8826892     0.039417406
       3418.0000       290.09971       99685.598       7870.6307      0.42975000       1.3212500     -0.55625000       341.06000       1.8606357     0.031754124
       3423.0000       290.13555       99703.959       7932.7873      0.62325000       1.0802500     0.057750000       342.27500       1.8835423     0.028739966
       3428.0000       290.19865       99698.072       8035.7078      0.59475000       1.1562500     -0.14550000       341.56900       1.8118906     0.029858335
       3433.0000       290.30584       99684.682       8212.1641     0.042750000      0.34825000     -0.16300000       341.60100       1.8239614     0.036895254
       3438.0000       290.39960       99676.801       8314.4514      0.52825000       1.0592500      0.20675000       342.13500       1.8593446     0.020186842
       3443.0000       290.42583       99672.020       8377.0770      0.72225000       1.2622500     0.016500000       342.53500       1.8444130     0.038734131
       3448.0000       290.36971       99690.452       8362.5605      0.18650000       2.1225000      0.38900000       342.43300       1.8555499     0.030364477
       3453.0000       290.31250       99694.179       8347.8478      0.71125000       1.2032500     -0.57825010       341.14500       1.8481363     0.033853682
       3458.0000       290.23066       99690.532       8318.1891    -0.019500000       1.5272500      0.39200000       341.75500       1.9461123     0.026383295
       3463.0000       290.08970       99675.867       8264.6878     0.077500000       1.0152500     0.056000000       341.91900       1.8796102     0.031085329
       3468.0000       290.03234       99669.892       8235.7084      0.20850000   -0.0027500000      0.54725000       343.49000       1.8615117     0.029338951
       3473.0000       289.98807       99656.904       8200.2115      0.85900000       1.2150000    -0.079000000       343.39300       1.9581717     0.017397996
       3478.0000       290.01500       99673.903       8197.5425      0.45725000       1.1780000      0.10425000       342.18600       1.7612738     0.032635784
       3483.0000       290.00646       99677.375       8177.2513       1.5732500       1.6017500    -0.088250000       341.25700       1.8649556     0.033345848
       3488.0000       289.92493       99669.493       8091.5136       1.0967500       1.0012500     -0.14075000       341.66000       1.8169326     0.030277101
       3494.0000       289.93740       99675.550       8093.0962       1.1320000      0.96850000      0.41275000       343.18100       1.7610760     0.021313338
       3499.0000       289.99756       99687.350       8167.2135       1.9550000       1.4607500    0.0057500000       342.92300       1.8714297     0.036564378
       3504.0000       290.04954       99686.088       8201.8592       1.5065000       2.2772500    -0.026500000       342.40800       1.9908045     0.021030452
       3509.0000       290.14504       99684.405       8287.6798      0.74850000       2.6650000     -0.18700000       341.87600       1.7571290     0.028534974
       3514.0000       290.26640       99687.167       8344.8549       2.1275000       3.3810000     -0.32375000       341.88700       1.9056939     0.039044844
       3519.0000       290.43907       99672.772       8330.6874      0.66400000       3.4952500     0.019500000       341.47900       1.7423778     0.027767340
       3524.0000       290.52677       99671.565       8356.1527      0.10400000       4.0330000      -1.2585000       341.35000       1.9224406     0.035596415
       3529.0000       290.65491       99701.308       8422.4524       2.6450000       3.1275000     -0.11450000       342.24800       1.8505297     0.024806940
       3534.0000       290.68886       99705.539       8468.0684       1.6345000       3.7720000     -0.65625010       341.59800       1.9470570     0.032999915
       3539.0000       290.52716       99684.287       8495.1472       2.3227500       2.2010000      0.11525000       342.77000       1.9596915     0.030472711
       3544.0000       290.48011       99683.722       8545.3545       1.4210000       2.6472500     -0.30050000       342.12400       1.9300128     0.028007362
       3549.0000       290.39396       99681.586       8615.9941       1.2355000       2.1657500     -0.59175000       342.77900       1.9942677     0.021079111
       3554.0000       290.42263       99682.237       8662.8128       3.8152500       2.1445000     0.044500000       341.67800       1.8940821     0.028275162
       3559.0000       290.62619       99712.496       8730.2866       1.1785000       2.1825000      0.16125000       342.22600       2.0075882     0.021847329
       3564.0000       290.72538       99716.299       8764.9928       3.4345000       2.9000000     -0.15375000       341.48600       1.9868148     0.027915872
       3569.0000       290.86214       99685.774       8759.1306       2.1907500       1.7782500      0.14550000       341.46000       1.9601417     0.031974466
       3574.0000       290.93801       99681.198       8751.3601      0.79650000       1.8290000      0.58075000       342.59200       1.9586518     0.032988779
       3579.0000       290.90009       99685.086       8730.7637     0.015250000       2.4785000      0.42875000       342.26600       2.0030435     0.024732475
       3585.0000       290.90004       99683.703       8699.2993       1.2025000       2.9382500     -0.21900000       341.65000       1.9991923     0.029236716
       3590.0000       290.93921       99703.976       8648.7790       1.4427500       3.9710000     -0.72275000       341.91900       1.7843809     0.031484006
       3595.0000       290.89858       99704.004       8619.6095       2.2197500       2.8822500      0.16550000       342.91700       2.0015031     0.013224084
       3600.0000       290.82979       99673.635       8619.2039      0.66400000       3.2077500     -0.93650010       342.49000       1.9481055     0.034829234
       3605.0000       290.72818       99671.402       8573.7058       1.5020000       2.2867500     -0.65125000       341.96900       1.9673172     0.031945383
       3610.0000       290.51620       99683.410       8504.4026       1.8882500       2.8012500      0.13825000       341.94500       1.8840034     0.032190774
       3615.0000       290.39324       99685.733       8452.8089      0.87425010       1.7882500     0.097500000       343.08200       1.8495105     0.033024311
       3620.0000       290.32794       99703.918       8388.5147     0.075750000      0.86325000      0.61500000       343.85600       1.8704117     0.031818185
       3625.0000       290.20414       99704.072       8313.1923      0.58850000       1.4732500      0.77000000       343.18900       1.9826978     0.035516385
       3630.0000       290.05258       99673.454       8232.8084      0.50150000       2.5392500      0.37675000       342.82000       1.9280511     0.031709454
       3635.0000       289.95715       99671.135       8179.0100      0.53500000       2.8267500     0.068250000       341.28600       1.9117242     0.028511866
       3640.0000       289.80587       99682.969       8091.9735      0.99850000       1.2312500     -0.18500000       341.07200       1.7864764     0.024165546
       3645.0000       289.75548       99685.354       8062.5886       1.0075000       2.0000000    -0.060000000       341.69700       1.8758237     0.014624161
       3650.0000       289.83772       99703.655       8098.4722      0.21850000       2.6485000     -0.60125010       341.31400       1.8511194     0.024365276
       3655.0000       289.85758       99703.528       8116.8960     0.098750000       2.5307500     0.042000000       341.29900       1.8528394     0.039345338
       3660.0000       289.86978       99675.647       8147.4204     -0.35950000       2.0522500     0.095750000       341.56600       1.8927389     0.029304117
       3665.0000       289.91370       99670.446       8182.5541     -0.63425000       2.9680000     -0.80425010       341.40500       1.8908091     0.031865799
       3670.0000       289.95111       99673.231       8208.1294     -0.89625010       2.9467500     -0.16200000       341.11600       1.9595281     0.024511831
       3676.0000       290.03485       99675.030       8283.6908     0.079250000       2.7537500     -0.33475000       341.27100       1.8342472     0.036789302
       3681.0000       290.15987       99693.363       8357.8079      0.42425000       2.1160000      0.19975000       341.81300       1.8210447     0.025984878
       3686.0000       290.25917       99692.665       8473.0152     -0.15750000       2.1087500     -0.65725000       342.48300       1.9002021     0.035890279
       3691.0000       290.36908       99674.383       8657.3952      0.11975000       3.1465000     -0.13400000       342.42900       1.9900260     0.026504294
       3696.0000       290.45300       99673.213       8782.4518     -0.76025000       3.5670000    -0.074500000       340.93700       1.9526857     0.036312038
       3701.0000       290.55004       99673.094       8960.9605     -0.27850000       2.7155000      0.33775000       341.98700       1.8392747     0.031191500
       3706.0000       290.58146       99674.883       9002.5042     -0.48650000       2.6515000     -0.21175000       342.12900       1.8527246     0.038746949
       3711.0000       290.54531       99694.621       8927.9325      0.30650000       2.8025000     -0.15375000       341.68600       1.8358189     0.017591976
       3716.0000       290.55525       99692.403       8899.4892    -0.044500000       2.3190000     0.052000000       342.56200       1.9236583     0.035474657
       3721.0000       290.54302       99669.148       8817.0049      0.45875000      0.82275000      0.28900000       343.08500       1.7949135     0.024711068
       3726.0000       290.54919       99667.693       8749.6380      0.67375000      0.78675000     -0.24200000       343.09100       1.9336415     0.022208008
       3731.0000       290.59937       99667.033       8706.2308       1.8262500       1.0650000      0.42325000       342.72300       1.7787871     0.029040345
       3736.0000       290.61281       99669.635       8644.5988       2.4025000       1.5990000     0.076000010       343.06400       1.9066548     0.031340631
       3741.0000       290.59973       99694.076       8542.6049       2.5817500       1.4180000      0.11275000       342.93000       1.7892451     0.018722829
       3746.0000       290.59956       99692.947       8477.3703       1.9097500       1.2175000     -0.25125000       341.40900       1.8091087     0.022722792
       3751.0000       290.58913       99668.595       8421.4533       1.7702500       1.4372500     -0.25850000       341.10800       1.8306161     0.028962274
       3756.0000       290.60550       99667.030       8399.1462       1.4727500      0.69850000     -0.14350000       341.08500       1.7655564     0.021785012
       3761.0000       290.61950       99665.245       8381.8025       1.5905000       1.5447500   -0.0010000000       341.29100       1.9360013     0.028153956
       3767.0000       290.68484       99673.082       8422.9545       2.0545000      0.85650000     -0.39950000       341.68600       1.8565251     0.032185376
       3772.0000       290.81302       99705.349       8546.8389       1.8837500       1.0132500     -0.14750000       341.21800       1.8383637     0.024349205
       3777.0000       290.82721       99704.675       8561.8922       2.0405000       2.1520000     -0.14575000       341.36300       1.8462726     0.024490678
       3782.0000       290.81578       99686.369       8568.7960      0.49775000       1.5222500     -0.30300000       341.14000       1.9032494     0.035651204
       3787.0000       290.79763       99682.277       8544.2637      0.29250000       1.2597500     -0.53275000       341.23400       1.7808731     0.023927861
       3792.0000       290.69471       99667.138       8431.1725    -0.095750000      0.80075000     -0.11350000       341.40900       1.9910676     0.016803938
       3797.0000       290.67178       99667.238       8403.4180     -0.17025000      0.75675000    -0.075000000       341.53900       1.9220010     0.028234263
       3802.0000       290.69159       99686.453       8407.4436     -0.36550000       1.1895000    -0.032500000       342.66900       2.0119729     0.014012742
       3807.0000       290.71050       99688.854       8410.6406       1.1612500      0.51875000     -0.20425000       341.53400       1.7625813     0.025262430
       3812.0000       290.73676       99687.634       8444.8643      0.67950000      0.62300000     -0.17200000       342.04500       1.7427034     0.022316222
       3817.0000       290.77507       99682.998       8441.1762       1.0675000      0.51750000     0.026250000       342.27900       1.8064605     0.032214222
       3822.0000       290.84844       99668.143       8423.2569      0.43350000      0.83875010      0.36900000       343.22800       1.9084371     0.029935224
       3827.0000       290.87965       99668.698       8420.4518      0.70350000      0.63100000    -0.096000000       342.72900       1.7637170     0.027491893
       3832.0000       290.93802       99673.761       8415.7118       1.6640000      0.99100010      0.37900000       342.90400       1.8366254     0.028310464
       3837.0000       290.87400       99677.594       8391.1370       1.3082500       1.5835000      0.30400000       343.76300       1.8868204     0.025903548
       3842.0000       290.74007       99694.919       8390.2253       1.5290000       2.3840000     0.041750000       342.22800       1.8495773     0.035637950
       3847.0000       290.60421       99690.863       8320.1785       2.4325000       2.1835000     -0.15450000       341.52200       1.9817561     0.020952256
       3852.0000       290.34882       99669.051       8176.0752       1.8482500       1.8767500     0.089750010       341.03300       1.8581903     0.028891071
       3858.0000       290.22986       99663.875       8062.8895       1.3592500       1.4715000     -0.40625000       341.59000       1.8678679     0.029980677
       3863.0000       290.17497       99662.253       8011.6709       1.2282500      0.59225000     -0.22800000       341.79200       1.7534706     0.029538316
       3868.0000       290.16924       99666.769       7999.8560       1.2722500      0.58075000     -0.21525000       342.09200       1.9019351     0.020398985
       3873.0000       290.24237       99689.016       8048.6671       1.2297500      0.74200000      0.12825000       343.26900       1.9103595     0.027735372
       3878.0000       290.28407       99687.159       8076.8726      0.72025000      0.69025000      0.18025000       343.11000       1.8725074     0.022919600
       3883.0000       290.35013       99675.766       8124.4275      0.80750010       1.9817500      0.19575000       343.20100       1.7600568     0.016642399
       3888.0000       290.41559       99660.322       8206.8203      0.36550000       2.0915000     -0.54075000       341.48000       1.7325131     0.032210422
       3893.0000       290.45744       99656.395       8242.8837      0.56275000       1.7550000     0.058250000       342.42300       1.7835411     0.027393907
       3898.0000       290.45490       99670.823       8228.3628      0.16750000       1.0780000      0.27425000       342.50300       1.8836143     0.020911539
       3903.0000       290.49335       99675.940       8254.3855     -0.23450000       1.7662500     0.062500000       341.99200       1.9178726     0.016050793
       3908.0000       290.54415       99679.821       8284.6087      0.10350000       1.7320000      0.15450000       341.30600       1.7608845     0.024469426
       3913.0000       290.60496       99689.160       8296.5139     -0.75800000       2.7522500     0.028500000       341.11400       1.9366564     0.028895967
       3918.0000       290.62384       99683.193       8308.0289     0.031000000       2.0667500     -0.15025000       341.67200       1.8234281     0.026766779
       3923.0000       290.66243       99663.114       8355.0634     -0.35625000       1.0455000    -0.046500000       341.11300       1.7961370     0.025683589
       3928.0000       290.62981       99662.378       8347.8872     -0.32425000      0.70925000     0.073750000       341.89900       1.8467553     0.033749579
       3933.0000       290.59978       99662.838       8332.2527     -0.54875000       1.0517500     -0.37650000       342.30700       1.6861869     0.022619298
       3938.0000       290.58448       99683.545       8325.9967     -0.95200000      0.86075000     -0.22450000       341.14600       1.9684025     0.014589582
       3943.0000       290.55579       99689.192       8308.9722     -0.89575000       1.1527500    -0.092750010       341.55800       1.8240137     0.027651831
       3949.0000       290.46170       99680.361       8244.7086      -1.2147500      0.93025000     -0.23650000       341.09500       1.7124527     0.017375797
       3954.0000       290.43437       99675.107       8210.3521      -1.0422500      0.67000000     -0.10600000       341.14700       1.7412779     0.026351480
       3959.0000       290.44264       99654.095       8186.4395      -1.0195000      0.35175000     -0.35225000       341.58400       1.7675051     0.021690573
       3964.0000       290.44378       99651.030       8165.1330     -0.83700000      0.11550000     0.073000010       342.53100       1.7346979     0.018700117
       3969.0000       290.50365       99666.307       8151.2651     -0.75475000      0.29225000     -0.17475000       341.37100       1.7679728     0.026383719
       3974.0000       290.51126       99671.322       8142.3064    -0.021750000      0.55975000      0.58450000       342.94400       1.9872382    0.0095466111
       3979.0000       290.49409       99687.281       8154.3111      0.60075000       1.2422500     -0.25700000       342.46000       1.6868297     0.015592236
       3984.0000       290.45196       99689.604       8140.6144     0.079750000       1.4767500    -0.070000000       341.44200       1.9388955     0.018529651
       3989.0000       290.34109       99669.474       8110.9721     0.093500000      0.34075000      0.50250000       343.16900       1.8777883     0.025676086
       3994.0000       290.28267       99662.756       8090.2034     -0.27725000      0.92100010      0.17725000       341.64500       1.6468846     0.023341233
       3999.0000       290.20432       99652.065       8023.6145       1.2677500       1.6667500     -0.38625000       341.86400       1.7584737     0.023474203
       4004.0000       290.17849       99651.882       8017.7418      0.52625000       2.0192500    -0.037500000       342.61800       1.7784059     0.029267691
       4009.0000       290.24816       99670.886       8081.7338      0.26700000       1.3995000      0.17075000       343.23000       1.8189085     0.022715474
       4014.0000       290.25685       99677.683       8101.8589      0.73000000       1.9225000     -0.18975000       341.98000       1.7217988     0.025467093
       4019.0000       290.26926       99687.997       8139.8194       1.3005000       1.8935000     0.011250000       341.49800       1.7240245     0.029885565
       4024.0000       290.25651       99688.219       8156.4402       1.1240000       2.0090000    -0.082500000       341.62900       1.8100237     0.023162568
       4029.0000       290.18948       99666.676       8131.5705      0.50650000       1.6127500     -0.23500000       342.15000       1.7279309     0.026206578
       4035.0000       290.13009       99661.955       8107.5864       1.8342500       1.8877500     -0.36550000       343.48300       1.8584273     0.021184978
       4040.0000       290.06674       99661.856       8087.1211       1.9072500       3.0865000     -0.41550000       342.63500       1.8307375     0.022128885
       4045.0000       290.03047       99664.299       8065.3374       1.1102500       3.4772500     -0.71350000       341.48600       1.7272351     0.023506751
       4050.0000       289.99134       99686.544       8014.7949       1.3905000       3.4370000     -0.44075000       341.08600       1.7673211     0.022235124
       4055.0000       289.98900       99689.261       8005.0718      0.82625000       2.1795000     -0.23750000       341.29300       1.8528710     0.024297192
       4060.0000       290.03828       99675.843       8018.8313      0.91850010       1.8887500   -0.0032500000       341.99500       1.9369281     0.014268907
       4065.0000       290.05853       99674.274       8034.9897      0.67375000       2.3062500     -0.35775000       341.33300       1.8264008     0.024714791
       4070.0000       290.09527       99672.115       8085.3316      0.72500000       1.1605000      0.30175000       342.10600       1.7160951     0.029308830
       4075.0000       290.11185       99668.530       8112.0305     -0.16550000      0.21675000      0.18025000       343.40200       1.8272333     0.024746062
       4080.0000       290.08713       99667.792       8110.5090      0.34325000      0.94800010      0.36525000       343.73200       1.8788208     0.024992175
       4085.0000       290.10073       99671.129       8146.8549     -0.54125010       2.2250000     -0.17400000       342.16500       1.8067052     0.026545178
       4090.0000       290.13789       99676.649       8225.6731     -0.15900000       2.3457500     -0.18075000       342.22500       1.7582902     0.034826655
       4095.0000       290.15818       99675.351       8246.8804       1.2715000       1.9000000      0.86325000       341.80100       1.9263954     0.014381012
       4100.0000       290.19482       99678.471       8263.5771     -0.48275000       2.8752500    -0.092750010       342.85800       1.6710298     0.027164401
       4105.0000       290.21123       99675.961       8268.0332       1.6535000       4.1135000     -0.70575000       341.83600       1.7118000     0.028920934
       4110.0000       290.19946       99656.382       8211.1722      0.40225000       3.3527500      0.14625000       342.26200       1.8298431     0.025143660
       4115.0000       290.19927       99650.740       8186.6172     -0.56225000       3.1330000      0.14075000       342.80200       2.0018221     0.017425903
       4120.0000       290.20001       99650.810       8201.4328     -0.83225010       3.6250000     -0.55100000       341.57400       1.8186657     0.024954932
       4126.0000       290.20001       99656.822       8170.1136       1.7215000       3.2710000     -0.56275000       341.76500       1.8327784     0.025976300
       4131.0000       290.18901       99676.178       8108.7795      0.46050000       2.5597500     0.081750010       342.98100       1.9181261     0.016392922
       4136.0000       290.20514       99678.696       8081.5299      0.75275000       1.8495000      0.11150000       342.42100       1.7793707     0.030698388
       4141.0000       290.22977       99681.479       8023.8273     -0.12300000       1.8760000     0.058500000       341.41800       1.7180404     0.027547773
       4146.0000       290.26643       99674.711       8041.7133      0.57125000      0.69550000      0.13900000       343.31500       1.9388069     0.016245787
       4151.0000       290.34035       99644.715       8143.4877       1.4102500      0.94625000     -0.40725000       342.32500       1.8292356     0.024067429
       4156.0000       290.37427       99639.415       8171.0337      0.71525000      0.66225000    -0.081250000       342.91500       1.8478888     0.024339601
       4161.0000       290.38823       99639.930       8197.0640       1.2072500       1.1252500      0.12950000       342.69400       1.6809894     0.022903447
       4166.0000       290.41834       99646.630       8228.7037       1.7232500       1.2387500      0.33575000       342.10700       1.7812759     0.027713565
       4171.0000       290.43127       99673.812       8210.3532       2.1812500       1.0732500     -0.68950000       341.56900       1.7164071     0.020262978
       4176.0000       290.46747       99682.232       8240.1131       2.2745000      0.18475000      0.41050000       342.34000       1.6674645     0.021653593
       4181.0000       290.51810       99689.462       8316.9361       2.3042500     -0.16900000     -0.20200000       341.24500       1.8182077     0.021146312
       4186.0000       290.58507       99686.585       8378.6598       2.0380000   -0.0065000000      0.16950000       341.41000       1.9638792    0.0078170147
       4191.0000       290.66092       99667.905       8407.3315       2.0207500       1.2887500     -0.11575000       341.27100       1.8823053     0.013933949
       4196.0000       290.74757       99660.582       8519.0065       1.0077500      0.95575000     -0.29675000       341.26000       3.9494889     0.028477923
       4201.0000       290.88507       99647.005       8705.2348      0.66550000      0.85900000     0.045750000       341.56100       4.4774563     0.028102797
       4206.0000       290.95299       99647.700       8834.8405     0.089000000      0.58225000      0.10400000       342.50200       2.5473498     0.029733277
       4211.0000       290.98780       99662.936       9044.0718       1.0642500      0.80375000     -0.37900000       341.27800       1.9482308     0.032487761
       4217.0000       291.03833       99670.047       9101.2659      0.93800000       1.3705000      0.12925000       341.88100       1.9166331     0.026719966
       4222.0000       291.05495       99684.147       9031.8721      0.73400000       1.9320000     -0.38000000       341.40700       1.7069394     0.018902208
       4227.0000       291.05632       99682.093       8991.7684       1.1490000       1.9992500     -0.27025000       341.64000       1.9294990     0.011464853
       4232.0000       291.06801       99668.575       8872.2189       1.3165000       2.1142500   -0.0012500000       341.11600       1.8339518     0.029517230
       4237.0000       291.04023       99658.675       8817.0534       1.5095000       1.5037500     -0.35550000       341.14900       1.8413965     0.023693583
       4242.0000       290.94327       99638.781       8771.2280       1.3007500       1.1470000     -0.20425000       341.24000       1.9478042     0.013191837
       4247.0000       290.93089       99635.210       8767.4756       1.5300000       1.3160000     -0.10100000       341.63600       1.7490383     0.029946054
       4252.0000       290.97088       99636.463       8812.5239       1.1767500       1.7460000      0.12000000       342.43900       1.7688097     0.023657881
       4257.0000       290.92380       99643.840       8791.7694     0.072500010       1.9300000     -0.38150000       342.38800       1.8821010     0.014343515
       4262.0000       290.87408       99664.725       8793.2531     -0.61725000       1.9857500      0.15925000       342.67200       1.9269730     0.018060984
       4267.0000       290.80730       99672.910       8731.2836     -0.15825000       2.1530000      0.28025000       342.50400       1.7929201     0.023692744
       4272.0000       290.65500       99683.084       8596.0605      0.45225000       3.5832500     -0.52325000       342.58400       1.7254347     0.022138208
       4277.0000       290.58263       99682.572       8490.7619     0.018750000       2.2525000     -0.61725000       342.15000       1.8495346     0.022100358
       4282.0000       290.53347       99671.800       8352.3033     -0.11700000       1.3540000      0.42525000       343.70500       1.7774488     0.026688312
       4287.0000       290.53978       99665.814       8295.8603      0.33600000       2.3095000     -0.16625000       342.17500       1.8025363     0.026251165
       4292.0000       290.59914       99652.173       8259.8834      0.63800000       2.6535000     -0.10000000       342.19400       1.8536249     0.021702493
       4297.0000       290.60909       99653.522       8247.5530     0.028750000       2.6197500     -0.23425000       343.47400       1.8241798     0.027883988
       4302.0000       290.66894       99663.859       8305.4553      0.97825000       2.7945000     -0.55800000       342.45400       1.8019299     0.032824403
       4308.0000       290.57021       99675.777       8305.8495       2.8057500       1.6115000     -0.55425000       343.00300       1.8682972     0.021771327
       4313.0000       290.53799       99682.127       8318.9420      0.74975000       2.0920000     -0.55475000       342.04100       1.7755670     0.027675467
       4318.0000       290.53040       99684.782       8340.3631       1.0842500       3.4030000     -0.22700000       341.68100       1.7081657     0.026260006
       4323.0000       290.57008       99681.766       8387.8973     -0.85500000       2.0182500      0.19250000       342.55100       1.6845756     0.028645716
       4328.0000       290.49594       99677.538       8364.1210     -0.11250000       2.7090000     -0.36100000       341.62600       1.7829824     0.028544665
       4333.0000       290.39483       99672.213       8312.1084      0.50200000       2.1307500     -0.25975000       342.05900       1.8225357     0.025094165
       4338.0000       290.33601       99651.043       8304.7610       1.1442500       1.9990000    -0.022000000       342.81200       1.8002919     0.024037105
       4343.0000       290.28167       99642.324       8279.9623      0.44025000       2.7607500     -0.44625000       342.67800       1.7483184     0.020009940
       4348.0000       290.32555       99636.349       8287.4241      0.19475000       2.7400000     -0.58375000       342.73100       1.7020019     0.022821197
       4353.0000       290.35656       99636.686       8296.1103       1.0392500       2.4540000     -0.70500000       341.55800       1.7144742     0.020512261
       4358.0000       290.37529       99644.412       8295.1956       2.2550000       2.8065000     -0.86300000       341.66900       1.7379149     0.030009552
       4363.0000       290.33667       99665.779       8242.8614      0.36225000       2.6557500      0.44325000       342.53600       1.9094012     0.018388833
       4368.0000       290.36992       99675.734       8271.7103      0.96850000       2.5402500     -0.15675000       341.58300       1.7265489     0.026068765
       4373.0000       290.44998       99688.772       8348.9843       1.0477500       1.7027500     0.059000000       342.23200       1.6661351     0.013133556
       4378.0000       290.56032       99681.054       8426.4876       1.0790000       2.0990000     -0.54375000       341.48700       1.7705134     0.020972181
       4383.0000       290.57624       99676.282       8467.5436       1.1102500       2.2620000      0.20450000       341.82900       1.6620910     0.027644932
       4388.0000       290.50910       99664.659       8487.2898       1.1847500       2.0867500     -0.32300000       341.59600       1.8342127     0.020482635
       4393.0000       290.46142       99654.633       8485.2682       1.0000000       2.0707500     -0.21550000       342.43900       1.8062108     0.024404825
       4399.0000       290.29558       99637.441       8414.4030      0.69925000       2.2227500     -0.28125000       341.83700       1.6905603     0.012763380
       4404.0000       290.21968       99637.204       8388.5637      0.52525000       2.7157500     -0.37400000       341.99600       1.6938518     0.026425403
       4409.0000       290.23913       99648.774       8391.8299      0.77800010       1.8987500    -0.060750000       343.28700       1.7611739     0.022028838
       4414.0000       290.19772       99655.032       8356.9580      0.37275000       1.7337500     -0.16300000       342.86200       1.7475865     0.027764517
       4419.0000       290.13246       99675.143       8321.8374      0.98900000       3.0980000      0.24325000       342.49300       1.7388437     0.032804522
       4424.0000       290.09253       99684.623       8282.5643       1.0305000       2.5740000     -0.94650010       342.08800       1.9114579     0.013618330
       4429.0000       290.01944       99684.513       8188.3465       1.8382500       3.9857500     -0.39350000       341.55900       1.9014115     0.025063978
       4434.0000       289.98144       99681.225       8133.7291       1.3920000       2.9380000     -0.33600000       341.84700       1.6250830     0.027884880
       4439.0000       289.99980       99672.930       8117.1879       1.2662500       2.4695000     -0.16475000       342.14100       1.6730640     0.027776684
       4444.0000       289.99969       99664.715       8088.9247      0.41825000       2.9977500      0.17625000       342.98700       1.8086766     0.028036501
       4449.0000       289.95609       99643.657       8028.1728       1.2032500       2.3860000     -0.21625000       342.14100       1.7772946     0.033975087
       4454.0000       289.99034       99636.368       8036.3020       1.1667500       2.9420000     -0.52350000       342.45400       1.7574561     0.034982216
       4459.0000       290.12999       99634.993       8108.7705       1.0525000       4.0550000      0.58125000       342.41500       1.7403800     0.035481574
       4464.0000       290.16727       99638.740       8141.5343      0.57500000       2.1980000      0.14375000       341.97800       1.8302194     0.025944047
       4469.0000       290.20220       99658.808       8210.6003       1.7347500       4.8565000     -0.60325000       341.77700       1.6911173     0.032794044
       4474.0000       290.21870       99668.652       8258.3662      0.34425000       3.1010000     -0.31175000       342.55300       1.7287016     0.033177788
       4479.0000       290.11916       99680.158       8255.0828      0.80225000       3.6770000     -0.59400000       342.68600       1.6461126     0.027246978
       4484.0000       290.08239       99683.379       8265.5786       1.0850000       5.0067500     -0.29550000       342.19400       1.6396453     0.030012535
       4490.0000       290.10022       99676.673       8305.6996       1.7912500       4.9350000     -0.16950000       343.16700       1.7840499     0.029589677
       4495.0000       290.10017       99668.604       8313.7905      0.52100000       4.5057500     -0.43650000       341.97300       1.7141593     0.032961689
       4500.0000       290.08695       99650.305       8290.4402     -0.37050000       4.6722500      -1.1652500       341.82000       1.7306095     0.037077203
       4505.0000       290.10090       99641.093       8285.2460      0.28525000       4.0197500     -0.61475000       341.90600       1.7196396     0.031564257
       4510.0000       290.15043       99628.057       8280.4979      0.15325000       3.9812500     -0.44000000       342.23200       1.8144193     0.035548975
       4515.0000       290.15655       99627.249       8272.1097      0.56025000       2.6497500     -0.51350000       342.41900       1.6829347     0.029328395
       4520.0000       290.13024       99639.198       8254.2420       1.2350000       2.7617500     -0.10625000       342.67300       1.7412143     0.014077746
       4525.0000       290.15355       99647.905       8263.2809       1.7142500       3.4007500     -0.24975000       342.09300       1.6260628     0.028776844
       4530.0000       290.18086       99666.572       8282.8213       1.4072500       3.7542500     -0.73525010       341.85800       1.7230883     0.028398893
       4535.0000       290.20430       99675.403       8303.1049      0.61750000       2.5622500     -0.23650000       342.11100       1.6650028     0.025491470
       4540.0000       290.26355       99681.980       8349.0264      0.40100000       2.1110000      0.20925000       342.36300       1.7943395     0.033002102
       4545.0000       290.32356       99682.405       8386.2760       1.5790000       2.8172500     -0.50025000       342.92300       1.6983837     0.024237733
       4550.0000       290.32519       99676.520       8410.3562      0.73700000       2.2257500     -0.11175000       342.89500       1.6860910     0.032699771
       4555.0000       290.42104       99668.340       8448.3951     0.089500000       2.3037500     0.088250000       343.18200       1.7577597     0.037626824
       4560.0000       290.63323       99650.946       8491.1615      -1.1832500       5.0450000     -0.74350010       342.20800       1.7192935     0.032126922
       4565.0000       290.76019       99640.246       8549.6524       1.9555000       4.3532500      0.18025000       342.08700       1.8308445     0.036976513
       4570.0000       290.94492       99623.934       8629.0643       1.1967500       4.7747500     -0.96650000       342.58100       1.7109728     0.039335469
       4575.0000       291.00118       99621.260       8693.7139       1.2572500       3.4102500     -0.79325000       341.77700       1.6792569     0.012502079
       4581.0000       290.91509       99631.840       8802.9244    -0.029500000       2.6110000      0.21975000       343.13400       1.6891070     0.021828204
       4586.0000       290.88906       99637.990       8836.1144      0.78900000       3.4297500      0.39700000       342.81100       1.7610486     0.038832482
       4591.0000       290.77841       99651.803       8830.9098       2.0022500       4.4845000     -0.39600000       341.72400       1.8526570     0.037828245
       4596.0000       290.78391       99661.127       8821.8430      0.79000000       4.8750000     -0.85200010       341.39000       1.7125905     0.021793227
       4601.0000       290.89507       99668.491       8783.4071      0.65200000       3.2670000     -0.29225000       341.92900       1.7136217     0.021855398
       4606.0000       290.91904       99673.880       8737.3600      0.17300000       1.1950000      0.65975000       342.96900       1.7166199     0.028296616
       4611.0000       290.95670       99682.577       8673.4866      0.72275000       3.3350000     -0.96625010       341.80200       1.8665486     0.033973457
       4616.0000       290.96467       99682.190       8620.3807      -1.0490000       3.9190000     -0.36700000       341.43800       1.6866988     0.036798778
       4621.0000       290.90082       99675.056       8551.1998      0.76150010       3.0785000     -0.46800000       341.84300       1.7889993     0.027187741
       4626.0000       290.88725       99666.182       8497.3159      -1.1217500       4.5035000      0.42050000       342.33600       1.8598987     0.041359037
       4631.0000       290.89954       99649.189       8450.1232      -1.4107500       2.6775000      0.24950000       341.97300       1.7361038     0.035966350
       4636.0000       290.89925       99638.784       8418.7400   -0.0060000000       3.8180000      0.47500000       342.01000       1.7709575     0.033537377
       4641.0000       290.91078       99623.285       8395.7055      0.13050000       4.2712500      -1.0750000       342.19100       1.6592617     0.019795520
       4646.0000       290.89438       99622.150       8376.1304     -0.26525000       2.6360000      0.28000000       343.05400       1.7949312     0.022608483
       4651.0000       290.90193       99632.009       8400.2935     -0.10425000       3.3982500     -0.41575000       342.71000       1.7738538     0.041963024
       4656.0000       290.81737       99638.239       8358.8712      0.82550000       2.6682500      0.45300000       342.64300       1.8940256     0.035222389
       4661.0000       290.64291       99657.744       8279.2092      0.26200000       3.7570000      0.21625000       342.81200       1.7827646     0.027277622
       4666.0000       290.53377       99658.943       8214.6428       1.0607500       2.6630000      0.33325000       342.31300       1.7343702     0.030304098
       4672.0000       290.33382       99644.164       8070.1640       1.0500000       4.1205000    -0.049500000       341.55200       1.7008708     0.038010083
       4677.0000       290.28744       99644.908       8063.8396      -1.1027500       3.0945000     -0.71775000       342.40400       1.8665393     0.026017357
       4682.0000       290.31372       99640.940       8121.8325     -0.54975000       3.6705000      0.15675000       342.76900       1.7039109     0.035029725
       4687.0000       290.37957       99647.394       8162.1976      -1.0522500       4.3470000     -0.20800000       341.48200       1.6661343     0.024612064
       4692.0000       290.51394       99673.118       8264.1683      0.16700000       2.8657500     -0.21500000       342.76600       1.7365806     0.036903995
       4697.0000       290.64201       99675.033       8326.0695      0.71225010       2.9807500      0.20125000       341.72300       1.7523841     0.031050428
       4702.0000       290.83202       99669.579       8338.2279      0.31475000       4.0020000     -0.15350000       342.11100       1.7627548     0.034570607
       4707.0000       290.96345       99660.298       8435.4791      -1.4192500       2.5175000     0.074250010       342.52200       1.6890524     0.027447045
       4712.0000       291.09232       99634.725       8581.9710       1.2160000       1.2747500       1.1257500       342.93200       1.9268142     0.027876789
       4717.0000       291.18415       99627.291       8711.8291       2.2507500       4.0697500     0.094250000       341.62200       1.9306205     0.031365238
       4722.0000       291.26183       99624.027       8927.0551      0.58500000       1.7470000       1.0865000       342.76500       1.8672215     0.033498801
       4727.0000       291.28554       99622.799       8976.7623      0.43600000       3.4985000     0.088750000       342.25100       1.9544691     0.037077479
       4732.0000       291.24805       99627.915       8952.0077      0.32400000       3.7662500      0.35850000       341.73400       1.8900548     0.032710892
       4737.0000       291.25830       99634.744       8920.8841      0.18875000       3.4135000     -0.12075000       342.10300       1.7676524     0.036240025
       4742.0000       291.25252       99642.683       8793.6123     -0.19600000       4.1872500     -0.93850000       341.55800       1.8597943     0.033336047
       4747.0000       291.24260       99652.514       8713.0043     -0.43100000       4.6017500     -0.15775000       342.02500       1.7942369     0.037106381
       4752.0000       291.23933       99672.303       8619.7404      0.57050000       3.0312500     -0.17200000       342.28400       1.8001542     0.030793812
       4758.0000       291.24509       99671.303       8583.3836      0.80975000       3.2370000     -0.63500010       343.01500       1.6591004     0.023242001
       4763.0000       291.28106       99671.578       8581.7937      0.87875000       4.4862500      0.34050000       342.06100       1.8267872     0.041401845
       4768.0000       291.35395       99669.394       8621.4596      0.46050000       3.3237500     -0.48400000       342.59900       1.7488138     0.032480768
       4773.0000       291.53035       99659.743       8766.3823      0.93475000       4.8602500      0.17775000       341.86800       1.8790148     0.038889812
       4778.0000       291.52361       99655.842       8766.4545     -0.20925000       3.4337500     -0.33825000       341.52300       1.8526213     0.036918247
       4783.0000       291.49817       99656.551       8748.7902     -0.54125010       3.0630000     -0.98025010       342.68200       1.8934658     0.027918035
       4788.0000       291.16224       99647.064       8553.8452     -0.42750000       2.0345000   -0.0035000000       342.29800       1.8493944     0.032365275
       4793.0000       290.97605       99639.993       8433.8900     -0.35550000       3.8095000     -0.15300000       341.47500       1.8443809     0.039692820
       4798.0000       290.77365       99628.781       8296.5224    0.0040000000       2.3602500      0.71400000       342.62700       1.6678407     0.028611334
       4803.0000       290.65613       99623.468       8203.2224      -1.3225000       1.3232500      0.43875000       342.99600       1.6863306     0.029208354
       4808.0000       290.62475       99621.849       8150.1152       1.2527500       4.3772500     -0.22725000       342.07100       1.8532046     0.033898509
       4813.0000       290.74327       99623.523       8159.6555       1.2197500       2.4005000      0.20900000       342.22900       1.8121359     0.030046028
       4818.0000       290.78546       99629.133       8157.4259      0.58025000       2.1760000      0.19750000       343.05700       1.9227740     0.025267846
       4823.0000       290.85557       99640.449       8173.7920     -0.53425000       4.0972500     -0.88025000       342.61900       1.7454128     0.033709212
       4828.0000       290.88519       99650.317       8203.9560       1.4025000       2.4280000     0.039500000       342.80100       1.7690500     0.025157893
       4833.0000       290.90672       99656.644       8217.0759    -0.089000000       2.6830000     -0.25550000       342.23600       1.8760786     0.029101651
       4838.0000       290.91545       99658.939       8214.8166     -0.40050000       2.8092500     -0.19925000       342.55200       1.9356986     0.035772985
       4843.0000       290.90692       99661.119       8214.0735      0.77300010       2.4732500    -0.058000000       342.01400       1.7705702     0.021347695
       4849.0000       290.85186       99660.308       8180.6432      0.85100000       2.2780000     -0.15025000       342.11100       1.8408179     0.035849728
       4854.0000       290.84314       99660.291       8189.6139      0.94175000       1.8610000      0.77200000       342.68900       1.7059601     0.020837814
       4859.0000       290.88766       99660.438       8247.5902       1.0997500       2.5502500      0.32475000       342.62100       1.7810193     0.038975621
       4864.0000       290.85530       99660.497       8264.2652      0.90275000       2.4905000      0.19575000       342.18600       1.8153539     0.026401663
       4869.0000       290.78814       99661.711       8286.0684      0.97350010       2.9797500     -0.52675000       342.10300       1.7514699     0.014148225
       4874.0000       290.74695       99660.586       8296.5033       2.0267500       1.6512500     -0.15925000       342.03100       1.9554232     0.032330645
       4879.0000       290.62895       99659.604       8254.2176       1.7890000       3.6797500     0.017750000       342.09900       1.8569977     0.023966830
       4884.0000       290.57178       99655.341       8242.2742      0.10400000       2.1692500     -0.16200000       342.73000       1.8382411     0.027964016
       4889.0000       290.58615       99645.923       8262.1249       1.8500000       2.0845000      0.24975000       342.88400       1.7471568     0.048449157
       4894.0000       290.59756       99639.028       8263.6400      0.14025000       2.9057500      0.63925000       342.37900       1.7317580     0.026353304
       4899.0000       290.66238       99627.566       8285.5707      0.29000000       1.0992500      0.76800000       342.97000       1.8604406     0.026049554
       4904.0000       290.65941       99623.064       8264.8402      0.97000000       1.7860000      0.24775000       343.19500       1.7445110     0.026181575
       4909.0000       290.62185       99624.830       8196.1792      0.85175000       1.4925000      0.11750000       343.64700       1.7342545     0.032103780
       4914.0000       290.60052       99625.017       8152.8243       1.1742500       1.1782500      0.82400010       342.22100       1.7697729     0.025254057
       4919.0000       290.49113       99626.377       8066.0096       1.4662500       3.3402500     -0.37100000       342.12500       1.7259787     0.023451311
       4924.0000       290.47570       99630.434       8038.1357       1.4572500       3.5210000      0.44275000       341.41500       1.7520998     0.024590412
       4929.0000       290.55455       99635.855       8063.7270      0.46300000       2.2670000      0.32925000       342.31100       1.7650777     0.027545830
       4934.0000       290.60560       99641.010       8086.6511       1.0597500       3.0865000     -0.12000000       341.36600       1.7899436     0.034646707
       4940.0000       290.68852       99653.127       8116.8987      0.80725000       2.6132500     0.080750000       341.91100       1.8523526     0.027465340
       4945.0000       290.78131       99658.363       8206.1385       2.3545000       2.2390000     -0.90375010       341.39500       1.8097766     0.035559860
       4950.0000       290.92053       99660.007       8357.4785     -0.49525000       1.7060000      0.21800000       342.93400       1.9452806     0.029954030
       4955.0000       290.98337       99661.715       8476.5802       1.1972500       2.7970000    -0.028500000       341.85200       1.8022468     0.028677514
       4960.0000       291.10943       99660.309       8726.5536      0.25525000       2.7252500     -0.29600000       342.57600       1.7531930     0.025423462
       4965.0000       291.06964       99660.331       8773.4419    -0.051500000       1.6960000      0.16775000       341.46000       1.7800156     0.022615215
       4970.0000       290.82455       99660.277       8675.4158     -0.76575010       2.7757500      0.10675000       341.46400       1.8465503     0.034472056
       4975.0000       290.69386       99660.277       8588.9758     -0.15425000       1.6035000     -0.33425000       341.61400       1.7582550     0.028549409
       4980.0000       290.47359       99664.228       8335.8119      0.93450000       2.8625000     -0.46750000       342.19500       1.7915166     0.033207817
       4985.0000       290.38700       99660.163       8231.5237      0.28625000       2.2087500     -0.25675000       341.65700       1.7949873     0.029262086
       4990.0000       290.44231       99646.461       8206.9880      0.67750000       1.5627500      0.20200000       341.95700       1.8281909     0.026147670
       4995.0000       290.44631       99643.217       8156.0602      0.78325000      0.41900000      0.34500000       342.71100       1.8292069     0.023133279
       5000.0000       290.49419       99642.043       8163.5730       1.6425000       1.0132500      0.18300000       343.04700       1.7658207     0.026931535
       5005.0000       290.51028       99638.370       8130.5294       1.5087500       1.4100000   -0.0082500000       342.50200       1.8035896     0.017103954
       5010.0000       290.51254       99642.771       8053.0317       1.8882500       1.5292500     -0.29400000       342.73800       1.8344169     0.029579246
       5015.0000       290.49874       99640.618       8003.1647       1.5650000       1.0505000      0.38925000       343.55700       1.7404722     0.024335345
       5020.0000       290.46200       99627.488       7968.4791       2.0112500       1.1405000      0.57225000       343.28800       1.8285134     0.035828651
       5025.0000       290.44221       99622.310       7924.8969       1.8110000      0.91525010     -0.26575000       341.18500       1.8975838     0.029183622
       5031.0000       290.40080       99620.316       7863.7834       2.2070000       1.3412500     -0.21025000       341.28600       1.7998715     0.024597230
       5036.0000       290.38702       99618.909       7837.5466       1.9142500       1.7345000      0.20975000       341.80500       1.7618565     0.026961812
       5041.0000       290.40014       99619.195       7809.3296       2.6455000       2.2150000     -0.50025000       341.42200       1.7790365     0.026514833
       5046.0000       290.40009       99620.862       7809.3755       2.4257500       1.6450000      0.20900000       341.46800       1.6745536     0.019899702
       5051.0000       290.36716       99622.177       7817.9938       1.5920000       1.4427500     -0.42225000       341.45500       1.7335829     0.028538182
       5056.0000       290.41629       99627.442       7883.2539      0.99775000       1.0215000     -0.15750000       341.46100       1.7476342     0.031775965
       5061.0000       290.52852       99638.709       8024.1885      0.90200010      0.38300000     -0.66225000       341.43700       1.7327265     0.028565874
       5066.0000       290.58891       99644.139       8089.2782      0.55050000     -0.30425000      0.30175000       342.68500       1.8168574     0.030765452
       5071.0000       290.69796       99650.084       8167.7561      0.14800000      0.10475000      0.32300000       341.83600       1.8574079     0.021763245
       5076.0000       290.73880       99652.747       8222.8821     -0.10900000       2.4555000     -0.46175000       341.69700       1.7996501     0.030433186
       5081.0000       290.70013       99649.234       8211.0334      0.72675000       1.7842500    -0.018750000       342.43300       1.8284206     0.020868614
       5086.0000       290.70013       99650.912       8230.0641      0.25675000       1.0520000      0.65900000       342.74900       1.8105007     0.024390901
       5091.0000       290.71027       99654.342       8282.0782       2.0865000       2.2207500     -0.31625000       342.21400       1.7409740     0.022482894
       5096.0000       290.69348       99656.270       8296.7667       1.3962500      0.97725000     -0.32125000       342.41000       1.7972510     0.022505718
       5101.0000       290.63474       99660.305       8260.5265       2.6082500      0.84075000      0.69700000       343.06500       1.7829999     0.019149117
       5106.0000       290.64692       99661.707       8281.5978      0.39125000       1.4865000     0.067500000       343.18400       1.7073835     0.022339558
       5111.0000       290.67325       99661.605       8318.8158     -0.39775000       3.4467500     -0.77225010       341.33700       1.7779256     0.025774198
       5116.0000       290.71523       99660.016       8364.8545    -0.050750000       2.2615000      0.31150000       342.79000       1.7057079     0.026241917
       5122.0000       290.85169       99655.690       8486.2276      0.78500000       3.4085000     -0.44175000       341.74800       1.8735833     0.025201282
       5127.0000       290.89407       99653.722       8503.3384      0.46050000       2.0062500     -0.42075000       341.25400       1.7356045     0.017818092
       5132.0000       290.90268       99649.996       8487.0725      0.19400000       1.8202500     0.061250000       342.78100       1.8098784     0.023233524
       5137.0000       290.91377       99648.894       8463.1472      0.49750000       1.0537500    -0.021500000       342.46300       1.7597916     0.021335064
       5142.0000       290.89969       99652.023       8379.2972      0.23875000       1.9960000      0.37825000       342.72900       1.8921446     0.036952785
       5147.0000       290.89951       99648.256       8348.9267      0.16500000       2.5357500     -0.22200000       341.17200       1.8604965     0.029972399
       5152.0000       290.90897       99640.798       8344.9329      0.12600000       2.7200000     -0.45300000       341.27300       1.7208398     0.023063518
       5157.0000       290.89037       99636.761       8316.4633    0.0050000000       1.6015000      0.42275000       342.31200       1.8173473     0.019353992
       5162.0000       290.86273       99630.531       8285.1909    0.0065000000      0.64425000     -0.10025000       341.25400       1.7266016     0.017910558
       5167.0000       290.82412       99626.368       8262.3910      -1.5517500      0.33300000     -0.23575000       341.33500       1.7594153     0.021111426
       5172.0000       290.77970       99627.710       8241.2595     -0.29350000    -0.072750000     -0.25200000       341.28700       1.7714185     0.023262922
       5177.0000       290.69131       99621.886       8199.2697     -0.14425000     -0.22475000      0.56850000       343.19600       1.7630947     0.014253269
       5182.0000       290.55903       99609.150       8162.9179    -0.042500000      0.39500000      0.46300000       342.53100       1.7327497     0.020982866
       5187.0000       290.48748       99607.841       8107.5177    -0.012500000       1.3460000     0.045250000       341.69600       1.7227243     0.025072473
       5192.0000       290.38985       99608.990       7998.4896      0.14550000       1.8270000      0.35125000       342.99700       1.7175623     0.025043292
       5197.0000       290.35574       99610.702       7975.6560      0.72825000       1.4107500     -0.29625000       341.49400       1.7655965     0.022028640
       5202.0000       290.37306       99620.844       7976.4695     -0.17700000       1.1762500     0.088500000       342.46100       1.7010161     0.019202263
       5208.0000       290.51964       99620.368       8079.3497      0.24700000      0.84575000      0.40825000       342.83600       1.8108636     0.028893462
       5213.0000       290.56159       99620.403       8131.1634      0.74950000      0.33625000      0.18325000       342.62300       1.7462011     0.023370794
       5218.0000       290.57890       99620.452       8170.3600     -0.14450000       1.0397500     -0.17100000       342.67800       1.8041255     0.024298386
       5223.0000       290.61346       99620.213       8209.6596      0.20075000      0.88975010      0.35925000       342.87500       1.7791866     0.032811350
       5228.0000       290.62023       99620.164       8229.4574    -0.092750010       1.5502500     -0.22525000       341.60400       1.7729959     0.022985109
       5233.0000       290.54425       99619.748       8211.1705     -0.93300000       1.7872500      0.15775000       342.31700       1.7205123     0.026876299
       5238.0000       290.56943       99623.479       8277.8788     -0.49300000       1.9477500     -0.56425010       341.48000       1.9052201     0.033866472
       5243.0000       290.56233       99625.567       8289.7073      -1.3817500       1.6280000      0.13475000       342.91500       1.8890405     0.031139903
       5248.0000       290.51422       99625.716       8298.7769     -0.86125000       1.8347500     0.019250000       341.34200       1.7966873     0.022706075
       5253.0000       290.45576       99629.547       8264.9435     -0.84350000       2.1297500     -0.35325000       341.44200       1.7747060     0.028691232
       5258.0000       290.38502       99634.615       8190.1186     -0.38025000       1.4900000     -0.50400000       341.19700       1.8141466     0.030811761
       5263.0000       290.29524       99642.188       8037.3346     -0.57900010      0.75700000    -0.046250000       342.37000       1.7333049     0.023820636
       5268.0000       290.24623       99639.767       7975.7443     -0.68275000       1.5177500    -0.039500000       341.80800       1.7412121     0.021378936
       5273.0000       290.18235       99635.887       7904.2137     -0.55050000       1.4630000      0.27425000       342.99200       1.7770474     0.025190749
       5278.0000       290.23045       99627.686       7962.2080      0.51325010       1.6200000     -0.36450000       341.48500       1.7638159     0.023650424
       5283.0000       290.25058       99623.210       7983.1805      0.10900000      0.63475000     0.061750000       341.31100       1.7695887     0.020361139
       5288.0000       290.28542       99625.865       8026.0453     0.018000000     0.091750000     -0.30325000       341.48500       1.7891102     0.022819818
       5293.0000       290.30627       99629.729       8037.9450     -0.36425000     -0.17650000     0.099000010       341.92700       1.7764029     0.026581295
       5299.0000       290.29974       99637.075       7978.8192      0.17900000     -0.19975000     -0.15400000       341.38900       1.7519958     0.026398887
       5304.0000       290.29978       99641.045       7967.8130    -0.054750000      0.13750000    -0.099500010       341.52200       1.7558052     0.025998105
       5309.0000       290.28538       99648.171       7943.9868      0.24400000     -0.41300000     0.087000000       342.68100       1.8197545     0.030972023
       5314.0000       290.29684       99651.833       7964.0845     0.082250010     -0.34275000    -0.012750000       342.76800       1.8214179     0.024416444
       5319.0000       290.36234       99650.437       8098.4925      0.44925000     -0.64725010    -0.019500000       341.99900       1.7344937     0.030061610
       5324.0000       290.36000       99650.496       8120.6762      0.43650000     -0.64975010      0.52775000       341.70700       1.6558243     0.024492766
       5329.0000       290.32152       99650.341       8090.9625      0.93925010     -0.25100000      0.30500000       341.48600       1.7412635     0.021647489
       5334.0000       290.30031       99650.363       8070.2007      0.12825000    -0.010750000      0.30075000       342.55300       1.7356398     0.029117588
       5339.0000       290.21921       99650.277       7958.7463    -0.091000010      0.81275000      0.14425000       342.07500       1.7409434     0.025689486
       5344.0000       290.18212       99650.277       7901.8884     -0.58650000       1.1977500      0.11550000       341.82700       1.6938834     0.024062439
       5349.0000       290.19988       99650.245       7903.2323      -1.3082500       1.3312500     -0.22450000       342.19100       1.7099354     0.022323537
       5354.0000       290.19976       99650.245       7881.0918     -0.88700000       1.8252500     -0.20125000       342.17500       1.7594982     0.026918854
       5359.0000       290.18619       99650.438       7835.6142     -0.39175000       1.8092500     -0.11975000       342.26600       1.8431518     0.030060127
       5364.0000       290.19782       99650.497       7826.5823      -1.7942500      0.81800000     -0.33025000       342.82400       1.7705710     0.030676078
       5369.0000       290.26259       99650.277       7855.6082      -2.0357500       1.3790000      0.12075000       341.94000       1.7944455     0.031345968
       5374.0000       290.26035       99650.277       7851.2111      -2.3270000       2.0872500     -0.56450000       342.33300       1.6920038     0.028509911
       5379.0000       290.22238       99650.308       7854.8155      -1.2022500       3.3852500      0.30150000       341.98800       1.7807532     0.031249305
       5384.0000       290.20130       99650.308       7849.3392  -0.00025000000       2.3297500     -0.18500000       342.89800       1.7439865     0.020230728
       5390.0000       290.11055       99650.277       7800.0133     -0.65700000       2.5187500   -0.0077500000       343.25000       1.7941736     0.031512071
       5395.0000       290.07830       99650.277       7772.0538     -0.85050000       2.2802500      0.10050000       342.02500       1.7048395     0.025298439
       5400.0000       290.05991       99650.245       7739.3798     -0.86000000       1.8290000     -0.22550000       341.31500       1.7625942     0.025759156
       5405.0000       290.10163       99650.245       7739.5558     -0.61000000       1.9835000     -0.28350000       341.34400       1.7750269     0.026113846
       5410.0000       290.21417       99650.449       7757.9854     -0.58650000       1.1882500      0.11425000       342.24200       1.8785076     0.037542029
       5415.0000       290.27467       99650.508       7772.9629      0.18600000       1.8387500      0.16900000       342.62300       1.7999849     0.029099950
       5420.0000       290.37239       99650.277       7805.2620     -0.27350000      0.61525010     0.032250000       342.17700       1.6895328     0.025415905
